Sample ID:	C:\MCC\MCC Cal\Test\PlasticA_MCC_30K_min_211019_R2.txt
Sample Weight (mg):	4.95
Heating Rate (C/s):	0.5
Combustor Temp (C):	900
N2 Flow Rate (cc/min):	80
O2 Flow Rate (cc/min):	20
Calibration File:	C:\MCC\MCC Cal\Coeff1 JN10440_30_210304.txt.txt
T Correction Coefficients:	0	1.024463	0
Time Shift (s):	14
*
Time (s)	Temperature (C)	N2 flow rate (cc/min)	O2 flow rate (cc/min)	Flow Rate (cc/min)	Oxygen (%)	HRR (W/g)	Heating rate (C/s)
-0.001	107.682	80.001	19.995	102.963	19.948	0.411	-0.010
0.499	107.650	80.009	19.995	102.973	19.947	0.499	-0.015
1.000	107.667	80.015	19.995	102.978	19.955	-0.039	-0.013
1.500	107.671	80.008	19.994	102.985	19.951	0.241	0.003
2.000	107.655	80.003	19.996	102.993	19.954	0.044	0.004
2.500	107.695	80.011	19.993	102.994	19.951	0.265	0.006
3.000	107.654	80.003	19.996	102.997	19.953	0.116	0.011
3.499	107.653	80.008	19.994	102.996	19.952	0.188	-0.021
4.000	107.647	80.008	19.994	102.996	19.955	-0.033	-0.024
4.500	107.653	80.003	19.995	102.995	19.949	0.359	-0.003
5.000	107.650	80.002	19.995	102.998	19.951	0.216	0.001
5.500	107.669	80.003	19.995	102.996	19.954	0.040	0.009
6.000	107.654	80.006	19.994	102.998	19.954	0.074	0.010
6.500	107.639	80.008	19.995	102.997	19.953	0.114	-0.013
7.000	107.635	79.998	19.995	102.996	19.950	0.290	-0.024
7.500	107.650	80.008	19.995	102.996	19.948	0.413	-0.004
8.000	107.626	79.982	19.998	102.996	19.948	0.459	0.001
8.500	107.616	80.002	19.995	102.992	19.950	0.310	-0.022
9.000	107.635	80.001	19.996	102.993	19.953	0.125	-0.013
9.500	107.583	79.997	19.997	102.997	19.948	0.419	-0.012
10.000	107.611	79.990	19.997	102.999	19.949	0.357	-0.028
10.500	107.621	80.001	19.996	102.997	19.951	0.255	0.007
11.000	107.633	80.011	19.995	103.001	19.951	0.229	0.029
11.500	107.615	80.002	19.995	103.002	19.949	0.361	0.008
12.000	107.635	80.014	19.994	102.996	19.952	0.174	-0.001
12.500	107.614	79.993	19.997	102.997	19.952	0.197	0.000
13.000	107.623	79.992	19.997	102.996	19.948	0.471	-0.007
13.500	107.621	80.019	19.995	102.993	19.952	0.211	-0.002
14.000	107.603	80.006	19.995	102.993	19.948	0.457	-0.006
14.500	107.619	80.001	19.996	102.994	19.950	0.311	-0.011
15.000	107.650	79.997	19.996	102.990	19.945	0.641	0.023
15.500	107.631	79.998	19.996	102.994	19.946	0.547	0.029
16.000	107.618	80.018	19.993	103.002	19.948	0.438	-0.010
16.500	107.611	80.001	19.997	103.014	19.946	0.567	-0.026
17.000	107.621	80.000	19.996	103.022	19.947	0.532	-0.008
17.500	107.629	80.012	19.995	103.032	19.944	0.710	0.011
18.000	107.643	80.003	19.996	103.044	19.942	0.803	0.020
18.500	107.634	80.008	19.995	103.055	19.947	0.518	0.013
19.000	107.702	80.004	19.996	103.060	19.944	0.685	0.032
19.500	107.673	79.995	19.996	103.065	19.945	0.636	0.049
20.000	107.713	80.005	19.996	103.064	19.942	0.854	0.025
20.500	107.692	80.007	19.995	103.060	19.947	0.519	0.015
21.000	107.695	80.004	19.993	103.053	19.944	0.674	0.000
21.500	107.672	80.002	19.995	103.042	19.943	0.764	-0.019
22.000	107.638	80.001	19.996	103.036	19.941	0.919	-0.038
22.500	107.708	80.004	19.995	103.035	19.939	1.044	-0.010
23.000	107.724	80.012	19.994	103.039	19.936	1.222	0.061
23.500	107.740	80.008	19.994	103.045	19.935	1.299	0.059
24.000	107.773	80.004	19.995	103.056	19.933	1.424	0.040
24.500	107.773	80.001	19.995	103.070	19.934	1.366	0.041
25.000	107.806	80.011	19.994	103.087	19.932	1.467	0.033
25.500	107.817	80.015	19.993	103.097	19.933	1.416	0.038
26.000	107.852	80.003	19.995	103.109	19.934	1.333	0.045
26.500	107.864	80.007	19.995	103.119	19.930	1.634	0.047
27.000	107.903	79.992	19.994	103.128	19.930	1.609	0.049
27.500	107.941	80.011	19.994	103.134	19.928	1.766	0.064
28.000	107.951	80.014	19.993	103.142	19.928	1.731	0.062
28.500	107.995	80.011	19.993	103.146	19.924	2.014	0.051
29.000	108.008	80.002	19.995	103.150	19.926	1.867	0.055
29.500	108.078	79.993	19.995	103.150	19.926	1.849	0.070
30.000	108.100	79.998	19.995	103.151	19.924	2.013	0.088
30.500	108.128	80.001	19.994	103.149	19.924	2.029	0.071
31.000	108.202	80.011	19.992	103.149	19.923	2.088	0.076
31.500	108.235	80.001	19.995	103.149	19.925	1.949	0.104
32.000	108.271	80.009	19.993	103.148	19.923	2.083	0.088
32.500	108.351	80.015	19.993	103.149	19.921	2.201	0.092
32.999	108.366	80.004	19.995	103.151	19.919	2.319	0.105
33.499	108.462	80.011	19.992	103.151	19.918	2.396	0.103
33.999	108.475	80.002	19.995	103.150	19.919	2.303	0.111
34.499	108.547	80.014	19.993	103.151	19.919	2.298	0.097
34.999	108.606	80.006	19.994	103.156	19.919	2.308	0.108
35.499	108.654	80.009	19.994	103.160	19.915	2.587	0.119
35.999	108.751	80.005	19.993	103.163	19.922	2.164	0.126
36.499	108.767	80.008	19.995	103.161	19.919	2.354	0.129
36.999	108.787	79.996	19.995	103.162	19.916	2.501	0.075
37.500	108.934	80.003	19.995	103.157	19.916	2.543	0.101
38.000	108.880	80.009	19.994	103.152	19.917	2.473	0.130
38.499	109.037	80.008	19.995	103.157	19.916	2.538	0.098
39.000	109.006	80.003	19.994	103.160	19.917	2.443	0.114
39.501	109.133	80.010	19.993	103.162	19.919	2.344	0.110
40.000	109.282	80.004	19.995	103.170	19.914	2.651	0.186
40.499	109.314	80.007	19.994	103.177	19.916	2.520	0.229
40.999	109.402	79.998	19.997	103.170	19.918	2.381	0.151
41.499	109.410	80.015	19.994	103.164	19.916	2.524	0.108
42.000	109.519	80.015	19.993	103.165	19.915	2.619	0.107
42.501	109.572	79.988	19.998	103.160	19.916	2.512	0.139
43.000	109.660	79.996	19.997	103.149	19.914	2.646	0.151
43.500	109.753	80.004	19.995	103.146	19.914	2.628	0.161
44.000	109.795	80.005	19.995	103.153	19.911	2.844	0.158
44.499	109.891	80.008	19.995	103.157	19.914	2.686	0.136
44.999	109.981	79.999	19.995	103.155	19.913	2.698	0.162
45.499	110.095	80.012	19.995	103.159	19.913	2.742	0.195
46.000	110.138	80.006	19.997	103.162	19.914	2.658	0.181
46.500	110.269	80.004	19.995	103.163	19.907	3.095	0.165
46.999	110.353	80.003	19.994	103.163	19.912	2.778	0.194
47.499	110.429	80.001	19.995	103.170	19.912	2.808	0.188
47.999	110.503	80.000	19.995	103.179	19.913	2.725	0.155
48.499	110.627	80.004	19.996	103.185	19.913	2.702	0.174
48.999	110.653	80.015	19.993	103.188	19.909	2.994	0.174
49.499	110.816	80.010	19.993	103.189	19.914	2.672	0.169
49.999	110.878	80.006	19.995	103.188	19.910	2.940	0.207
50.499	110.972	80.013	19.994	103.187	19.910	2.927	0.191
50.999	111.111	80.012	19.994	103.189	19.909	2.980	0.194
51.499	111.169	80.006	19.994	103.192	19.909	2.954	0.215
51.999	111.281	80.007	19.995	103.192	19.912	2.755	0.184
52.499	111.397	80.006	19.994	103.192	19.909	2.957	0.199
52.999	111.471	80.005	19.995	103.193	19.912	2.808	0.209
53.500	111.620	80.007	19.994	103.190	19.912	2.779	0.207
54.001	111.692	80.002	19.994	103.191	19.909	3.007	0.222
54.500	111.817	80.007	19.994	103.189	19.912	2.781	0.209
54.999	111.892	80.004	19.996	103.189	19.911	2.841	0.198
55.499	112.041	80.008	19.994	103.188	19.909	2.992	0.212
55.999	112.129	79.999	19.995	103.190	19.908	3.051	0.231
56.499	112.227	80.009	19.995	103.190	19.911	2.822	0.212
56.999	112.387	80.007	19.994	103.194	19.911	2.858	0.222
57.499	112.442	79.982	19.997	103.195	19.908	3.054	0.236
57.999	112.599	80.001	19.995	103.192	19.908	3.019	0.213
58.499	112.721	80.004	19.994	103.192	19.909	3.010	0.246
58.999	112.853	80.007	19.995	103.193	19.906	3.184	0.267
59.499	112.950	80.007	19.995	103.197	19.909	2.982	0.242
60.000	113.114	80.011	19.994	103.197	19.910	2.924	0.245
60.501	113.207	79.999	19.994	103.201	19.911	2.852	0.259
61.001	113.293	79.995	19.995	103.200	19.912	2.800	0.218
61.500	113.413	80.015	19.993	103.194	19.910	2.922	0.192
61.999	113.591	80.006	19.994	103.188	19.912	2.774	0.252
62.499	113.734	80.013	19.992	103.188	19.913	2.718	0.309
62.999	113.830	80.007	19.994	103.192	19.911	2.832	0.280
63.499	113.949	79.995	19.995	103.193	19.912	2.785	0.227
63.999	114.072	80.006	19.995	103.194	19.909	2.966	0.228
64.499	114.209	80.004	19.994	103.192	19.910	2.937	0.251
64.999	114.376	80.010	19.993	103.190	19.912	2.766	0.282
65.499	114.475	79.993	19.996	103.187	19.912	2.775	0.286
65.999	114.632	80.005	19.993	103.184	19.908	3.027	0.261
66.499	114.775	80.002	19.995	103.187	19.911	2.829	0.277
66.999	114.882	80.003	19.993	103.188	19.913	2.704	0.275
67.499	115.034	80.016	19.992	103.186	19.915	2.605	0.255
67.999	115.132	80.009	19.994	103.183	19.909	2.981	0.255
68.499	115.312	80.009	19.994	103.187	19.912	2.812	0.263
68.999	115.426	80.005	19.994	103.186	19.912	2.759	0.286
69.499	115.585	79.998	19.996	103.187	19.910	2.939	0.283
69.999	115.719	79.995	19.996	103.189	19.906	3.189	0.283
70.499	115.872	80.003	19.994	103.190	19.907	3.082	0.290
70.999	115.988	80.003	19.995	103.189	19.910	2.888	0.278
71.499	116.122	80.004	19.995	103.189	19.909	2.961	0.260
71.999	116.287	80.002	19.995	103.189	19.909	2.970	0.275
72.500	116.406	80.007	19.995	103.190	19.908	3.055	0.291
73.000	116.545	80.006	19.994	103.192	19.908	3.032	0.271
73.499	116.705	80.000	19.994	103.195	19.911	2.865	0.279
73.999	116.859	80.002	19.996	103.195	19.911	2.863	0.306
74.500	116.990	80.008	19.994	103.195	19.906	3.168	0.299
75.000	117.187	80.004	19.994	103.202	19.909	2.978	0.306
75.499	117.287	80.006	19.995	103.209	19.907	3.119	0.313
76.000	117.459	80.003	19.995	103.209	19.907	3.080	0.285
76.500	117.637	80.003	19.996	103.213	19.909	2.952	0.311
76.999	117.760	80.004	19.994	103.213	19.910	2.944	0.326
77.500	117.945	80.004	19.994	103.207	19.907	3.081	0.304
78.000	118.103	80.003	19.996	103.201	19.910	2.922	0.325
78.499	118.240	80.003	19.995	103.198	19.907	3.116	0.319
78.999	118.410	80.001	19.995	103.203	19.907	3.085	0.302
79.499	118.547	80.002	19.996	103.209	19.911	2.826	0.307
79.999	118.718	80.004	19.994	103.217	19.908	3.051	0.307
80.499	118.893	80.003	19.996	103.220	19.909	2.977	0.327
80.999	119.026	80.002	19.996	103.223	19.907	3.115	0.327
81.499	119.213	80.004	19.996	103.223	19.912	2.794	0.314
82.000	119.334	79.997	19.995	103.218	19.909	2.951	0.314
82.500	119.496	80.002	19.995	103.210	19.908	3.075	0.295
82.999	119.641	80.007	19.995	103.211	19.909	2.958	0.295
83.499	119.847	80.001	19.996	103.215	19.908	3.013	0.329
83.999	120.000	80.004	19.994	103.212	19.910	2.932	0.355
84.499	120.167	80.001	19.995	103.214	19.907	3.108	0.339
84.999	120.340	80.002	19.994	103.218	19.909	2.973	0.330
85.499	120.487	80.005	19.995	103.221	19.908	3.050	0.330
85.999	120.694	80.004	19.995	103.221	19.907	3.089	0.337
86.500	120.844	80.003	19.995	103.232	19.907	3.094	0.356
87.000	121.001	80.003	19.995	103.243	19.907	3.133	0.332
87.499	121.186	80.001	19.995	103.258	19.906	3.196	0.324
88.000	121.363	80.002	19.996	103.265	19.908	3.061	0.352
88.500	121.526	80.002	19.995	103.264	19.905	3.223	0.351
88.999	121.711	80.002	19.995	103.256	19.905	3.228	0.344
89.499	121.847	80.003	19.995	103.247	19.905	3.218	0.334
90.000	122.061	80.003	19.995	103.238	19.906	3.181	0.335
90.500	122.227	80.004	19.994	103.225	19.907	3.121	0.365
90.999	122.395	80.002	19.995	103.219	19.905	3.225	0.357
91.500	122.586	80.001	19.997	103.218	19.906	3.160	0.346
92.000	122.777	80.005	19.993	103.214	19.908	3.043	0.371
92.499	122.948	80.004	19.995	103.212	19.905	3.263	0.372
92.999	123.169	80.001	19.995	103.219	19.902	3.436	0.377
93.499	123.325	80.004	19.996	103.224	19.906	3.178	0.384
93.999	123.504	80.001	19.996	103.223	19.905	3.242	0.356
94.499	123.704	80.005	19.995	103.225	19.904	3.293	0.357
94.999	123.937	80.002	19.994	103.226	19.908	3.062	0.406
95.500	124.039	80.003	19.995	103.229	19.907	3.133	0.384
96.000	124.243	80.004	19.994	103.233	19.904	3.330	0.321
96.499	124.432	80.002	19.994	103.238	19.905	3.221	0.349
96.999	124.660	80.003	19.995	103.240	19.901	3.482	0.405
97.499	124.855	80.002	19.996	103.238	19.906	3.161	0.420
98.000	125.014	80.003	19.995	103.234	19.907	3.082	0.388
98.500	125.180	80.001	19.994	103.229	19.907	3.119	0.339
98.999	125.386	80.002	19.994	103.232	19.903	3.353	0.349
99.499	125.602	80.003	19.994	103.232	19.902	3.414	0.397
99.999	125.765	80.001	19.996	103.240	19.901	3.483	0.401
100.499	125.974	80.001	19.996	103.248	19.903	3.363	0.376
100.999	126.170	80.005	19.995	103.255	19.902	3.416	0.389
101.499	126.362	80.003	19.995	103.253	19.901	3.533	0.396
101.999	126.587	80.002	19.996	103.252	19.901	3.477	0.402
102.499	126.721	80.004	19.995	103.246	19.903	3.367	0.388
103.000	126.940	80.001	19.997	103.238	19.901	3.531	0.356
103.500	127.167	80.006	19.995	103.228	19.903	3.365	0.400
103.999	127.339	79.992	19.996	103.225	19.903	3.400	0.422
104.499	127.564	80.005	19.996	103.222	19.902	3.413	0.398
105.000	127.729	80.009	19.996	103.222	19.901	3.519	0.394
105.500	127.982	80.007	19.994	103.223	19.903	3.353	0.404
106.000	128.134	79.996	19.999	103.224	19.902	3.422	0.412
106.500	128.430	80.016	19.993	103.223	19.902	3.438	0.426
106.999	128.549	80.001	19.995	103.228	19.906	3.191	0.431
107.500	128.772	80.007	19.994	103.227	19.906	3.189	0.378
108.000	128.978	80.006	19.996	103.227	19.905	3.254	0.386
108.499	129.209	80.007	19.990	103.227	19.904	3.328	0.433
109.000	129.383	80.000	19.997	103.229	19.904	3.293	0.421
109.500	129.577	79.990	19.998	103.225	19.906	3.164	0.386
109.999	129.783	80.001	19.996	103.221	19.904	3.335	0.384
110.499	129.979	80.007	19.995	103.220	19.906	3.161	0.401
110.999	130.181	79.992	19.997	103.225	19.903	3.362	0.400
111.499	130.390	80.007	19.998	103.224	19.905	3.260	0.404
112.000	130.633	80.005	19.994	103.225	19.905	3.244	0.431
112.500	130.834	80.008	19.994	103.236	19.904	3.294	0.448
112.999	131.006	80.001	19.998	103.238	19.902	3.424	0.408
113.500	131.185	80.002	19.996	103.233	19.904	3.332	0.362
114.001	131.412	80.004	19.995	103.233	19.902	3.418	0.378
114.500	131.629	80.005	19.997	103.232	19.905	3.251	0.425
114.999	131.840	80.006	19.995	103.225	19.903	3.376	0.436
115.499	132.049	80.002	19.998	103.225	19.903	3.388	0.424
115.999	132.258	80.007	19.995	103.225	19.900	3.579	0.419
116.499	132.437	80.011	19.996	103.226	19.904	3.295	0.403
116.999	132.683	80.002	20.001	103.230	19.901	3.480	0.406
117.499	132.914	80.004	19.994	103.230	19.904	3.337	0.451
117.999	133.105	80.003	19.996	103.229	19.903	3.341	0.450
118.499	133.332	80.007	19.994	103.230	19.901	3.511	0.420
118.999	133.541	80.004	19.995	103.230	19.901	3.480	0.427
119.499	133.759	80.007	19.996	103.226	19.901	3.533	0.431
120.000	133.942	80.007	19.996	103.228	19.903	3.390	0.414
120.500	134.208	80.005	19.994	103.228	19.902	3.466	0.425
120.999	134.392	80.012	19.998	103.228	19.904	3.321	0.449
121.499	134.630	80.004	19.990	103.227	19.902	3.416	0.436
121.999	134.858	80.009	20.002	103.233	19.902	3.462	0.444
122.499	135.066	80.002	19.998	103.237	19.900	3.563	0.451
122.999	135.283	80.006	19.993	103.240	19.899	3.625	0.431
123.499	135.490	80.006	19.994	103.241	19.900	3.569	0.425
123.999	135.734	80.004	19.994	103.240	19.901	3.525	0.437
124.499	135.954	80.005	19.994	103.235	19.902	3.468	0.458
124.999	136.179	80.000	19.999	103.230	19.901	3.489	0.455
125.499	136.427	80.005	19.992	103.227	19.900	3.556	0.459
126.000	136.614	80.006	19.996	103.227	19.897	3.728	0.454
126.500	136.823	80.001	19.992	103.227	19.899	3.600	0.416
126.999	137.044	80.007	19.995	103.227	19.901	3.487	0.413
127.500	137.296	80.006	19.995	103.226	19.900	3.535	0.451
128.000	137.516	80.003	19.996	103.225	19.898	3.663	0.472
128.500	137.749	80.004	19.993	103.224	19.899	3.603	0.462
129.000	137.964	80.005	19.995	103.225	19.901	3.533	0.450
129.500	138.203	80.004	19.994	103.225	19.900	3.587	0.451
130.000	138.431	80.004	19.996	103.227	19.900	3.538	0.461
130.500	138.647	80.005	19.994	103.229	19.901	3.485	0.455
131.000	138.847	80.004	19.993	103.230	19.901	3.526	0.430
131.500	139.071	80.003	19.994	103.230	19.900	3.538	0.420
132.000	139.282	80.004	19.993	103.230	19.900	3.572	0.430
132.500	139.538	80.004	19.994	103.229	19.897	3.767	0.452
133.000	139.728	80.005	19.995	103.234	19.899	3.646	0.457
133.500	139.976	80.004	19.995	103.241	19.900	3.577	0.441
134.000	140.194	80.007	19.994	103.246	19.900	3.554	0.452
134.500	140.431	80.006	19.995	103.248	19.899	3.602	0.461
135.000	140.657	80.004	19.994	103.249	19.900	3.574	0.459
135.500	140.898	80.003	19.995	103.245	19.901	3.514	0.465
136.000	141.126	80.005	19.993	103.238	19.898	3.708	0.468
136.500	141.353	80.005	19.989	103.233	19.899	3.642	0.462
137.000	141.579	80.004	19.993	103.232	19.901	3.512	0.454
137.500	141.798	80.007	19.992	103.230	19.900	3.565	0.449
138.000	142.038	80.006	19.995	103.230	19.898	3.688	0.452
138.500	142.272	80.005	19.993	103.229	19.900	3.549	0.466
139.000	142.518	80.005	19.994	103.229	19.899	3.601	0.477
139.500	142.755	80.004	19.990	103.229	19.900	3.563	0.482
140.000	142.972	80.003	19.989	103.231	19.901	3.522	0.468
140.500	143.224	80.003	19.999	103.232	19.899	3.651	0.461
141.000	143.458	80.007	19.992	103.231	19.902	3.462	0.478
141.500	143.689	80.009	19.993	103.232	19.900	3.550	0.476
142.000	143.934	80.005	19.993	103.231	19.899	3.631	0.470
142.500	144.205	80.006	19.994	103.230	19.900	3.579	0.496
143.000	144.440	80.010	19.994	103.230	19.897	3.769	0.511
143.500	144.661	80.001	19.994	103.231	19.899	3.619	0.481
144.000	144.879	80.008	19.990	103.230	19.897	3.778	0.447
144.500	145.124	80.006	19.993	103.230	19.900	3.565	0.450
145.000	145.348	80.006	19.994	103.237	19.901	3.526	0.466
145.500	145.596	80.005	19.992	103.241	19.899	3.659	0.471
146.000	145.821	80.005	19.994	103.245	19.898	3.720	0.473
146.500	146.007	80.003	19.995	103.247	19.895	3.915	0.442
147.000	146.306	80.003	19.996	103.247	19.898	3.709	0.448
147.500	146.518	80.007	19.992	103.242	19.898	3.688	0.498
148.000	146.790	80.005	19.995	103.237	19.900	3.568	0.497
148.500	146.988	80.001	19.991	103.234	19.897	3.756	0.477
149.000	147.270	80.005	19.993	103.232	19.898	3.710	0.475
149.500	147.499	80.004	19.999	103.232	19.896	3.844	0.496
150.000	147.702	79.997	19.992	103.229	19.899	3.631	0.472
150.500	148.008	80.005	19.994	103.228	19.898	3.698	0.470
151.000	148.174	80.002	19.997	103.229	19.898	3.677	0.490
151.500	148.420	80.004	19.993	103.230	19.902	3.434	0.442
152.000	148.687	80.004	19.994	103.230	19.896	3.813	0.462
152.500	148.913	80.003	19.996	103.231	19.901	3.493	0.503
153.000	149.177	80.003	19.993	103.230	19.898	3.663	0.491
153.500	149.442	80.001	19.999	103.231	19.896	3.818	0.510
154.000	149.653	80.004	19.991	103.229	19.899	3.624	0.502
154.500	149.903	80.003	19.991	103.235	19.894	3.941	0.468
155.000	150.107	80.003	19.995	103.243	19.899	3.649	0.458
155.500	150.413	80.001	19.996	103.244	19.898	3.689	0.482
156.000	150.617	80.005	19.994	103.246	19.897	3.767	0.510
156.500	150.869	80.003	19.993	103.248	19.896	3.820	0.483
157.000	151.113	80.001	19.994	103.241	19.897	3.745	0.476
157.500	151.350	80.006	19.996	103.234	19.897	3.783	0.488
158.000	151.532	80.001	19.995	103.230	19.895	3.882	0.450
158.500	151.829	80.003	19.994	103.221	19.898	3.663	0.449
159.000	152.071	80.004	19.995	103.219	19.895	3.905	0.509
159.500	152.303	80.002	19.994	103.220	19.894	3.931	0.506
160.000	152.577	80.006	19.994	103.219	19.897	3.762	0.490
160.500	152.744	80.001	19.993	103.223	19.895	3.893	0.474
161.000	153.029	80.003	19.993	103.229	19.896	3.826	0.446
161.500	153.311	80.003	19.994	103.230	19.895	3.875	0.510
162.000	153.518	80.004	19.994	103.230	19.895	3.859	0.528
162.500	153.763	80.004	19.995	103.235	19.894	3.936	0.470
163.000	154.005	80.003	19.994	103.239	19.893	4.049	0.469
163.500	154.252	80.003	19.994	103.240	19.895	3.871	0.488
164.000	154.503	80.005	19.994	103.237	19.892	4.087	0.493
164.500	154.759	80.005	19.995	103.232	19.895	3.913	0.503
165.000	154.987	80.006	19.995	103.226	19.895	3.890	0.495
165.500	155.249	80.003	19.994	103.221	19.896	3.807	0.487
166.000	155.470	80.003	19.994	103.223	19.893	4.001	0.487
166.500	155.733	80.004	19.994	103.227	19.894	3.987	0.483
167.000	155.981	80.005	19.994	103.234	19.894	3.980	0.497
167.500	156.208	80.003	19.995	103.238	19.896	3.851	0.493
168.000	156.457	80.002	19.994	103.238	19.895	3.902	0.476
168.500	156.671	80.002	19.994	103.236	19.899	3.629	0.469
169.000	156.922	80.004	19.994	103.235	19.895	3.904	0.464
169.500	157.168	80.004	19.995	103.232	19.894	3.971	0.481
170.000	157.417	80.004	19.994	103.231	19.898	3.703	0.496
170.500	157.707	80.004	19.995	103.232	19.897	3.783	0.517
171.000	157.923	80.005	19.995	103.236	19.894	3.950	0.522
171.500	158.189	80.003	19.995	103.238	19.898	3.719	0.494
172.000	158.397	80.005	19.994	103.238	19.895	3.858	0.478
172.500	158.679	80.005	19.995	103.235	19.897	3.777	0.482
173.000	158.911	79.999	19.997	103.233	19.895	3.888	0.502
173.500	159.182	80.003	20.003	103.229	19.897	3.782	0.508
174.000	159.383	80.004	19.996	103.224	19.896	3.801	0.488
174.500	159.671	80.008	19.991	103.222	19.895	3.909	0.480
175.000	159.911	80.003	19.995	103.222	19.895	3.879	0.508
175.500	160.146	80.003	19.997	103.221	19.897	3.743	0.501
176.000	160.390	80.004	19.994	103.221	19.896	3.851	0.477
176.500	160.641	80.005	19.995	103.222	19.897	3.750	0.487
177.000	160.891	80.004	19.994	103.223	19.899	3.604	0.498
177.500	161.166	80.003	19.992	103.221	19.895	3.858	0.513
178.000	161.406	79.998	19.990	103.220	19.899	3.627	0.520
178.500	161.616	80.001	20.000	103.221	19.901	3.499	0.483
179.000	161.880	80.004	19.995	103.219	19.896	3.836	0.462
179.500	162.132	80.002	19.996	103.221	19.897	3.786	0.495
180.000	162.358	80.002	19.997	103.223	19.895	3.882	0.497
180.500	162.643	80.005	19.996	103.222	19.895	3.868	0.495
181.000	162.883	80.002	19.995	103.219	19.895	3.873	0.518
181.500	163.157	80.003	19.994	103.220	19.894	3.973	0.519
182.000	163.411	79.999	20.000	103.219	19.898	3.705	0.521
182.500	163.608	80.004	19.995	103.214	19.893	3.996	0.489
183.000	163.906	80.005	19.995	103.214	19.894	3.943	0.473
183.500	164.111	80.002	19.995	103.211	19.897	3.765	0.499
184.000	164.415	80.004	19.995	103.204	19.898	3.709	0.506
184.500	164.657	80.002	19.996	103.200	19.894	3.924	0.528
185.000	164.910	80.003	19.996	103.205	19.899	3.649	0.520
185.500	165.145	80.003	19.996	103.206	19.894	3.931	0.492
186.000	165.397	80.002	19.995	103.206	19.895	3.910	0.488
186.500	165.711	80.003	19.995	103.208	19.894	3.966	0.526
187.000	165.922	80.005	19.995	103.208	19.894	3.981	0.545
187.500	166.216	80.002	19.995	103.206	19.894	3.985	0.515
188.000	166.416	80.005	19.993	103.207	19.893	3.997	0.500
188.500	166.680	80.002	19.993	103.210	19.897	3.784	0.479
189.000	166.941	80.003	19.997	103.216	19.895	3.914	0.494
189.500	167.210	80.006	19.995	103.223	19.896	3.837	0.527
190.000	167.414	80.003	19.997	103.226	19.895	3.865	0.501
190.500	167.670	80.003	19.995	103.226	19.895	3.883	0.467
191.000	167.969	80.006	19.996	103.229	19.896	3.853	0.507
191.500	168.207	80.005	19.992	103.230	19.897	3.754	0.546
192.000	168.470	80.002	19.996	103.230	19.896	3.795	0.519
192.500	168.702	80.006	19.995	103.230	19.899	3.637	0.498
193.000	168.936	80.005	19.995	103.229	19.896	3.838	0.480
193.500	169.202	80.004	19.996	103.228	19.895	3.899	0.483
194.000	169.457	80.006	19.995	103.226	19.892	4.067	0.510
194.500	169.707	80.005	19.995	103.226	19.892	4.096	0.513
195.000	169.949	80.002	19.996	103.225	19.896	3.837	0.498
195.500	170.226	80.006	19.995	103.225	19.892	4.096	0.506
196.000	170.470	80.005	19.996	103.225	19.894	3.955	0.521
196.500	170.689	80.007	19.994	103.224	19.891	4.135	0.492
197.000	170.955	80.003	19.995	103.224	19.897	3.740	0.473
197.500	171.201	80.010	19.993	103.220	19.893	4.046	0.498
198.000	171.457	80.004	19.998	103.214	19.895	3.914	0.507
198.500	171.714	80.002	19.994	103.206	19.895	3.895	0.508
199.000	171.995	80.005	19.994	103.200	19.895	3.869	0.526
199.500	172.200	80.002	19.997	103.196	19.895	3.900	0.512
200.000	172.494	80.007	19.994	103.196	19.897	3.782	0.492
200.500	172.711	80.000	19.999	103.201	19.896	3.842	0.505
201.000	172.981	80.005	19.998	103.205	19.894	3.979	0.499
201.500	173.237	80.005	19.991	103.208	19.897	3.785	0.506
202.000	173.491	80.004	19.996	103.213	19.895	3.857	0.518
202.500	173.766	80.006	19.993	103.217	19.895	3.889	0.519
203.000	173.979	80.003	19.990	103.219	19.896	3.826	0.509
203.500	174.209	80.001	19.998	103.228	19.898	3.725	0.466
204.000	174.480	80.000	19.998	103.233	19.897	3.745	0.472
204.500	174.727	80.003	20.001	103.232	19.897	3.761	0.509
205.000	175.002	80.005	19.994	103.229	19.895	3.888	0.520
205.500	175.243	80.004	19.993	103.226	19.898	3.677	0.519
206.000	175.490	80.006	19.989	103.222	19.891	4.133	0.502
206.500	175.741	80.001	19.995	103.221	19.896	3.803	0.493
207.000	176.011	80.002	19.991	103.214	19.893	4.034	0.509
207.500	176.241	80.003	19.994	103.213	19.897	3.735	0.511
208.000	176.491	80.000	19.998	103.212	19.897	3.767	0.490
208.500	176.754	79.997	19.997	103.209	19.896	3.821	0.496
209.000	176.972	80.002	19.996	103.206	19.895	3.910	0.497
209.500	177.258	80.000	20.001	103.209	19.893	4.036	0.493
210.000	177.519	80.003	19.994	103.209	19.894	3.958	0.526
210.500	177.766	80.001	19.993	103.205	19.894	3.968	0.527
211.000	178.012	80.005	19.995	103.203	19.898	3.701	0.500
211.500	178.269	80.005	19.996	103.201	19.896	3.806	0.498
212.000	178.528	80.002	19.995	103.197	19.895	3.905	0.509
212.500	178.770	80.002	19.997	103.193	19.893	4.025	0.508
213.000	179.048	80.004	19.995	103.191	19.890	4.212	0.510
213.500	179.267	80.007	19.996	103.190	19.894	3.937	0.509
214.000	179.547	80.011	19.990	103.189	19.893	3.995	0.498
214.500	179.791	80.000	19.996	103.194	19.894	3.938	0.511
215.000	180.055	80.006	19.990	103.200	19.893	3.988	0.516
215.500	180.314	80.004	19.996	103.207	19.895	3.871	0.515
216.000	180.563	80.003	19.997	103.208	19.897	3.757	0.515
216.500	180.778	80.007	19.990	103.210	19.894	3.942	0.486
217.000	181.029	80.005	19.994	103.207	19.897	3.780	0.466
217.500	181.297	80.005	19.999	103.202	19.896	3.854	0.493
218.000	181.567	80.007	19.996	103.204	19.896	3.816	0.528
218.500	181.782	80.000	20.004	103.214	19.893	4.023	0.511
219.000	182.086	80.006	19.992	103.218	19.895	3.891	0.502
219.500	182.312	80.006	19.994	103.223	19.897	3.787	0.524
220.000	182.534	80.000	19.991	103.223	19.895	3.918	0.489
220.500	182.758	80.007	19.997	103.216	19.897	3.761	0.447
221.000	183.045	80.003	19.993	103.201	19.900	3.580	0.478
221.500	183.276	80.011	19.994	103.197	19.900	3.565	0.515
222.000	183.518	80.007	19.999	103.192	19.900	3.541	0.496
222.500	183.753	80.005	20.000	103.198	19.901	3.526	0.475
223.000	184.059	80.004	19.993	103.204	19.898	3.679	0.509
223.500	184.292	80.006	19.992	103.209	19.899	3.651	0.540
224.000	184.531	80.006	19.991	103.209	19.896	3.831	0.505
224.500	184.774	80.005	19.994	103.207	19.897	3.771	0.477
225.000	185.055	80.007	19.994	103.201	19.899	3.653	0.503
225.500	185.300	80.005	19.992	103.195	19.894	3.979	0.525
226.000	185.555	80.004	19.994	103.192	19.896	3.808	0.513
226.500	185.803	80.012	19.991	103.193	19.898	3.679	0.502
227.000	186.063	80.010	19.990	103.200	19.898	3.687	0.505
227.500	186.304	80.005	19.994	103.207	19.896	3.827	0.504
228.000	186.538	80.003	19.995	103.210	19.896	3.826	0.488
228.500	186.824	80.005	19.993	103.209	19.895	3.921	0.498
229.000	187.064	80.005	19.993	103.208	19.894	3.928	0.524
229.500	187.331	80.003	19.994	103.200	19.892	4.090	0.517
230.000	187.604	80.005	19.993	103.193	19.896	3.810	0.523
230.500	187.857	80.003	19.996	103.195	19.897	3.775	0.533
231.000	188.101	80.004	19.996	103.202	19.896	3.819	0.512
231.500	188.323	80.005	19.996	103.208	19.896	3.813	0.481
232.000	188.561	80.004	19.994	103.208	19.901	3.496	0.463
232.500	188.804	80.002	19.995	103.207	19.897	3.771	0.470
233.000	189.092	80.003	19.995	103.201	19.897	3.752	0.505
233.500	189.299	80.005	19.993	103.194	19.896	3.836	0.513
234.000	189.559	80.003	19.995	103.189	19.896	3.843	0.482
234.500	189.817	80.006	19.993	103.189	19.894	3.922	0.493
235.000	190.093	80.000	19.995	103.190	19.896	3.792	0.526
235.500	190.382	80.009	19.989	103.189	19.894	3.973	0.549
236.000	190.633	80.001	19.994	103.191	19.894	3.977	0.552
236.500	190.894	80.006	19.995	103.190	19.895	3.861	0.526
237.000	191.097	80.004	19.996	103.192	19.896	3.829	0.488
237.500	191.354	80.002	19.994	103.193	19.895	3.889	0.462
238.000	191.590	80.002	19.995	103.195	19.898	3.667	0.476
238.500	191.804	80.003	20.002	103.193	19.898	3.720	0.471
239.000	192.094	80.002	19.991	103.190	19.896	3.842	0.477
239.500	192.340	80.005	19.993	103.189	19.897	3.773	0.520
240.000	192.564	80.002	20.004	103.191	19.894	3.972	0.502
240.500	192.843	80.001	19.993	103.190	19.895	3.857	0.486
241.000	193.088	80.003	19.995	103.191	19.897	3.790	0.514
241.500	193.302	80.000	19.992	103.192	19.897	3.769	0.492
242.000	193.564	80.003	20.000	103.192	19.897	3.753	0.468
242.500	193.810	80.005	19.993	103.188	19.896	3.843	0.492
243.000	194.029	79.997	20.002	103.190	19.897	3.736	0.487
243.500	194.298	80.002	19.994	103.191	19.896	3.814	0.477
244.000	194.540	80.003	19.996	103.193	19.899	3.643	0.500
244.500	194.818	80.004	19.995	103.192	19.896	3.826	0.515
245.000	195.032	80.005	19.993	103.193	19.897	3.752	0.505
245.500	195.290	80.002	19.995	103.191	19.896	3.833	0.482
246.000	195.503	80.003	19.996	103.190	19.897	3.750	0.472
246.500	195.765	80.001	19.991	103.185	19.899	3.642	0.473
247.000	196.035	80.004	19.993	103.185	19.896	3.794	0.503
247.500	196.275	80.003	19.995	103.185	19.893	4.039	0.521
248.000	196.564	80.008	19.995	103.187	19.894	3.966	0.520
248.500	196.771	80.003	19.992	103.193	19.896	3.822	0.513
249.000	197.012	80.005	19.994	103.199	19.892	4.053	0.472
249.500	197.251	80.004	19.994	103.199	19.898	3.662	0.464
250.000	197.501	80.010	19.993	103.199	19.896	3.825	0.484
250.500	197.727	80.002	19.996	103.195	19.893	3.991	0.483
251.000	198.012	80.005	19.996	103.189	19.894	3.952	0.494
251.500	198.245	80.000	19.999	103.188	19.894	3.970	0.515
252.000	198.529	80.006	19.986	103.186	19.896	3.812	0.518
252.500	198.736	80.006	19.991	103.187	19.895	3.919	0.504
253.000	199.040	80.007	19.995	103.189	19.894	3.940	0.501
253.500	199.233	80.003	19.995	103.189	19.894	3.928	0.504
254.000	199.506	80.004	19.994	103.191	19.894	3.970	0.481
254.500	199.756	80.001	20.000	103.200	19.899	3.644	0.494
255.000	200.009	80.005	19.993	103.204	19.898	3.697	0.513
255.500	200.237	80.005	19.998	103.203	19.894	3.979	0.492
256.000	200.479	80.005	19.991	103.202	19.894	3.963	0.476
256.500	200.778	80.003	19.996	103.201	19.892	4.072	0.505
257.000	200.995	80.003	19.993	103.194	19.889	4.259	0.528
257.500	201.232	80.003	19.989	103.189	19.895	3.912	0.485
258.000	201.495	80.002	20.003	103.190	19.893	4.026	0.477
258.500	201.736	79.996	20.000	103.190	19.892	4.106	0.502
259.000	201.981	80.001	19.997	103.188	19.893	4.000	0.495
259.500	202.238	79.999	20.000	103.187	19.892	4.101	0.494
260.000	202.472	80.007	19.995	103.186	19.891	4.169	0.496
260.500	202.723	80.002	19.996	103.185	19.889	4.289	0.488
261.000	203.015	80.010	19.990	103.186	19.895	3.877	0.514
261.500	203.226	80.004	19.993	103.188	19.894	3.981	0.523
262.000	203.463	80.001	19.994	103.190	19.891	4.176	0.476
262.500	203.715	80.006	19.994	103.191	19.892	4.084	0.469
263.000	203.949	80.008	19.991	103.191	19.889	4.289	0.488
263.500	204.173	80.008	19.991	103.194	19.889	4.262	0.472
264.000	204.448	80.005	19.993	103.194	19.892	4.097	0.478
264.500	204.716	80.002	19.993	103.194	19.890	4.247	0.521
265.000	204.962	80.007	19.993	103.194	19.891	4.166	0.529
265.500	205.230	80.001	19.996	103.194	19.890	4.229	0.514
266.000	205.460	80.005	19.993	103.192	19.891	4.158	0.506
266.500	205.680	80.003	19.995	103.195	19.890	4.220	0.474
267.000	205.917	80.001	19.993	103.195	19.892	4.111	0.454
267.500	206.187	80.003	19.996	103.192	19.891	4.158	0.482
268.000	206.445	80.001	19.989	103.192	19.888	4.317	0.517
268.500	206.701	80.004	19.995	103.194	19.890	4.229	0.521
269.000	206.949	80.005	19.994	103.191	19.891	4.170	0.509
269.500	207.209	80.002	19.995	103.195	19.891	4.158	0.506
270.000	207.405	80.002	19.998	103.197	19.888	4.322	0.482
270.500	207.672	80.003	19.992	103.197	19.889	4.248	0.459
271.000	207.907	80.004	19.993	103.196	19.891	4.179	0.482
271.500	208.116	80.005	19.993	103.196	19.888	4.362	0.473
272.000	208.376	80.004	19.991	103.192	19.887	4.387	0.457
272.500	208.663	80.005	19.995	103.192	19.889	4.279	0.508
273.000	208.838	80.004	20.000	103.191	19.888	4.376	0.505
273.500	209.108	80.003	19.995	103.190	19.889	4.301	0.454
274.000	209.339	80.003	19.994	103.189	19.890	4.229	0.473
274.500	209.622	80.001	19.997	103.189	19.890	4.227	0.508
275.000	209.907	80.005	19.996	103.188	19.888	4.338	0.541
275.500	210.100	80.006	19.996	103.190	19.888	4.366	0.522
276.000	210.367	80.006	19.993	103.192	19.891	4.155	0.469
276.500	210.583	80.004	19.996	103.191	19.890	4.204	0.472
277.000	210.851	80.001	19.997	103.190	19.888	4.349	0.484
277.500	211.051	80.004	19.992	103.191	19.888	4.355	0.476
278.000	211.362	80.004	19.992	103.189	19.889	4.292	0.489
278.500	211.582	80.002	19.996	103.185	19.892	4.100	0.521
279.000	211.821	80.004	19.997	103.182	19.889	4.250	0.495
279.500	212.028	80.001	19.998	103.182	19.888	4.325	0.453
280.000	212.320	80.002	19.994	103.181	19.888	4.377	0.473
280.500	212.573	80.002	19.993	103.181	19.888	4.340	0.522
281.000	212.830	80.007	19.994	103.187	19.889	4.280	0.527
281.500	213.063	80.004	19.995	103.192	19.888	4.331	0.500
282.000	213.332	80.006	19.994	103.186	19.888	4.359	0.496
282.500	213.565	80.004	19.993	103.181	19.889	4.310	0.502
283.000	213.785	80.005	19.994	103.178	19.888	4.343	0.477
283.500	214.058	80.004	19.994	103.176	19.886	4.445	0.473
284.000	214.278	80.002	19.996	103.175	19.886	4.488	0.493
284.500	214.555	80.005	19.995	103.181	19.887	4.386	0.495
285.000	214.786	80.003	19.995	103.187	19.885	4.509	0.502
285.500	215.034	80.005	19.994	103.190	19.889	4.285	0.493
286.000	215.278	80.005	19.994	103.190	19.888	4.356	0.485
286.500	215.518	80.004	19.994	103.189	19.888	4.368	0.488
287.000	215.773	80.003	19.995	103.187	19.887	4.424	0.490
287.500	216.016	80.005	19.995	103.186	19.887	4.391	0.497
288.000	216.249	80.005	19.994	103.186	19.885	4.541	0.487
288.500	216.549	80.004	19.994	103.184	19.890	4.230	0.505
289.000	216.718	80.002	19.995	103.185	19.885	4.511	0.501
289.500	216.995	80.003	19.995	103.187	19.886	4.450	0.457
290.000	217.282	80.007	19.997	103.182	19.885	4.530	0.505
290.500	217.496	80.005	19.993	103.179	19.885	4.511	0.532
291.000	217.743	80.004	19.996	103.182	19.885	4.544	0.481
291.500	217.954	80.004	19.995	103.182	19.888	4.348	0.459
292.000	218.254	80.002	19.996	103.182	19.886	4.503	0.485
292.500	218.473	80.008	19.998	103.185	19.889	4.290	0.515
293.000	218.696	80.001	19.994	103.186	19.886	4.445	0.480
293.500	218.943	80.002	19.989	103.185	19.888	4.340	0.456
294.000	219.192	80.002	19.993	103.187	19.883	4.685	0.483
294.500	219.448	80.004	19.995	103.187	19.885	4.565	0.501
295.000	219.685	80.004	19.994	103.187	19.884	4.629	0.499
295.500	219.953	80.004	19.995	103.189	19.887	4.442	0.499
296.000	220.170	80.005	19.995	103.189	19.885	4.512	0.495
296.500	220.433	80.004	19.995	103.188	19.883	4.690	0.482
297.000	220.701	80.005	19.995	103.188	19.882	4.729	0.506
297.500	220.915	80.004	19.994	103.188	19.882	4.727	0.507
298.000	221.196	80.005	19.995	103.189	19.883	4.667	0.488
298.500	221.407	80.004	19.993	103.196	19.886	4.464	0.494
299.000	221.686	80.004	19.995	103.202	19.882	4.743	0.491
299.500	221.924	80.005	19.995	103.205	19.881	4.787	0.503
300.000	222.182	80.003	19.994	103.205	19.881	4.810	0.507
300.500	222.428	80.004	19.994	103.204	19.883	4.690	0.500
301.000	222.651	80.005	19.995	103.197	19.885	4.514	0.486
301.500	222.905	80.002	19.996	103.189	19.882	4.716	0.473
302.000	223.160	80.003	19.999	103.184	19.886	4.507	0.493
302.500	223.428	80.003	19.995	103.183	19.883	4.639	0.516
303.000	223.696	80.006	19.995	103.183	19.881	4.776	0.530
303.500	223.878	80.004	19.998	103.183	19.880	4.886	0.493
304.000	224.178	80.004	19.995	103.183	19.883	4.660	0.466
304.500	224.407	80.007	19.996	103.185	19.883	4.685	0.506
305.000	224.635	80.004	19.995	103.186	19.880	4.854	0.493
305.500	224.873	80.005	19.994	103.186	19.882	4.706	0.461
306.000	225.138	80.005	19.995	103.187	19.884	4.591	0.484
306.500	225.416	80.004	19.995	103.185	19.883	4.686	0.523
307.000	225.597	80.006	19.996	103.184	19.880	4.861	0.501
307.500	225.924	80.003	19.995	103.180	19.885	4.570	0.483
308.000	226.126	80.005	19.996	103.178	19.880	4.856	0.519
308.500	226.343	80.006	19.996	103.178	19.878	5.027	0.475
309.000	226.612	80.005	19.996	103.178	19.878	4.995	0.453
309.500	226.847	80.004	19.995	103.179	19.880	4.878	0.495
310.000	227.106	80.006	19.998	103.182	19.881	4.822	0.499
310.500	227.349	80.006	19.996	103.183	19.882	4.742	0.498
311.000	227.549	80.004	19.997	103.182	19.882	4.725	0.473
311.500	227.833	80.006	19.995	103.182	19.878	4.975	0.463
312.000	228.074	80.005	19.996	103.179	19.881	4.776	0.504
312.500	228.321	80.004	19.995	103.178	19.882	4.766	0.507
313.000	228.567	80.006	19.996	103.178	19.881	4.770	0.491
313.500	228.835	80.005	19.995	103.179	19.879	4.951	0.504
314.000	229.069	80.004	19.993	103.180	19.882	4.766	0.508
314.500	229.341	80.004	19.996	103.185	19.880	4.851	0.503
315.000	229.606	80.004	19.995	103.186	19.878	4.979	0.521
315.500	229.809	80.002	19.994	103.186	19.877	5.032	0.502
316.000	230.104	80.003	19.995	103.186	19.877	5.081	0.483
316.500	230.380	80.003	19.994	103.185	19.877	5.072	0.535
317.000	230.611	80.004	19.994	103.182	19.878	4.997	0.539
317.500	230.842	80.003	19.995	103.182	19.878	4.972	0.484
318.000	231.132	80.004	19.995	103.182	19.880	4.865	0.492
318.500	231.356	80.003	19.995	103.183	19.877	5.043	0.518
319.000	231.585	80.004	19.994	103.185	19.879	4.930	0.483
319.500	231.844	80.004	19.994	103.188	19.879	4.921	0.470
320.000	232.095	80.004	19.995	103.184	19.877	5.062	0.499
320.500	232.327	80.004	19.992	103.183	19.875	5.176	0.496
321.000	232.579	80.004	19.994	103.178	19.880	4.896	0.483
321.500	232.805	80.002	19.995	103.171	19.878	4.986	0.481
322.000	233.064	80.002	19.994	103.171	19.876	5.155	0.482
322.500	233.304	80.003	19.997	103.176	19.880	4.881	0.492
323.000	233.557	80.004	19.994	103.178	19.878	4.993	0.496
323.500	233.833	80.002	19.994	103.185	19.878	4.985	0.511
324.000	234.067	80.002	19.996	103.193	19.881	4.817	0.520
324.500	234.349	80.003	19.995	103.194	19.879	4.933	0.513
325.000	234.577	80.004	19.994	103.193	19.878	4.997	0.512
325.500	234.841	80.003	19.996	103.193	19.879	4.933	0.501
326.000	235.075	80.003	19.995	103.191	19.879	4.953	0.495
326.500	235.301	80.003	19.996	103.189	19.878	5.018	0.479
327.000	235.559	80.003	19.995	103.188	19.878	4.981	0.472
327.500	235.835	80.003	19.996	103.187	19.879	4.961	0.509
328.000	236.059	80.002	19.996	103.188	19.880	4.850	0.517
328.500	236.282	80.002	19.995	103.190	19.877	5.091	0.473
329.000	236.545	80.003	19.993	103.189	19.878	4.989	0.466
329.500	236.813	80.003	19.995	103.190	19.877	5.063	0.509
330.000	237.024	80.003	19.995	103.191	19.874	5.257	0.505
330.500	237.296	80.002	19.995	103.191	19.877	5.087	0.481
331.000	237.555	80.003	19.994	103.189	19.875	5.160	0.507
331.500	237.842	80.005	19.995	103.189	19.876	5.157	0.539
332.000	238.065	80.003	19.994	103.190	19.878	5.010	0.528
332.500	238.322	80.003	19.995	103.189	19.875	5.162	0.495
333.000	238.585	80.003	19.995	103.189	19.874	5.236	0.500
333.500	238.773	80.003	19.995	103.191	19.874	5.242	0.486
334.000	239.030	80.003	19.994	103.191	19.874	5.255	0.448
334.500	239.267	80.004	19.995	103.191	19.875	5.209	0.470
335.000	239.526	80.003	19.994	103.190	19.873	5.294	0.495
335.500	239.787	80.003	19.995	103.190	19.872	5.396	0.508
336.000	240.003	80.003	19.995	103.187	19.877	5.077	0.499
336.500	240.298	80.003	19.994	103.187	19.874	5.238	0.494
337.000	240.515	80.003	19.995	103.186	19.874	5.270	0.511
337.500	240.776	80.003	19.995	103.187	19.871	5.458	0.495
338.000	241.010	80.004	19.994	103.183	19.876	5.124	0.486
338.500	241.241	80.004	19.995	103.177	19.876	5.147	0.480
339.000	241.526	80.003	19.994	103.170	19.871	5.439	0.490
339.500	241.774	80.004	19.995	103.170	19.871	5.418	0.525
340.000	242.038	80.002	19.996	103.169	19.872	5.367	0.523
340.500	242.250	80.003	19.994	103.173	19.872	5.416	0.494
341.000	242.537	80.002	19.995	103.180	19.873	5.337	0.487
341.500	242.803	80.004	19.993	103.187	19.868	5.654	0.526
342.000	243.041	80.004	19.994	103.185	19.872	5.367	0.528
342.500	243.296	80.005	19.994	103.180	19.872	5.404	0.498
343.000	243.544	80.003	19.990	103.178	19.875	5.221	0.498
343.500	243.768	80.008	19.993	103.174	19.873	5.349	0.487
344.000	244.021	80.002	19.994	103.173	19.874	5.272	0.475
344.500	244.264	80.003	19.991	103.172	19.874	5.226	0.487
345.000	244.506	80.003	19.991	103.172	19.873	5.352	0.490
345.500	244.745	80.001	19.994	103.172	19.873	5.292	0.483
346.000	245.022	80.005	19.994	103.174	19.873	5.320	0.499
346.500	245.275	80.004	19.993	103.175	19.872	5.359	0.523
347.000	245.508	80.003	19.995	103.181	19.876	5.144	0.508
347.500	245.776	80.005	19.992	103.187	19.873	5.301	0.493
348.000	246.008	80.004	19.992	103.189	19.873	5.294	0.501
348.500	246.243	80.002	19.998	103.192	19.871	5.467	0.484
349.000	246.490	80.004	19.991	103.191	19.874	5.277	0.474
349.500	246.761	80.004	19.996	103.191	19.872	5.374	0.500
350.000	247.008	80.002	19.994	103.191	19.872	5.367	0.518
350.500	247.271	80.002	19.995	103.191	19.871	5.418	0.514
351.000	247.535	80.002	19.999	103.191	19.871	5.420	0.518
351.500	247.802	80.001	19.994	103.192	19.871	5.462	0.529
352.000	247.976	80.002	19.995	103.192	19.874	5.261	0.486
352.500	248.260	80.002	19.993	103.191	19.874	5.264	0.450
353.000	248.496	79.999	19.995	103.191	19.870	5.483	0.489
353.500	248.728	80.001	19.995	103.191	19.873	5.352	0.494
354.000	249.023	80.002	19.995	103.191	19.869	5.579	0.497
354.500	249.271	80.004	19.993	103.191	19.873	5.315	0.535
355.000	249.560	80.002	19.994	103.192	19.869	5.563	0.541
355.500	249.776	80.003	19.994	103.186	19.872	5.389	0.521
356.000	250.073	80.002	19.992	103.178	19.869	5.567	0.509
356.500	250.307	80.003	19.994	103.177	19.868	5.634	0.522
357.000	250.541	80.002	19.994	103.177	19.871	5.456	0.500
357.500	250.865	80.003	19.994	103.174	19.868	5.655	0.513
358.000	251.080	80.002	19.994	103.180	19.867	5.696	0.548
358.500	251.354	80.001	19.994	103.188	19.870	5.510	0.514
359.000	251.589	80.003	19.994	103.187	19.868	5.618	0.499
359.500	251.840	80.003	19.995	103.188	19.868	5.643	0.498
360.000	252.074	80.002	19.994	103.191	19.866	5.748	0.486
360.500	252.348	80.004	19.994	103.191	19.866	5.766	0.496
361.000	252.606	80.004	19.994	103.190	19.867	5.706	0.519
361.500	252.839	80.006	19.995	103.191	19.871	5.481	0.511
362.000	253.090	80.004	19.995	103.191	19.868	5.653	0.488
362.500	253.352	80.004	19.995	103.191	19.867	5.692	0.499
363.000	253.610	80.005	19.994	103.189	19.867	5.688	0.517
363.500	253.851	80.005	19.994	103.186	19.869	5.581	0.510
364.000	254.091	80.005	19.994	103.185	19.871	5.465	0.489
364.500	254.305	80.005	19.995	103.184	19.868	5.627	0.467
365.000	254.563	80.004	19.995	103.178	19.869	5.550	0.464
365.500	254.841	80.004	19.995	103.179	19.867	5.728	0.504
366.000	255.101	80.005	19.994	103.180	19.867	5.703	0.537
366.500	255.317	80.004	19.994	103.180	19.871	5.435	0.507
367.000	255.594	80.005	19.995	103.180	19.871	5.419	0.484
367.500	255.854	80.004	19.995	103.184	19.873	5.323	0.515
368.000	256.108	80.004	19.995	103.180	19.871	5.474	0.526
368.500	256.352	80.003	19.996	103.174	19.871	5.448	0.506
369.000	256.590	80.006	19.995	103.166	19.871	5.461	0.490
369.500	256.856	80.005	19.996	103.160	19.872	5.401	0.493
370.000	257.104	80.003	19.995	103.156	19.873	5.318	0.509
370.500	257.355	80.005	19.994	103.160	19.871	5.471	0.507
371.000	257.564	80.002	19.995	103.167	19.870	5.493	0.480
371.500	257.815	80.006	19.995	103.175	19.870	5.541	0.460
372.000	258.072	80.003	20.004	103.180	19.872	5.364	0.484
372.500	258.298	80.001	19.998	103.181	19.869	5.607	0.496
373.000	258.603	80.003	19.994	103.181	19.872	5.405	0.507
373.500	258.811	80.005	19.995	103.178	19.871	5.445	0.522
374.000	259.079	80.003	19.995	103.174	19.873	5.348	0.494
374.500	259.342	80.002	19.994	103.175	19.872	5.369	0.504
375.000	259.593	80.003	19.994	103.178	19.868	5.624	0.522
375.500	259.850	80.006	19.992	103.181	19.873	5.348	0.510
376.000	260.086	80.004	19.995	103.185	19.871	5.422	0.500
376.500	260.305	80.003	19.996	103.189	19.871	5.445	0.474
377.000	260.594	80.002	19.995	103.189	19.869	5.580	0.481
377.500	260.802	80.002	19.995	103.188	19.874	5.232	0.502
378.000	261.056	80.004	19.994	103.187	19.873	5.313	0.480
378.500	261.325	80.003	19.995	103.187	19.875	5.178	0.493
379.000	261.558	80.003	19.995	103.193	19.872	5.396	0.513
379.500	261.809	80.002	19.996	103.199	19.873	5.317	0.493
380.000	262.087	80.004	19.994	103.199	19.874	5.278	0.506
380.500	262.322	80.002	19.996	103.200	19.873	5.331	0.521
381.000	262.589	80.003	19.994	103.198	19.875	5.208	0.508
381.500	262.864	80.003	19.995	103.193	19.875	5.188	0.522
382.000	263.079	80.004	19.996	103.187	19.875	5.195	0.516
382.500	263.332	80.004	19.994	103.185	19.877	5.030	0.479
383.000	263.596	80.003	19.994	103.180	19.875	5.167	0.492
383.500	263.857	80.004	19.995	103.179	19.877	5.063	0.521
384.000	264.104	80.004	19.995	103.175	19.874	5.285	0.517
384.500	264.320	80.006	19.995	103.170	19.875	5.220	0.486
385.000	264.579	80.005	19.995	103.169	19.875	5.182	0.469
385.500	264.841	80.004	19.996	103.167	19.879	4.955	0.498
386.000	265.074	80.005	19.995	103.161	19.875	5.184	0.508
386.500	265.367	80.005	19.995	103.162	19.874	5.284	0.510
387.000	265.585	80.005	19.996	103.166	19.872	5.383	0.518
387.500	265.832	80.007	19.993	103.167	19.875	5.191	0.488
388.000	266.068	80.006	19.995	103.169	19.875	5.179	0.474
388.500	266.338	80.005	19.996	103.177	19.877	5.087	0.495
389.000	266.603	80.006	19.994	103.179	19.878	4.989	0.521
389.500	266.820	80.006	19.994	103.180	19.878	5.006	0.509
390.000	267.123	80.006	19.994	103.182	19.878	5.008	0.501
390.500	267.353	80.005	19.994	103.186	19.876	5.128	0.526
391.000	267.604	80.004	19.996	103.187	19.873	5.339	0.507
391.500	267.851	80.006	19.994	103.185	19.876	5.101	0.490
392.000	268.109	80.006	19.995	103.183	19.876	5.120	0.502
392.500	268.394	80.004	19.993	103.182	19.876	5.131	0.524
393.000	268.586	80.020	19.997	103.182	19.876	5.117	0.510
393.500	268.840	80.024	19.998	103.182	19.878	5.005	0.461
394.000	269.101	80.025	19.999	103.184	19.875	5.183	0.481
394.500	269.325	80.020	19.998	103.184	19.876	5.140	0.500
395.000	269.605	80.013	19.998	103.179	19.878	5.020	0.494
395.500	269.863	80.005	19.997	103.172	19.879	4.951	0.521
396.000	270.062	80.005	19.995	103.168	19.873	5.306	0.498
396.500	270.372	80.004	19.996	103.161	19.877	5.091	0.483
397.000	270.613	80.005	19.995	103.158	19.876	5.128	0.529
397.500	270.865	80.005	19.997	103.162	19.874	5.265	0.522
398.000	271.162	80.005	19.996	103.167	19.876	5.152	0.521
398.500	271.429	80.004	19.995	103.165	19.876	5.098	0.556
399.000	271.663	80.003	19.995	103.165	19.878	4.997	0.532
399.500	271.886	80.004	19.997	103.167	19.877	5.032	0.479
400.000	272.191	80.003	19.996	103.167	19.878	4.990	0.493
400.500	272.396	80.001	19.996	103.165	19.878	5.004	0.519
401.000	272.669	80.002	19.996	103.169	19.879	4.960	0.494
401.500	272.864	80.002	19.997	103.170	19.880	4.867	0.473
402.000	273.145	80.002	19.996	103.170	19.880	4.838	0.472
402.500	273.420	80.001	19.995	103.163	19.881	4.815	0.516
403.000	273.649	80.004	19.997	103.160	19.881	4.799	0.530
403.500	273.972	80.003	19.996	103.162	19.879	4.934	0.528
404.000	274.204	80.002	19.997	103.172	19.881	4.820	0.554
404.500	274.392	80.001	19.995	103.177	19.880	4.839	0.488
405.000	274.618	80.003	19.996	103.185	19.879	4.945	0.417
405.500	274.906	80.003	19.996	103.193	19.881	4.772	0.463
406.000	275.157	80.002	19.995	103.190	19.879	4.922	0.526
406.500	275.403	80.003	19.996	103.186	19.881	4.827	0.518
407.000	275.642	80.004	19.996	103.177	19.882	4.748	0.491
407.500	275.941	80.004	19.996	103.171	19.881	4.793	0.512
408.000	276.212	80.002	19.995	103.167	19.880	4.880	0.554
408.500	276.461	80.003	19.995	103.165	19.882	4.728	0.545
409.000	276.654	80.003	19.995	103.159	19.880	4.890	0.481
409.500	276.934	80.002	19.996	103.160	19.881	4.784	0.458
410.000	277.156	80.003	19.995	103.163	19.880	4.870	0.487
410.500	277.394	80.003	19.997	103.160	19.884	4.611	0.481
411.000	277.678	80.003	19.995	103.157	19.885	4.547	0.491
411.500	277.867	80.002	19.996	103.160	19.884	4.587	0.498
412.000	278.164	80.002	19.995	103.163	19.884	4.631	0.479
412.500	278.409	80.004	19.995	103.160	19.884	4.578	0.514
413.000	278.676	80.003	19.995	103.155	19.886	4.472	0.527
413.500	278.925	80.003	19.995	103.151	19.884	4.597	0.514
414.000	279.169	80.003	19.995	103.145	19.884	4.585	0.505
414.500	279.445	80.002	19.995	103.136	19.887	4.427	0.506
415.000	279.694	80.003	19.994	103.130	19.886	4.462	0.522
415.500	279.939	80.003	19.995	103.131	19.885	4.526	0.509
416.000	280.185	80.004	19.995	103.129	19.889	4.288	0.493
416.500	280.450	80.004	19.993	103.128	19.888	4.353	0.502
417.000	280.685	80.002	19.994	103.132	19.884	4.612	0.506
417.500	280.921	80.003	19.995	103.138	19.885	4.559	0.485
418.000	281.181	80.002	19.994	103.152	19.885	4.531	0.483
418.500	281.423	80.003	19.995	103.165	19.884	4.603	0.499
419.000	281.664	80.003	19.994	103.172	19.882	4.709	0.493
419.500	281.912	80.004	19.994	103.173	19.885	4.558	0.486
420.000	282.184	80.005	19.994	103.172	19.883	4.653	0.505
420.500	282.444	80.004	19.994	103.161	19.885	4.551	0.526
421.000	282.666	80.003	19.994	103.150	19.888	4.375	0.507
421.500	282.929	80.004	19.994	103.140	19.885	4.526	0.483
422.000	283.146	80.003	19.994	103.128	19.884	4.584	0.483
422.500	283.410	80.003	19.994	103.120	19.889	4.277	0.481
423.000	283.618	80.004	19.994	103.113	19.890	4.231	0.476
423.500	283.903	80.003	19.994	103.111	19.886	4.481	0.482
424.000	284.162	80.003	19.994	103.113	19.887	4.384	0.518
424.500	284.402	80.003	19.993	103.121	19.885	4.564	0.522
425.000	284.649	80.005	19.995	103.122	19.885	4.555	0.493
425.500	284.933	80.003	19.995	103.123	19.887	4.436	0.509
426.000	285.202	80.005	19.995	103.125	19.888	4.330	0.542
426.500	285.413	80.003	19.995	103.129	19.887	4.424	0.516
427.000	285.654	80.004	19.995	103.125	19.886	4.477	0.466
427.500	285.926	80.003	19.994	103.124	19.889	4.295	0.483
428.000	286.159	80.003	19.994	103.125	19.887	4.401	0.509
428.500	286.412	80.001	19.994	103.127	19.888	4.364	0.496
429.000	286.656	80.003	19.994	103.129	19.888	4.369	0.492
429.500	286.907	80.003	19.994	103.134	19.888	4.327	0.496
430.000	287.149	80.003	19.995	103.137	19.887	4.383	0.494
430.500	287.394	80.002	19.994	103.141	19.886	4.460	0.490
431.000	287.638	80.003	19.995	103.143	19.886	4.466	0.488
431.500	287.910	80.002	19.995	103.142	19.889	4.278	0.502
432.000	288.151	80.003	19.994	103.140	19.889	4.270	0.514
432.500	288.398	80.002	19.994	103.136	19.887	4.383	0.500
433.000	288.632	80.003	19.996	103.128	19.888	4.364	0.485
433.500	288.871	80.001	19.995	103.121	19.887	4.426	0.478
434.000	289.136	80.004	19.994	103.115	19.888	4.371	0.488
434.500	289.375	80.001	19.994	103.114	19.887	4.435	0.503
435.000	289.644	80.003	19.994	103.114	19.888	4.320	0.506
435.500	289.924	80.002	19.995	103.114	19.888	4.333	0.529
436.000	290.144	80.004	19.995	103.119	19.888	4.334	0.524
436.500	290.413	80.001	19.995	103.124	19.888	4.362	0.494
437.000	290.662	80.002	19.995	103.127	19.886	4.489	0.504
437.500	290.923	80.002	19.995	103.133	19.890	4.231	0.514
438.000	291.159	80.003	19.995	103.135	19.889	4.302	0.503
438.500	291.413	80.003	19.995	103.139	19.888	4.315	0.493
439.000	291.705	80.002	19.995	103.141	19.888	4.321	0.518
439.500	291.913	80.002	19.995	103.138	19.890	4.185	0.523
440.000	292.136	80.003	19.994	103.132	19.891	4.126	0.465
440.500	292.474	80.002	19.996	103.134	19.892	4.096	0.496
441.000	292.684	80.004	19.995	103.127	19.891	4.149	0.555
441.500	292.930	80.003	19.995	103.124	19.891	4.126	0.502
442.000	293.175	80.004	19.995	103.126	19.890	4.223	0.474
442.500	293.435	80.004	19.994	103.131	19.892	4.087	0.498
443.000	293.700	80.004	19.995	103.127	19.890	4.224	0.515
443.500	293.967	80.004	19.995	103.132	19.892	4.060	0.528
444.000	294.185	80.004	19.995	103.136	19.891	4.173	0.508
444.500	294.430	80.006	19.994	103.137	19.891	4.139	0.474
445.000	294.712	80.005	19.995	103.137	19.894	3.942	0.495
445.500	294.951	80.005	19.995	103.143	19.890	4.199	0.524
446.000	295.176	80.006	19.994	103.146	19.888	4.342	0.492
446.500	295.435	80.005	19.995	103.146	19.891	4.115	0.474
447.000	295.708	80.005	19.994	103.143	19.890	4.241	0.508
447.500	295.938	80.006	19.994	103.139	19.887	4.415	0.517
448.000	296.198	80.005	19.994	103.131	19.892	4.064	0.497
448.500	296.434	80.005	19.995	103.123	19.889	4.272	0.493
449.000	296.688	80.005	19.994	103.116	19.885	4.507	0.493
449.500	296.924	80.006	19.995	103.112	19.890	4.185	0.490
450.000	297.199	80.005	19.994	103.113	19.889	4.244	0.501
450.500	297.447	80.007	19.995	103.116	19.892	4.071	0.517
451.000	297.735	80.005	19.994	103.124	19.889	4.264	0.530
451.500	297.972	80.006	19.994	103.132	19.890	4.207	0.531
452.000	298.224	80.005	19.994	103.137	19.890	4.233	0.506
452.500	298.449	80.003	19.995	103.137	19.889	4.302	0.483
453.000	298.704	80.005	19.995	103.133	19.888	4.348	0.479
453.500	298.985	80.006	19.993	103.125	19.890	4.194	0.508
454.000	299.241	80.006	19.994	103.118	19.889	4.307	0.536
454.500	299.476	80.005	19.995	103.112	19.890	4.235	0.514
455.000	299.753	80.005	19.994	103.110	19.887	4.413	0.502
455.500	300.009	80.005	19.994	103.110	19.886	4.455	0.523
456.000	300.216	80.005	19.995	103.111	19.890	4.232	0.498
456.500	300.488	80.004	19.994	103.112	19.887	4.406	0.471
457.000	300.727	80.004	19.994	103.120	19.888	4.342	0.495
457.500	300.996	80.006	19.995	103.128	19.889	4.279	0.509
458.000	301.236	80.005	19.995	103.135	19.889	4.268	0.509
458.500	301.470	80.003	19.995	103.138	19.887	4.392	0.492
459.000	301.737	80.004	19.994	103.129	19.887	4.399	0.487
459.500	302.010	80.004	19.994	103.116	19.887	4.389	0.520
460.000	302.248	80.004	19.995	103.106	19.887	4.436	0.526
460.500	302.480	80.003	19.996	103.099	19.888	4.311	0.491
461.000	302.749	80.005	19.994	103.095	19.889	4.267	0.485
461.500	302.982	80.005	19.995	103.105	19.889	4.286	0.502
462.000	303.221	80.004	19.995	103.113	19.890	4.196	0.487
462.500	303.492	80.004	19.995	103.116	19.889	4.245	0.490
463.000	303.731	80.004	19.995	103.121	19.889	4.286	0.510
463.500	303.986	80.004	19.994	103.124	19.887	4.390	0.503
464.000	304.239	80.004	19.995	103.121	19.888	4.346	0.501
464.500	304.505	80.005	19.995	103.119	19.892	4.104	0.514
465.000	304.761	80.005	19.994	103.125	19.889	4.270	0.520
465.500	304.960	80.003	19.996	103.124	19.889	4.300	0.488
466.000	305.234	80.004	19.996	103.122	19.888	4.326	0.464
466.500	305.523	80.003	19.995	103.124	19.886	4.476	0.518
467.000	305.741	80.003	19.995	103.124	19.890	4.219	0.535
467.500	306.010	80.003	19.995	103.119	19.887	4.391	0.497
468.000	306.259	80.003	19.995	103.117	19.890	4.235	0.503
468.500	306.484	80.003	19.994	103.119	19.889	4.277	0.496
469.000	306.736	80.004	19.995	103.121	19.888	4.311	0.475
469.500	307.026	80.004	19.995	103.127	19.886	4.455	0.510
470.000	307.273	80.005	19.995	103.134	19.884	4.576	0.540
470.500	307.542	80.004	19.994	103.135	19.886	4.471	0.526
471.000	307.775	80.005	19.994	103.132	19.885	4.552	0.508
471.500	307.991	80.005	19.995	103.130	19.887	4.410	0.475
472.000	308.264	80.004	19.995	103.123	19.888	4.325	0.470
472.500	308.502	80.005	19.994	103.115	19.886	4.468	0.500
473.000	308.788	80.005	19.995	103.117	19.884	4.600	0.517
473.500	309.031	80.005	19.995	103.121	19.884	4.625	0.526
474.000	309.282	80.006	19.995	103.119	19.881	4.785	0.511
474.500	309.538	80.005	19.995	103.119	19.880	4.875	0.501
475.000	309.825	80.006	19.994	103.119	19.882	4.718	0.525
475.500	310.028	80.006	19.995	103.116	19.884	4.634	0.516
476.000	310.305	80.005	19.994	103.111	19.882	4.708	0.485
476.500	310.569	80.005	19.993	103.111	19.883	4.672	0.511
477.000	310.811	80.006	19.994	103.113	19.883	4.686	0.524
477.500	311.057	80.005	19.994	103.116	19.884	4.613	0.497
478.000	311.304	80.006	19.995	103.119	19.882	4.699	0.490
478.500	311.599	80.006	19.994	103.119	19.882	4.733	0.517
479.000	311.812	80.005	19.994	103.123	19.883	4.659	0.525
479.500	312.071	80.006	19.994	103.127	19.881	4.796	0.491
480.000	312.308	80.005	19.995	103.125	19.883	4.682	0.484
480.500	312.580	80.005	19.995	103.122	19.881	4.784	0.502
481.000	312.870	80.005	19.996	103.124	19.883	4.673	0.535
481.500	313.097	80.005	19.995	103.127	19.883	4.698	0.540
482.000	313.343	80.004	19.995	103.127	19.883	4.643	0.495
482.500	313.612	80.005	19.995	103.133	19.883	4.680	0.494
483.000	313.836	80.003	19.994	103.139	19.884	4.586	0.504
483.500	314.104	80.004	19.994	103.143	19.884	4.597	0.493
484.000	314.322	80.003	19.995	103.146	19.880	4.856	0.489
484.500	314.625	80.003	19.996	103.148	19.884	4.627	0.503
485.000	314.870	80.003	19.995	103.147	19.882	4.706	0.534
485.500	315.136	80.002	19.994	103.147	19.882	4.761	0.530
486.000	315.386	80.004	19.995	103.147	19.879	4.921	0.514
486.500	315.603	80.003	19.995	103.146	19.881	4.824	0.491
487.000	315.842	80.002	19.995	103.145	19.879	4.928	0.462
487.500	316.121	80.003	19.995	103.140	19.881	4.784	0.487
488.000	316.390	80.002	19.995	103.133	19.881	4.778	0.533
488.500	316.636	80.003	19.994	103.125	19.878	4.999	0.532
489.000	316.870	80.002	19.995	103.119	19.879	4.930	0.498
489.500	317.115	80.002	19.995	103.112	19.879	4.927	0.479
490.000	317.393	80.002	19.995	103.112	19.875	5.163	0.501
490.500	317.644	80.003	19.995	103.121	19.875	5.217	0.526
491.000	317.914	80.003	19.994	103.124	19.877	5.071	0.525
491.500	318.144	80.004	19.995	103.128	19.875	5.183	0.510
492.000	318.418	80.003	19.995	103.128	19.874	5.229	0.502
492.500	318.640	80.001	19.995	103.127	19.876	5.092	0.500
493.000	318.908	80.003	19.995	103.120	19.875	5.190	0.494
493.500	319.136	80.003	19.995	103.116	19.879	4.930	0.493
494.000	319.398	80.002	19.995	103.110	19.874	5.276	0.493
494.500	319.652	80.001	19.995	103.109	19.874	5.260	0.503
495.000	319.929	80.004	19.995	103.107	19.874	5.229	0.523
495.500	320.118	80.002	19.995	103.107	19.875	5.197	0.498
496.000	320.409	80.003	19.995	103.110	19.874	5.241	0.472
496.500	320.673	80.003	19.995	103.111	19.874	5.280	0.517
497.000	320.952	80.003	19.995	103.111	19.873	5.317	0.550
497.500	321.200	80.003	19.996	103.113	19.875	5.176	0.535
498.000	321.391	80.001	19.996	103.113	19.874	5.224	0.483
498.500	321.649	80.002	19.997	103.113	19.874	5.275	0.444
499.000	321.926	80.002	19.997	103.115	19.874	5.232	0.492
499.500	322.216	80.002	19.996	103.122	19.872	5.357	0.551
500.000	322.428	80.004	19.996	103.124	19.873	5.285	0.535
500.500	322.681	80.002	19.996	103.125	19.872	5.370	0.483
501.000	322.943	80.003	19.995	103.127	19.869	5.556	0.490
501.500	323.160	80.002	19.995	103.125	19.873	5.345	0.497
502.000	323.447	80.003	19.996	103.119	19.868	5.609	0.491
502.500	323.671	80.003	19.995	103.115	19.869	5.563	0.507
503.000	323.947	80.002	19.995	103.113	19.868	5.628	0.505
503.500	324.193	80.003	19.995	103.110	19.867	5.686	0.512
504.000	324.433	80.003	19.996	103.109	19.869	5.563	0.504
504.500	324.647	80.001	19.995	103.110	19.868	5.623	0.470
505.000	324.936	80.003	19.995	103.110	19.868	5.636	0.478
505.500	325.169	80.003	19.995	103.110	19.864	5.881	0.513
506.000	325.443	80.001	19.995	103.110	19.866	5.787	0.514
506.500	325.704	80.002	19.996	103.111	19.866	5.757	0.520
507.000	325.956	80.002	19.995	103.112	19.864	5.881	0.524
507.500	326.208	80.003	19.996	103.113	19.866	5.773	0.508
508.000	326.484	80.003	19.995	103.115	19.864	5.899	0.516
508.500	326.730	80.004	19.995	103.117	19.862	6.051	0.525
509.000	326.976	80.003	19.995	103.115	19.864	5.882	0.508
509.500	327.203	80.003	19.995	103.113	19.862	6.052	0.483
510.000	327.497	80.003	19.994	103.112	19.861	6.070	0.497
510.500	327.732	80.004	19.994	103.110	19.861	6.116	0.525
511.000	327.982	80.003	19.994	103.108	19.860	6.187	0.507
511.500	328.258	80.004	19.994	103.109	19.859	6.206	0.506
512.000	328.493	80.004	19.994	103.109	19.857	6.352	0.519
512.500	328.759	80.004	19.995	103.110	19.858	6.308	0.506
513.000	329.017	80.003	19.995	103.110	19.856	6.403	0.513
513.500	329.278	80.002	19.994	103.110	19.858	6.278	0.521
514.000	329.509	80.004	19.995	103.110	19.856	6.414	0.505
514.500	329.748	80.004	19.995	103.110	19.855	6.498	0.481
515.000	330.046	80.003	19.994	103.113	19.852	6.701	0.503
515.500	330.265	80.004	19.994	103.113	19.852	6.674	0.527
516.000	330.508	80.003	19.994	103.118	19.851	6.725	0.490
516.500	330.742	80.001	19.994	103.122	19.851	6.729	0.470
517.000	331.019	80.004	19.995	103.122	19.854	6.572	0.494
517.500	331.278	80.003	19.995	103.121	19.850	6.780	0.524
518.000	331.545	80.003	19.995	103.122	19.853	6.616	0.531
518.500	331.800	80.003	19.996	103.117	19.851	6.760	0.524
519.000	332.058	80.003	19.995	103.112	19.852	6.671	0.518
519.500	332.291	80.003	19.995	103.112	19.853	6.632	0.502
520.000	332.550	80.004	19.995	103.111	19.848	6.950	0.492
520.500	332.813	80.001	19.994	103.110	19.847	7.028	0.507
521.000	333.066	80.003	19.995	103.110	19.846	7.040	0.519
521.500	333.362	80.002	19.995	103.115	19.847	7.001	0.533
522.000	333.588	80.004	19.994	103.121	19.848	6.940	0.535
522.500	333.855	80.004	19.995	103.121	19.845	7.123	0.507
523.000	334.083	80.004	19.995	103.121	19.843	7.285	0.494
523.500	334.394	80.003	19.995	103.122	19.843	7.251	0.517
524.000	334.617	80.004	19.994	103.122	19.842	7.306	0.537
524.500	334.840	80.003	19.993	103.116	19.840	7.489	0.490
525.000	335.113	80.003	19.994	103.119	19.840	7.431	0.471
525.500	335.358	80.004	19.994	103.119	19.843	7.246	0.506
526.000	335.642	80.003	19.994	103.119	19.842	7.348	0.523
526.500	335.885	80.004	19.995	103.117	19.841	7.373	0.528
527.000	336.080	80.004	19.995	103.117	19.840	7.473	0.483
527.500	336.398	80.004	19.994	103.117	19.838	7.596	0.476
528.000	336.649	80.003	19.994	103.116	19.836	7.734	0.541
528.500	336.883	80.003	19.995	103.116	19.835	7.813	0.527
529.000	337.127	80.004	19.995	103.116	19.835	7.814	0.482
529.500	337.391	80.005	19.995	103.116	19.833	7.901	0.493
530.000	337.635	80.004	19.995	103.116	19.832	7.976	0.508
530.500	337.894	80.004	19.995	103.117	19.830	8.115	0.505
531.000	338.162	80.005	19.994	103.117	19.830	8.096	0.515
531.500	338.422	80.007	19.994	103.114	19.828	8.208	0.528
532.000	338.652	80.005	19.995	103.114	19.829	8.205	0.509
532.500	338.926	80.005	19.994	103.112	19.827	8.281	0.497
533.000	339.180	80.004	19.994	103.111	19.825	8.468	0.516
533.500	339.450	80.005	19.994	103.112	19.820	8.771	0.526
534.000	339.701	80.004	19.995	103.112	19.821	8.701	0.522
534.500	339.922	80.006	19.996	103.113	19.824	8.497	0.497
535.000	340.223	80.004	19.995	103.114	19.821	8.700	0.497
535.500	340.500	80.005	19.994	103.115	19.819	8.814	0.550
536.000	340.731	80.004	19.995	103.114	19.818	8.896	0.543
536.500	340.980	80.005	19.995	103.114	19.816	9.021	0.494
537.000	341.215	80.004	19.995	103.114	19.817	8.960	0.482
537.500	341.505	80.005	19.995	103.115	19.815	9.070	0.504
538.000	341.752	80.003	19.995	103.116	19.813	9.246	0.531
538.500	342.010	80.005	19.995	103.117	19.811	9.317	0.521
539.000	342.234	80.004	19.994	103.118	19.812	9.259	0.494
539.500	342.487	80.004	19.996	103.117	19.812	9.285	0.480
540.000	342.790	80.005	19.995	103.114	19.810	9.435	0.517
540.500	343.006	80.005	19.995	103.112	19.806	9.695	0.537
541.000	343.244	80.003	19.995	103.111	19.809	9.462	0.486
541.500	343.522	80.004	19.994	103.110	19.809	9.497	0.485
542.000	343.741	80.004	19.995	103.109	19.805	9.725	0.506
542.500	343.984	80.004	19.994	103.111	19.806	9.658	0.479
543.000	344.284	80.004	19.994	103.112	19.801	9.978	0.503
543.500	344.544	80.004	19.996	103.113	19.799	10.115	0.551
544.000	344.784	80.005	19.994	103.115	19.798	10.212	0.530
544.500	345.025	80.004	19.995	103.121	19.797	10.275	0.491
545.000	345.296	80.005	19.994	103.126	19.796	10.342	0.497
545.500	345.547	80.004	19.993	103.132	19.793	10.520	0.517
546.000	345.789	80.006	19.994	103.133	19.796	10.340	0.508
546.500	346.076	80.004	19.994	103.130	19.794	10.463	0.511
547.000	346.302	80.005	19.994	103.125	19.794	10.445	0.521
547.500	346.525	80.002	19.994	103.120	19.786	10.958	0.481
548.000	346.784	80.004	19.995	103.115	19.790	10.744	0.465
548.500	347.045	80.004	19.993	103.117	19.788	10.856	0.501
549.000	347.352	80.004	19.994	103.122	19.784	11.069	0.544
549.500	347.574	80.005	19.994	103.128	19.784	11.094	0.549
550.000	347.826	80.005	19.994	103.128	19.781	11.310	0.501
550.500	348.072	80.003	19.993	103.128	19.777	11.560	0.486
551.000	348.337	80.004	19.993	103.126	19.776	11.646	0.505
551.500	348.595	80.004	19.994	103.122	19.777	11.537	0.517
552.000	348.863	80.005	19.995	103.116	19.776	11.595	0.525
552.500	349.089	80.005	19.994	103.119	19.774	11.762	0.510
553.000	349.358	80.005	19.995	103.119	19.770	12.017	0.494
553.500	349.624	80.005	19.993	103.118	19.769	12.088	0.515
554.000	349.891	80.005	19.993	103.118	19.765	12.357	0.534
554.500	350.142	80.006	19.994	103.118	19.768	12.158	0.526
555.000	350.423	80.006	19.994	103.116	19.767	12.188	0.525
555.500	350.722	80.006	19.994	103.115	19.765	12.313	0.556
556.000	350.928	80.005	19.994	103.115	19.762	12.519	0.543
556.500	351.180	80.005	19.993	103.114	19.760	12.661	0.482
557.000	351.407	80.005	19.994	103.112	19.758	12.762	0.468
557.500	351.649	80.007	19.994	103.111	19.756	12.943	0.474
558.000	351.901	80.007	19.994	103.112	19.754	13.038	0.481
558.500	352.142	80.006	19.994	103.117	19.754	13.054	0.493
559.000	352.420	80.006	19.994	103.118	19.749	13.402	0.506
559.500	352.703	80.007	19.995	103.120	19.746	13.600	0.540
560.000	352.967	80.007	19.994	103.119	19.747	13.522	0.555
560.500	353.243	80.005	19.994	103.118	19.743	13.774	0.543
561.000	353.461	80.006	19.994	103.114	19.741	13.913	0.517
561.500	353.750	80.006	19.994	103.114	19.740	13.970	0.501
562.000	353.999	80.005	19.995	103.113	19.738	14.079	0.523
562.500	354.288	80.006	19.995	103.113	19.735	14.278	0.538
563.000	354.520	80.006	19.994	103.113	19.733	14.433	0.529
563.500	354.730	80.005	19.995	103.112	19.732	14.495	0.482
564.000	355.018	80.006	19.994	103.115	19.728	14.717	0.470
564.500	355.250	80.004	19.994	103.117	19.728	14.715	0.509
565.000	355.487	80.005	19.995	103.116	19.723	15.097	0.494
565.500	355.782	80.004	19.995	103.116	19.725	14.965	0.500
566.000	356.028	80.005	19.995	103.115	19.722	15.100	0.537
566.500	356.249	80.004	19.995	103.113	19.720	15.285	0.504
567.000	356.492	80.006	19.995	103.111	19.716	15.527	0.465
567.500	356.752	80.003	19.995	103.112	19.712	15.786	0.483
568.000	357.018	80.005	19.995	103.112	19.708	16.054	0.514
568.500	357.266	80.003	19.995	103.111	19.708	16.045	0.520
569.000	357.531	80.003	19.995	103.111	19.704	16.313	0.513
569.500	357.830	80.004	19.995	103.110	19.702	16.405	0.539
570.000	358.079	80.004	19.995	103.112	19.700	16.554	0.556
570.500	358.285	80.003	19.995	103.116	19.697	16.732	0.502
571.000	358.593	80.004	19.995	103.115	19.695	16.875	0.484
571.500	358.817	80.003	19.995	103.112	19.692	17.078	0.523
572.000	359.064	80.004	19.995	103.112	19.688	17.361	0.502
572.500	359.343	80.005	19.994	103.110	19.688	17.373	0.498
573.000	359.574	80.003	19.996	103.106	19.683	17.676	0.518
573.500	359.837	80.004	19.994	103.107	19.681	17.780	0.502
574.000	360.077	80.003	19.995	103.110	19.677	18.043	0.499
574.500	360.325	80.004	19.995	103.111	19.675	18.190	0.496
575.000	360.625	80.003	19.995	103.112	19.675	18.195	0.518
575.500	360.842	80.003	19.994	103.112	19.668	18.662	0.532
576.000	361.058	80.003	19.994	103.111	19.668	18.613	0.474
576.500	361.344	80.003	19.995	103.110	19.663	18.979	0.467
577.000	361.623	80.003	19.994	103.110	19.662	19.054	0.533
577.500	361.874	80.004	19.995	103.112	19.658	19.271	0.548
578.000	362.120	80.004	19.994	103.115	19.654	19.534	0.514
578.500	362.361	80.003	19.995	103.119	19.650	19.787	0.492
579.000	362.614	80.003	19.995	103.119	19.648	19.949	0.490
579.500	362.908	80.004	19.995	103.120	19.649	19.889	0.521
580.000	363.149	80.004	19.995	103.119	19.646	20.063	0.541
580.500	363.415	80.003	19.994	103.116	19.641	20.392	0.521
581.000	363.654	80.004	19.995	103.113	19.639	20.547	0.506
581.500	363.874	80.004	19.995	103.113	19.635	20.783	0.482
582.000	364.076	80.003	19.995	103.115	19.631	21.053	0.441
582.500	364.398	80.004	19.995	103.120	19.629	21.187	0.473
583.000	364.652	80.003	19.995	103.123	19.623	21.565	0.550
583.500	364.888	80.004	19.994	103.126	19.623	21.556	0.533
584.000	365.124	80.004	19.995	103.128	19.619	21.838	0.481
584.500	365.393	80.002	19.995	103.124	19.615	22.107	0.488
585.000	365.653	80.003	19.996	103.118	19.610	22.381	0.517
585.500	365.887	80.004	19.995	103.115	19.608	22.534	0.511
586.000	366.111	80.004	19.995	103.112	19.603	22.832	0.476
586.500	366.388	80.003	19.995	103.110	19.602	22.950	0.480
587.000	366.672	80.004	19.995	103.108	19.600	23.072	0.532
587.500	366.912	80.003	19.995	103.107	19.594	23.420	0.543
588.000	367.137	80.004	19.995	103.107	19.588	23.862	0.494
588.500	367.398	80.004	19.995	103.108	19.585	24.005	0.475
589.000	367.638	80.004	19.995	103.109	19.580	24.346	0.494
589.500	367.884	80.003	19.995	103.111	19.579	24.423	0.493
590.000	368.133	80.004	19.995	103.111	19.571	24.954	0.491
590.500	368.405	80.004	19.996	103.110	19.570	25.006	0.508
591.000	368.652	80.003	19.995	103.108	19.565	25.314	0.520
591.500	368.901	80.003	19.995	103.108	19.561	25.578	0.507
592.000	369.170	80.003	19.995	103.109	19.559	25.710	0.507
592.500	369.387	80.004	19.996	103.108	19.554	26.042	0.502
593.000	369.678	80.004	19.996	103.110	19.553	26.130	0.498
593.500	369.926	80.003	19.996	103.112	19.549	26.379	0.523
594.000	370.190	80.004	19.996	103.113	19.543	26.794	0.525
594.500	370.446	80.004	19.996	103.112	19.539	27.002	0.516
595.000	370.689	80.004	19.996	103.113	19.533	27.398	0.510
595.500	370.912	80.003	19.996	103.112	19.532	27.467	0.483
596.000	371.166	80.002	19.996	103.111	19.528	27.720	0.471
596.500	371.448	80.003	19.996	103.110	19.520	28.249	0.506
597.000	371.677	80.003	19.995	103.111	19.515	28.575	0.523
597.500	371.944	80.003	19.996	103.112	19.512	28.784	0.503
598.000	372.194	80.001	19.995	103.115	19.508	29.061	0.506
598.500	372.454	80.002	19.995	103.118	19.500	29.565	0.513
599.000	372.701	80.002	19.996	103.121	19.496	29.809	0.509
599.500	372.920	80.002	19.996	103.122	19.491	30.164	0.487
600.000	373.154	80.003	19.995	103.120	19.487	30.430	0.460
600.500	373.470	80.003	19.996	103.118	19.484	30.600	0.502
601.000	373.691	80.003	19.995	103.116	19.477	31.047	0.544
601.500	373.954	80.001	19.996	103.113	19.476	31.155	0.510
602.000	374.224	80.002	19.996	103.112	19.468	31.635	0.508
602.500	374.463	80.003	19.996	103.112	19.469	31.567	0.521
603.000	374.695	80.002	19.996	103.111	19.461	32.078	0.490
603.500	374.935	80.002	19.995	103.111	19.457	32.371	0.472
604.000	375.228	80.003	19.995	103.111	19.450	32.796	0.503
604.500	375.419	80.002	19.995	103.112	19.443	33.245	0.509
605.000	375.677	80.002	19.995	103.117	19.436	33.720	0.466
605.500	375.960	80.001	19.995	103.125	19.435	33.762	0.495
606.000	376.189	80.002	19.996	103.133	19.430	34.102	0.526
606.500	376.480	80.002	19.995	103.135	19.425	34.438	0.516
607.000	376.686	80.002	19.995	103.133	19.421	34.676	0.509
607.500	376.995	80.003	19.995	103.129	19.414	35.151	0.506
608.000	377.234	80.003	19.995	103.129	19.411	35.348	0.531
608.500	377.471	80.002	19.994	103.130	19.403	35.845	0.512
609.000	377.726	80.003	19.994	103.139	19.399	36.112	0.484
609.500	377.960	80.004	19.994	103.147	19.393	36.521	0.490
610.000	378.208	80.003	19.994	103.154	19.387	36.921	0.485
610.500	378.446	80.003	19.995	103.155	19.383	37.157	0.484
611.000	378.728	80.004	19.995	103.154	19.379	37.419	0.503
611.500	378.930	80.002	19.994	103.152	19.370	38.031	0.502
612.000	379.174	80.004	19.995	103.151	19.366	38.270	0.465
612.500	379.432	80.003	19.995	103.147	19.354	39.037	0.474
613.000	379.708	80.004	19.994	103.145	19.352	39.220	0.518
613.500	379.938	80.003	19.995	103.145	19.348	39.438	0.520
614.000	380.223	80.005	19.994	103.141	19.341	39.897	0.511
614.500	380.500	80.002	19.994	103.134	19.333	40.421	0.538
615.000	380.743	80.004	19.994	103.132	19.327	40.829	0.541
615.500	380.967	80.005	19.993	103.125	19.323	41.108	0.493
616.000	381.221	80.004	19.994	103.118	19.317	41.457	0.473
616.500	381.444	80.005	19.994	103.114	19.306	42.199	0.477
617.000	381.733	80.004	19.993	103.118	19.303	42.380	0.495
617.500	381.982	80.005	19.993	103.123	19.295	42.878	0.526
618.000	382.229	80.003	19.994	103.131	19.293	43.057	0.517
618.500	382.476	80.004	19.994	103.139	19.282	43.713	0.495
619.000	382.758	80.005	19.994	103.148	19.277	44.075	0.511
619.500	383.010	80.004	19.993	103.152	19.269	44.579	0.531
620.000	383.252	80.004	19.994	103.149	19.263	44.981	0.514
620.500	383.462	80.005	19.994	103.145	19.253	45.618	0.473
621.000	383.703	80.003	19.994	103.143	19.248	45.948	0.451
621.500	383.993	80.004	19.994	103.141	19.241	46.426	0.491
622.000	384.222	80.004	19.994	103.141	19.237	46.657	0.525
622.500	384.490	80.004	19.994	103.144	19.229	47.210	0.508
623.000	384.706	80.004	19.994	103.147	19.219	47.844	0.490
623.500	384.976	80.004	19.994	103.150	19.217	47.997	0.484
624.000	385.193	80.003	19.995	103.150	19.207	48.591	0.487
624.500	385.467	80.005	19.994	103.149	19.199	49.149	0.489
625.000	385.737	80.004	19.994	103.152	19.192	49.605	0.517
625.500	385.977	80.003	19.994	103.155	19.185	50.074	0.527
626.000	386.234	80.005	19.994	103.155	19.173	50.814	0.504
626.500	386.443	80.004	19.994	103.152	19.168	51.192	0.482
627.000	386.719	80.004	19.993	103.150	19.157	51.854	0.475
627.500	386.980	80.004	19.995	103.147	19.148	52.469	0.511
628.000	387.273	80.004	19.994	103.145	19.139	53.080	0.546
628.500	387.460	80.004	19.994	103.145	19.133	53.418	0.517
629.000	387.719	80.005	19.994	103.148	19.126	53.916	0.463
629.500	387.996	80.004	19.995	103.150	19.117	54.508	0.491
630.000	388.235	80.005	19.994	103.148	19.109	55.032	0.526
630.500	388.478	80.005	19.994	103.147	19.100	55.570	0.499
631.000	388.717	80.005	19.994	103.146	19.091	56.162	0.482
631.500	388.950	80.005	19.995	103.146	19.078	57.043	0.477
632.000	389.215	80.005	19.994	103.147	19.070	57.530	0.485
632.500	389.452	80.005	19.994	103.150	19.061	58.113	0.500
633.000	389.710	80.004	19.994	103.152	19.055	58.506	0.499
633.500	389.920	80.004	19.995	103.152	19.042	59.364	0.481
634.000	390.198	80.006	19.995	103.152	19.034	59.866	0.478
634.500	390.426	80.004	19.995	103.151	19.023	60.570	0.497
635.000	390.693	80.005	19.994	103.153	19.015	61.113	0.501
635.500	390.934	80.005	19.995	103.156	19.008	61.566	0.502
636.000	391.196	80.006	19.994	103.160	18.998	62.251	0.506
636.500	391.439	80.006	19.994	103.161	18.985	63.057	0.504
637.000	391.744	80.005	19.994	103.161	18.975	63.726	0.526
637.500	391.963	80.006	19.994	103.165	18.966	64.307	0.535
638.000	392.179	80.006	19.995	103.168	18.955	65.008	0.480
638.500	392.432	80.006	19.994	103.171	18.946	65.607	0.452
639.000	392.665	80.007	19.994	103.178	18.935	66.316	0.477
639.500	392.981	80.006	19.994	103.185	18.923	67.079	0.518
640.000	393.194	80.006	19.994	103.184	18.912	67.822	0.539
640.500	393.458	80.007	19.993	103.182	18.902	68.496	0.503
641.000	393.729	80.007	19.994	103.179	18.893	69.081	0.506
641.500	393.952	80.007	19.993	103.174	18.878	70.055	0.515
642.000	394.199	80.007	19.994	103.173	18.866	70.835	0.482
642.500	394.472	80.007	19.994	103.174	18.851	71.813	0.495
643.000	394.710	80.007	19.994	103.175	18.840	72.478	0.516
643.500	394.974	80.007	19.993	103.174	18.828	73.279	0.507
644.000	395.228	80.008	19.994	103.179	18.817	74.025	0.510
644.500	395.475	80.007	19.994	103.179	18.806	74.755	0.509
645.000	395.712	80.006	19.993	103.180	18.793	75.577	0.493
645.500	395.967	80.006	19.993	103.181	18.777	76.642	0.488
646.000	396.215	80.007	19.994	103.186	18.766	77.349	0.498
646.500	396.466	80.007	19.994	103.185	18.751	78.324	0.501
647.000	396.728	80.007	19.993	103.183	18.742	78.920	0.506
647.500	396.969	80.007	19.994	103.182	18.727	79.907	0.508
648.000	397.202	80.005	19.995	103.182	18.714	80.721	0.488
648.500	397.450	80.006	19.994	103.181	18.701	81.555	0.478
649.000	397.676	80.006	19.993	103.182	18.687	82.467	0.478
649.500	397.956	80.005	19.994	103.185	18.674	83.299	0.490
650.000	398.205	80.005	19.994	103.186	18.662	84.136	0.517
650.500	398.475	80.005	19.994	103.187	18.643	85.366	0.524
651.000	398.670	80.005	19.993	103.188	18.633	86.028	0.492
651.500	398.946	80.004	19.994	103.188	18.615	87.200	0.468
652.000	399.206	80.005	19.995	103.188	18.598	88.284	0.504
652.500	399.474	80.004	19.994	103.188	18.586	89.068	0.532
653.000	399.716	80.004	19.994	103.188	18.569	90.183	0.519
653.500	399.936	80.003	19.995	103.186	18.553	91.199	0.486
654.000	400.156	80.004	19.994	103.186	18.538	92.158	0.451
654.500	400.472	80.004	19.994	103.188	18.524	93.115	0.488
655.000	400.713	80.003	19.995	103.195	18.506	94.282	0.547
655.500	400.924	80.005	19.994	103.200	18.491	95.221	0.505
656.000	401.177	80.002	19.994	103.200	18.471	96.549	0.458
656.500	401.423	80.003	19.995	103.204	18.454	97.683	0.481
657.000	401.661	80.004	19.995	103.210	18.439	98.641	0.492
657.500	401.928	80.003	19.995	103.210	18.418	99.996	0.495
658.000	402.186	80.003	19.995	103.212	18.402	101.060	0.515
658.500	402.411	80.003	19.994	103.217	18.380	102.471	0.504
659.000	402.682	80.004	19.996	103.220	18.361	103.744	0.489
659.500	402.917	80.003	19.995	103.220	18.342	104.990	0.501
660.000	403.149	80.004	19.996	103.220	18.323	106.205	0.487
660.500	403.436	80.004	19.995	103.220	18.304	107.432	0.493
661.000	403.709	80.004	19.994	103.222	18.285	108.681	0.539
661.500	403.884	80.004	19.995	103.221	18.269	109.752	0.504
662.000	404.167	80.003	19.995	103.222	18.245	111.281	0.453
662.500	404.442	80.003	19.995	103.225	18.224	112.652	0.508
663.000	404.689	80.003	19.995	103.225	18.206	113.813	0.540
663.500	404.953	80.004	19.994	103.227	18.184	115.265	0.516
664.000	405.178	80.004	19.995	103.230	18.165	116.495	0.500
664.500	405.431	80.002	19.995	103.229	18.141	118.034	0.484
665.000	405.690	80.003	19.994	103.229	18.123	119.242	0.495
665.500	405.939	80.002	19.995	103.231	18.100	120.738	0.510
666.000	406.193	80.002	19.994	103.232	18.078	122.194	0.506
666.500	406.429	80.003	19.995	103.231	18.055	123.683	0.496
667.000	406.667	80.002	19.995	103.232	18.035	125.001	0.482
667.500	406.935	80.004	19.995	103.231	18.013	126.445	0.490
668.000	407.198	80.003	19.994	103.231	17.991	127.879	0.518
668.500	407.454	80.003	19.995	103.234	17.967	129.433	0.525
669.000	407.713	80.004	19.995	103.240	17.947	130.760	0.517
669.500	407.925	80.004	19.995	103.246	17.924	132.235	0.494
670.000	408.179	80.003	19.995	103.250	17.902	133.687	0.469
670.500	408.418	80.003	19.995	103.257	17.878	135.251	0.479
671.000	408.685	80.003	19.996	103.260	17.858	136.565	0.499
671.500	408.922	80.003	19.994	103.263	17.833	138.203	0.505
672.000	409.180	80.004	19.994	103.265	17.808	139.800	0.499
672.500	409.416	80.004	19.995	103.268	17.786	141.266	0.494
673.000	409.682	80.004	19.995	103.265	17.762	142.776	0.498
673.500	409.918	80.004	19.995	103.261	17.738	144.383	0.502
674.000	410.174	80.005	19.994	103.261	17.713	145.958	0.497
674.500	410.408	80.004	19.994	103.260	17.688	147.639	0.491
675.000	410.696	80.005	19.994	103.261	17.658	149.552	0.506
675.500	410.927	80.004	19.994	103.266	17.639	150.823	0.521
676.000	411.193	80.005	19.995	103.272	17.612	152.576	0.508
676.500	411.426	80.004	19.995	103.280	17.584	154.382	0.498
677.000	411.721	80.003	19.994	103.288	17.558	156.062	0.513
677.500	411.965	80.004	19.994	103.296	17.531	157.826	0.534
678.000	412.228	80.003	19.995	103.303	17.505	159.551	0.523
678.500	412.480	80.004	19.995	103.307	17.475	161.485	0.511
679.000	412.691	80.004	19.995	103.307	17.444	163.522	0.489
679.500	412.943	80.003	19.995	103.307	17.416	165.361	0.463
680.000	413.161	80.002	19.995	103.312	17.388	167.190	0.466
680.500	413.449	80.004	19.995	103.316	17.357	169.263	0.488
681.000	413.700	80.004	19.996	103.319	17.327	171.207	0.523
681.500	413.952	80.003	19.996	103.322	17.294	173.366	0.521
682.000	414.163	80.004	19.994	103.328	17.267	175.143	0.483
682.500	414.435	80.004	19.995	103.327	17.235	177.226	0.472
683.000	414.663	80.002	19.995	103.324	17.203	179.261	0.491
683.500	414.948	80.003	19.995	103.321	17.175	181.089	0.507
684.000	415.193	80.004	19.995	103.319	17.146	183.022	0.522
684.500	415.471	80.001	19.995	103.315	17.111	185.272	0.526
685.000	415.673	80.003	19.995	103.313	17.079	187.336	0.502
685.500	415.906	80.002	19.995	103.319	17.052	189.103	0.457
686.000	416.186	80.003	19.995	103.321	17.023	190.999	0.474
686.500	416.457	80.002	19.995	103.321	16.994	192.921	0.532
687.000	416.715	80.001	19.995	103.319	16.963	194.937	0.540
687.500	416.952	80.001	19.995	103.318	16.933	196.878	0.512
688.000	417.212	80.002	19.996	103.317	16.898	199.178	0.496
688.500	417.453	80.003	19.995	103.321	16.868	201.118	0.499
689.000	417.714	80.001	19.995	103.328	16.837	203.100	0.501
689.500	417.951	80.002	19.995	103.333	16.805	205.180	0.500
690.000	418.226	80.002	19.995	103.340	16.774	207.226	0.506
690.500	418.470	80.003	19.995	103.343	16.741	209.404	0.516
691.000	418.694	80.002	19.996	103.350	16.711	211.386	0.493
691.500	418.964	80.003	19.995	103.357	16.682	213.234	0.481
692.000	419.206	80.003	19.996	103.363	16.648	215.442	0.503
692.500	419.518	80.003	19.997	103.370	16.614	217.668	0.533
693.000	419.735	80.003	19.996	103.376	16.587	219.433	0.542
693.500	419.987	80.004	19.995	103.375	16.556	221.496	0.499
694.000	420.251	80.003	19.996	103.370	16.522	223.689	0.493
694.500	420.487	80.004	19.996	103.369	16.495	225.449	0.508
695.000	420.773	80.004	19.995	103.367	16.463	227.552	0.511
695.500	420.985	80.003	19.996	103.364	16.433	229.515	0.510
696.000	421.242	80.005	19.996	103.361	16.402	231.537	0.483
696.500	421.538	80.004	19.995	103.362	16.371	233.523	0.511
697.000	421.703	80.004	19.994	103.364	16.341	235.513	0.507
697.500	421.985	80.005	19.996	103.365	16.310	237.514	0.454
698.000	422.252	80.003	19.995	103.365	16.280	239.478	0.498
698.500	422.479	80.004	19.996	103.367	16.252	241.321	0.522
699.000	422.730	80.004	19.995	103.367	16.221	243.303	0.486
699.500	422.962	80.005	19.995	103.364	16.193	245.165	0.481
700.000	423.285	80.005	19.995	103.361	16.165	247.014	0.519
700.500	423.512	80.005	19.996	103.362	16.137	248.795	0.552
701.000	423.726	80.006	19.995	103.370	16.111	250.533	0.495
701.500	423.994	80.005	19.995	103.378	16.079	252.559	0.461
702.000	424.252	80.006	19.995	103.380	16.052	254.341	0.504
702.500	424.533	80.005	19.996	103.377	16.026	256.017	0.532
703.000	424.756	80.006	19.995	103.380	16.001	257.652	0.521
703.500	425.056	80.005	19.996	103.382	15.973	259.513	0.513
704.000	425.251	80.006	19.994	103.378	15.950	260.979	0.509
704.500	425.531	80.006	19.995	103.380	15.923	262.736	0.485
705.000	425.828	80.005	19.995	103.397	15.898	264.345	0.526
705.500	426.043	80.006	19.994	103.397	15.869	266.257	0.545
706.000	426.331	80.005	19.995	103.385	15.847	267.725	0.507
706.500	426.596	80.006	19.994	103.396	15.824	269.191	0.528
707.000	426.830	80.007	19.994	103.391	15.800	270.744	0.526
707.500	427.062	80.007	19.994	103.382	15.778	272.164	0.483
708.000	427.315	80.006	19.994	103.382	15.755	273.658	0.475
708.500	427.562	80.005	19.994	103.388	15.733	275.146	0.493
709.000	427.797	80.005	19.994	103.387	15.713	276.447	0.491
709.500	428.043	80.006	19.994	103.390	15.695	277.609	0.482
710.000	428.307	80.006	19.994	103.395	15.674	278.998	0.495
710.500	428.563	80.006	19.994	103.395	15.652	280.435	0.514
711.000	428.820	80.006	19.995	103.397	15.636	281.475	0.516
711.500	429.067	80.005	19.995	103.392	15.618	282.638	0.509
712.000	429.341	80.005	19.994	103.396	15.601	283.790	0.513
712.500	429.577	80.006	19.995	103.396	15.583	284.929	0.515
713.000	429.834	80.003	19.994	103.389	15.570	285.727	0.502
713.500	430.069	80.004	19.994	103.397	15.553	286.853	0.493
714.000	430.338	80.005	19.994	103.395	15.539	287.783	0.498
714.500	430.622	80.006	19.994	103.393	15.524	288.766	0.528
715.000	430.852	80.005	19.994	103.395	15.513	289.492	0.533
715.500	431.117	80.004	19.995	103.398	15.499	290.433	0.504
716.000	431.400	80.005	19.994	103.389	15.485	291.307	0.521
716.500	431.640	80.006	19.995	103.394	15.477	291.796	0.536
717.000	431.897	80.006	19.994	103.391	15.468	292.411	0.510
717.500	432.135	80.006	19.994	103.382	15.457	293.143	0.496
718.000	432.385	80.006	19.995	103.394	15.451	293.453	0.492
718.500	432.657	80.005	19.995	103.390	15.440	294.197	0.505
719.000	432.907	80.006	19.994	103.380	15.434	294.627	0.522
719.500	433.128	80.005	19.995	103.393	15.428	294.932	0.496
720.000	433.405	80.006	19.995	103.399	15.417	295.675	0.484
720.500	433.671	80.005	19.994	103.390	15.413	295.944	0.521
721.000	433.946	80.006	19.994	103.398	15.407	296.362	0.543
721.500	434.201	80.006	19.994	103.410	15.407	296.349	0.536
722.000	434.464	80.005	19.995	103.404	15.404	296.565	0.524
722.500	434.698	80.007	19.995	103.397	15.400	296.815	0.507
723.000	434.978	80.006	19.994	103.406	15.400	296.807	0.506
723.500	435.234	80.005	19.995	103.402	15.398	296.891	0.525
724.000	435.509	80.008	19.994	103.387	15.397	296.929	0.533
724.500	435.754	80.006	19.994	103.391	15.399	296.807	0.525
725.000	436.016	80.007	19.995	103.402	15.401	296.644	0.514
725.500	436.235	80.006	19.994	103.394	15.407	296.286	0.494
726.000	436.470	80.007	19.994	103.391	15.408	296.213	0.467
726.500	436.735	80.005	19.994	103.404	15.413	295.931	0.477
727.000	437.037	80.006	19.995	103.400	15.422	295.354	0.533
727.500	437.276	80.007	19.995	103.385	15.425	295.131	0.554
728.000	437.522	80.007	19.995	103.397	15.433	294.622	0.513
728.500	437.771	80.006	19.994	103.399	15.439	294.251	0.490
729.000	438.027	80.006	19.994	103.383	15.446	293.767	0.500
729.500	438.275	80.008	19.994	103.386	15.455	293.204	0.504
730.000	438.533	80.006	19.994	103.389	15.466	292.438	0.505
730.500	438.824	80.006	19.994	103.375	15.473	292.028	0.528
731.000	439.064	80.004	19.994	103.382	15.486	291.191	0.540
731.500	439.337	80.006	19.995	103.386	15.497	290.458	0.522
732.000	439.610	80.005	19.994	103.385	15.510	289.617	0.530
732.500	439.836	80.005	19.994	103.390	15.524	288.707	0.522
733.000	440.081	80.004	19.994	103.387	15.536	287.951	0.485
733.500	440.379	80.005	19.994	103.384	15.553	286.833	0.507
734.000	440.598	80.005	19.993	103.380	15.567	285.906	0.530
734.500	440.859	80.004	19.994	103.379	15.582	285.004	0.499
735.000	441.110	80.003	19.994	103.365	15.599	283.853	0.496
735.500	441.411	80.004	19.994	103.373	15.614	282.894	0.532
736.000	441.620	80.004	19.994	103.356	15.628	281.956	0.530
736.500	441.917	80.003	19.995	103.368	15.648	280.652	0.508
737.000	442.120	80.003	19.994	103.354	15.671	279.157	0.503
737.500	442.413	80.003	19.994	103.372	15.690	277.888	0.498
738.000	442.657	80.004	19.994	103.368	15.706	276.798	0.516
738.500	442.901	80.003	19.994	103.377	15.727	275.460	0.512
739.000	443.208	80.004	19.993	103.373	15.747	274.100	0.520
739.500	443.443	80.003	19.994	103.373	15.767	272.829	0.547
740.000	443.717	80.003	19.995	103.369	15.789	271.367	0.526
740.500	443.958	80.003	19.994	103.371	15.807	270.166	0.512
741.000	444.225	80.005	19.994	103.365	15.828	268.760	0.512
741.500	444.529	80.004	19.994	103.370	15.843	267.757	0.539
742.000	444.741	80.003	19.994	103.380	15.865	266.353	0.543
742.500	445.006	80.004	19.993	103.371	15.883	265.163	0.497
743.000	445.266	80.005	19.995	103.370	15.900	263.997	0.501
743.500	445.490	80.003	19.994	103.382	15.917	262.883	0.504
744.000	445.749	80.004	19.994	103.377	15.938	261.487	0.483
744.500	446.008	80.003	19.995	103.377	15.950	260.694	0.500
745.000	446.267	80.005	19.994	103.390	15.964	259.786	0.518
745.500	446.521	80.004	19.993	103.400	15.976	258.973	0.516
746.000	446.778	80.004	19.994	103.394	15.990	258.011	0.512
746.500	447.045	80.004	19.994	103.392	16.001	257.285	0.517
747.000	447.290	80.003	19.994	103.395	16.017	256.180	0.518
747.500	447.542	80.005	19.995	103.391	16.029	255.380	0.504
748.000	447.809	80.003	19.995	103.378	16.042	254.479	0.508
748.500	448.063	80.004	19.994	103.369	16.056	253.606	0.520
749.000	448.324	80.003	19.993	103.367	16.068	252.787	0.518
749.500	448.553	80.003	19.994	103.362	16.083	251.857	0.502
750.000	448.813	80.002	19.996	103.359	16.097	250.959	0.490
750.500	449.094	80.005	19.993	103.355	16.113	249.910	0.515
751.000	449.346	80.002	19.995	103.352	16.131	248.803	0.537
751.500	449.598	80.003	19.994	103.344	16.148	247.680	0.519
752.000	449.892	80.003	19.994	103.334	16.167	246.516	0.525
752.500	450.142	80.002	19.994	103.325	16.188	245.138	0.545
753.000	450.384	80.003	19.994	103.318	16.211	243.696	0.518
753.500	450.657	80.002	19.994	103.310	16.235	242.131	0.503
754.000	450.868	80.003	19.994	103.299	16.259	240.551	0.499
754.500	451.163	80.001	19.994	103.288	16.289	238.627	0.495
755.000	451.422	80.003	19.994	103.276	16.317	236.805	0.530
755.500	451.713	80.003	19.994	103.269	16.349	234.721	0.552
756.000	451.970	80.003	19.995	103.265	16.385	232.427	0.549
756.500	452.245	80.003	19.994	103.259	16.423	229.937	0.540
757.000	452.493	80.004	19.994	103.249	16.463	227.317	0.528
757.500	452.779	80.003	19.995	103.235	16.501	224.829	0.529
758.000	453.057	80.004	19.995	103.220	16.546	221.928	0.549
758.500	453.328	80.004	19.995	103.206	16.588	219.146	0.557
759.000	453.587	80.004	19.995	103.198	16.634	216.130	0.539
759.500	453.846	80.004	19.996	103.193	16.674	213.535	0.524
760.000	454.116	80.003	19.995	103.192	16.717	210.685	0.523
760.500	454.413	80.003	19.995	103.196	16.759	207.929	0.548
761.000	454.641	80.002	19.995	103.204	16.802	205.081	0.546
761.500	454.907	80.002	19.994	103.212	16.846	202.241	0.510
762.000	455.195	80.003	19.996	103.222	16.888	199.546	0.524
762.500	455.464	80.004	19.995	103.236	16.926	197.045	0.555
763.000	455.693	80.003	19.996	103.246	16.967	194.367	0.527
763.500	455.999	80.003	19.995	103.254	17.008	191.718	0.517
764.000	456.273	80.004	19.995	103.260	17.043	189.446	0.558
764.500	456.481	80.003	19.995	103.265	17.081	186.948	0.531
765.000	456.782	80.004	19.995	103.266	17.116	184.670	0.496
765.500	457.059	80.004	19.996	103.271	17.153	182.205	0.544
766.000	457.294	80.004	19.996	103.279	17.190	179.788	0.545
766.500	457.588	80.003	19.995	103.285	17.226	177.463	0.520
767.000	457.863	80.005	19.995	103.291	17.259	175.275	0.549
767.500	458.086	80.003	19.995	103.298	17.288	173.416	0.533
768.000	458.361	80.003	19.995	103.298	17.323	171.145	0.498
768.500	458.648	80.003	19.995	103.292	17.353	169.210	0.530
769.000	458.932	80.003	19.995	103.286	17.386	167.057	0.567
769.500	459.153	80.003	19.996	103.276	17.413	165.293	0.538
770.000	459.431	80.003	19.994	103.263	17.439	163.592	0.502
770.500	459.682	80.004	19.995	103.250	17.472	161.483	0.513
771.000	459.944	80.003	19.995	103.236	17.498	159.741	0.521
771.500	460.220	80.003	19.995	103.221	17.531	157.620	0.526
772.000	460.493	80.003	19.995	103.216	17.554	156.098	0.544
772.500	460.722	80.004	19.995	103.214	17.579	154.485	0.525
773.000	461.000	80.003	19.996	103.214	17.606	152.674	0.504
773.500	461.252	80.005	19.995	103.219	17.633	150.938	0.518
774.000	461.507	80.004	19.996	103.226	17.658	149.329	0.519
774.500	461.815	80.002	19.996	103.226	17.683	147.688	0.535
775.000	462.049	80.003	19.996	103.223	17.709	146.012	0.553
775.500	462.326	80.004	19.995	103.212	17.736	144.271	0.527
776.000	462.577	80.003	19.995	103.197	17.756	142.926	0.519
776.500	462.855	80.005	19.995	103.181	17.785	141.048	0.529
777.000	463.095	80.004	19.995	103.168	17.810	139.436	0.524
777.500	463.372	80.005	19.995	103.163	17.835	137.812	0.518
778.000	463.615	80.004	19.995	103.166	17.860	136.223	0.518
778.500	463.854	80.002	19.995	103.174	17.885	134.579	0.500
779.000	464.136	80.004	19.995	103.182	17.911	132.899	0.502
779.500	464.384	80.004	19.996	103.187	17.932	131.535	0.526
780.000	464.634	80.003	19.995	103.188	17.958	129.827	0.514
780.500	464.932	80.004	19.996	103.187	17.983	128.175	0.523
781.000	465.166	80.004	19.995	103.182	18.002	126.948	0.540
781.500	465.388	80.004	19.995	103.174	18.026	125.419	0.494
782.000	465.679	80.005	19.996	103.166	18.049	123.920	0.485
782.500	465.938	80.004	19.996	103.158	18.073	122.324	0.531
783.000	466.187	80.006	19.996	103.150	18.099	120.624	0.529
783.500	466.440	80.004	19.995	103.147	18.121	119.163	0.505
784.000	466.687	80.005	19.996	103.146	18.144	117.717	0.501
784.500	466.954	80.004	19.995	103.146	18.167	116.188	0.507
785.000	467.197	80.005	19.996	103.146	18.188	114.819	0.512
785.500	467.473	80.006	19.995	103.146	18.211	113.309	0.515
786.000	467.749	80.005	19.996	103.147	18.234	111.812	0.536
786.500	467.985	80.004	19.995	103.148	18.254	110.532	0.532
787.000	468.225	80.006	19.996	103.150	18.274	109.268	0.494
787.500	468.523	80.005	19.996	103.151	18.296	107.807	0.507
788.000	468.788	80.005	19.996	103.152	18.318	106.383	0.550
788.500	469.022	80.004	19.996	103.152	18.339	105.000	0.530
789.000	469.285	80.004	19.996	103.150	18.362	103.519	0.498
789.500	469.573	80.005	19.997	103.148	18.385	102.024	0.525
790.000	469.798	80.004	19.996	103.145	18.406	100.680	0.532
790.500	470.082	80.004	19.995	103.143	18.427	99.293	0.511
791.000	470.318	80.004	19.997	103.142	18.444	98.199	0.515
791.500	470.577	80.005	19.996	103.140	18.467	96.666	0.508
792.000	470.854	80.004	19.996	103.140	18.487	95.371	0.515
792.500	471.111	80.004	19.996	103.140	18.509	93.995	0.535
793.000	471.365	80.003	19.996	103.136	18.523	93.042	0.523
793.500	471.621	80.005	19.996	103.132	18.544	91.717	0.511
794.000	471.889	80.004	19.996	103.129	18.566	90.257	0.517
794.500	472.138	80.004	19.995	103.121	18.586	88.948	0.520
795.000	472.391	80.004	19.996	103.114	18.602	87.931	0.509
795.500	472.629	80.004	19.995	103.111	18.619	86.794	0.497
796.000	472.868	80.005	19.995	103.110	18.641	85.391	0.484
796.500	473.141	80.004	19.996	103.110	18.656	84.402	0.494
797.000	473.415	80.003	19.996	103.113	18.675	83.187	0.530
797.500	473.708	80.004	19.995	103.114	18.693	82.004	0.558
798.000	473.958	80.004	19.994	103.115	18.710	80.908	0.555
798.500	474.217	80.004	19.995	103.115	18.724	79.967	0.525
799.000	474.495	80.005	19.995	103.116	18.741	78.905	0.522
799.500	474.725	80.005	19.995	103.117	18.762	77.518	0.522
800.000	474.995	80.005	19.995	103.116	18.775	76.675	0.504
800.500	475.262	80.005	19.994	103.116	18.793	75.518	0.519
801.000	475.530	80.005	19.994	103.116	18.807	74.584	0.536
801.500	475.787	80.005	19.994	103.114	18.822	73.576	0.530
802.000	476.024	80.004	19.994	103.115	18.838	72.536	0.509
802.500	476.268	80.004	19.995	103.115	18.852	71.671	0.487
803.000	476.552	80.005	19.993	103.116	18.869	70.580	0.505
803.500	476.802	80.005	19.995	103.114	18.887	69.402	0.531
804.000	477.058	80.005	19.995	103.113	18.899	68.627	0.520
804.500	477.309	80.005	19.994	103.110	18.915	67.552	0.506
805.000	477.554	80.007	19.995	103.106	18.930	66.615	0.501
805.500	477.802	80.006	19.994	103.104	18.944	65.695	0.495
806.000	478.084	80.007	19.994	103.106	18.955	64.992	0.511
806.500	478.351	80.006	19.994	103.106	18.970	63.983	0.539
807.000	478.592	80.006	19.994	103.106	18.986	62.932	0.528
807.500	478.864	80.006	19.995	103.108	18.998	62.176	0.510
808.000	479.107	80.006	19.995	103.109	19.012	61.305	0.514
808.500	479.362	80.005	19.994	103.109	19.023	60.555	0.506
809.000	479.600	80.008	19.994	103.107	19.032	59.957	0.496
809.500	479.874	80.007	19.994	103.106	19.045	59.103	0.503
810.000	480.129	80.007	19.994	103.107	19.062	58.022	0.521
810.500	480.387	80.006	19.994	103.105	19.077	57.048	0.521
811.000	480.619	80.007	19.994	103.100	19.089	56.260	0.501
811.500	480.876	80.006	19.994	103.096	19.102	55.439	0.489
812.000	481.176	80.007	19.994	103.092	19.112	54.794	0.523
812.500	481.427	80.006	19.994	103.088	19.124	53.993	0.554
813.000	481.678	80.006	19.994	103.090	19.139	53.007	0.526
813.500	481.926	80.006	19.993	103.094	19.149	52.352	0.501
814.000	482.199	80.006	19.995	103.096	19.161	51.611	0.510
814.500	482.420	80.006	19.994	103.098	19.170	50.994	0.507
815.000	482.669	80.005	19.994	103.097	19.183	50.143	0.481
815.500	482.907	80.004	19.994	103.097	19.197	49.242	0.478
816.000	483.177	80.004	19.993	103.098	19.205	48.757	0.498
816.500	483.394	80.003	19.993	103.102	19.216	48.037	0.498
817.000	483.677	80.005	19.994	103.105	19.229	47.148	0.494
817.500	483.931	80.005	19.994	103.111	19.240	46.447	0.518
818.000	484.210	80.004	19.994	103.112	19.252	45.646	0.535
818.500	484.437	80.005	19.995	103.115	19.262	45.047	0.520
819.000	484.701	80.005	19.995	103.117	19.275	44.161	0.499
819.500	484.913	80.002	19.994	103.117	19.280	43.854	0.484
820.000	485.174	80.003	19.995	103.117	19.291	43.112	0.475
820.500	485.450	80.003	19.994	103.114	19.300	42.517	0.505
821.000	485.710	80.003	19.995	103.106	19.310	41.904	0.536
821.500	485.942	80.003	19.995	103.099	19.325	40.933	0.514
822.000	486.189	80.003	19.995	103.098	19.332	40.458	0.485
822.500	486.460	80.003	19.995	103.098	19.343	39.734	0.498
823.000	486.727	80.004	19.994	103.100	19.355	38.964	0.528
823.500	486.944	80.003	19.995	103.106	19.366	38.286	0.511
824.000	487.197	80.003	19.995	103.111	19.376	37.634	0.478
824.500	487.463	80.004	19.994	103.111	19.384	37.089	0.495
825.000	487.748	80.003	19.994	103.111	19.396	36.303	0.535
825.500	487.969	80.004	19.995	103.110	19.405	35.719	0.528
826.000	488.209	80.003	19.994	103.105	19.416	34.993	0.483
826.500	488.500	80.004	19.995	103.103	19.424	34.492	0.496
827.000	488.764	80.004	19.995	103.105	19.436	33.736	0.543
827.500	489.020	80.005	19.994	103.104	19.446	33.063	0.538
828.000	489.279	80.004	19.995	103.105	19.455	32.487	0.518
828.500	489.541	80.005	19.994	103.110	19.467	31.679	0.518
829.000	489.812	80.002	19.995	103.111	19.475	31.151	0.527
829.500	490.059	80.004	19.994	103.105	19.484	30.616	0.525
830.000	490.285	80.002	19.995	103.099	19.494	29.958	0.496
830.500	490.532	80.004	19.995	103.092	19.505	29.228	0.473
831.000	490.802	80.004	19.995	103.091	19.513	28.680	0.495
831.500	491.084	80.004	19.995	103.084	19.522	28.134	0.535
832.000	491.306	80.004	19.994	103.080	19.534	27.354	0.528
832.500	491.555	80.004	19.994	103.083	19.542	26.819	0.487
833.000	491.838	80.004	19.995	103.088	19.552	26.153	0.501
833.500	492.069	80.004	19.995	103.090	19.563	25.444	0.523
834.000	492.319	80.005	19.994	103.097	19.566	25.257	0.498
834.500	492.565	80.005	19.994	103.100	19.578	24.495	0.489
835.000	492.832	80.005	19.995	103.095	19.587	23.891	0.504
835.500	493.108	80.005	19.995	103.090	19.596	23.320	0.528
836.000	493.362	80.006	19.995	103.083	19.604	22.805	0.537
836.500	493.596	80.005	19.994	103.077	19.613	22.219	0.509
837.000	493.880	80.005	19.994	103.074	19.622	21.599	0.503
837.500	494.144	80.004	19.994	103.074	19.630	21.124	0.533
838.000	494.378	80.004	19.994	103.077	19.638	20.590	0.523
838.500	494.673	80.004	19.995	103.083	19.644	20.187	0.513
839.000	494.928	80.004	19.994	103.084	19.657	19.376	0.540
839.500	495.179	80.005	19.994	103.086	19.661	19.099	0.528
840.000	495.443	80.005	19.995	103.087	19.671	18.470	0.510
840.500	495.674	80.005	19.995	103.082	19.679	17.943	0.505
841.000	495.941	80.004	19.995	103.082	19.684	17.578	0.496
841.500	496.193	80.006	19.995	103.087	19.691	17.112	0.509
842.000	496.441	80.004	19.994	103.089	19.697	16.762	0.510
842.500	496.712	80.006	19.994	103.094	19.705	16.228	0.509
843.000	496.958	80.005	19.995	103.094	19.709	15.985	0.518
843.500	497.185	80.005	19.994	103.091	19.714	15.628	0.495
844.000	497.471	80.005	19.994	103.091	19.722	15.135	0.493
844.500	497.735	80.004	19.995	103.092	19.728	14.726	0.531
845.000	497.977	80.004	19.995	103.090	19.737	14.156	0.528
845.500	498.222	80.004	19.995	103.088	19.741	13.880	0.497
846.000	498.492	80.004	19.994	103.084	19.749	13.371	0.501
846.500	498.762	80.004	19.995	103.081	19.756	12.915	0.527
847.000	499.008	80.005	19.994	103.086	19.760	12.631	0.528
847.500	499.258	80.004	19.995	103.086	19.766	12.252	0.506
848.000	499.509	80.004	19.995	103.087	19.769	12.074	0.499
848.500	499.785	80.004	19.995	103.088	19.774	11.736	0.514
849.000	500.032	80.004	19.996	103.085	19.780	11.360	0.525
849.500	500.283	80.003	19.995	103.078	19.786	10.990	0.511
850.000	500.580	80.004	19.996	103.078	19.792	10.585	0.523
850.500	500.776	80.002	19.995	103.083	19.795	10.361	0.521
851.000	501.048	80.003	19.996	103.088	19.800	10.061	0.481
851.500	501.295	80.004	19.996	103.094	19.804	9.772	0.494
852.000	501.551	80.004	19.995	103.098	19.811	9.341	0.511
852.500	501.804	80.004	19.996	103.102	19.815	9.069	0.506
853.000	502.099	80.005	19.995	103.098	19.817	8.943	0.528
853.500	502.339	80.003	19.996	103.098	19.822	8.608	0.541
854.000	502.608	80.003	19.995	103.098	19.827	8.279	0.522
854.500	502.837	80.005	19.996	103.096	19.830	8.087	0.504
855.000	503.082	80.002	19.996	103.096	19.836	7.735	0.486
855.500	503.338	80.001	19.995	103.100	19.840	7.457	0.487
856.000	503.599	80.003	19.995	103.102	19.841	7.362	0.510
856.500	503.867	80.003	19.996	103.104	19.848	6.947	0.523
857.000	504.088	80.004	19.995	103.100	19.848	6.945	0.508
857.500	504.307	80.003	19.996	103.098	19.854	6.571	0.464
858.000	504.602	80.003	19.995	103.096	19.855	6.510	0.477
858.500	504.841	80.005	19.996	103.092	19.857	6.325	0.524
859.000	505.097	80.003	19.997	103.088	19.859	6.218	0.514
859.500	505.378	80.004	19.996	103.089	19.861	6.091	0.516
860.000	505.602	80.003	19.996	103.089	19.864	5.896	0.521
860.500	505.910	80.005	19.996	103.088	19.869	5.585	0.519
861.000	506.153	80.003	19.996	103.085	19.869	5.548	0.542
861.500	506.386	80.003	19.995	103.081	19.870	5.514	0.513
862.000	506.658	80.005	19.996	103.081	19.872	5.394	0.490
862.500	506.904	80.005	19.996	103.084	19.873	5.308	0.511
863.000	507.150	80.004	19.996	103.085	19.875	5.206	0.505
863.500	507.426	80.005	19.995	103.089	19.877	5.060	0.507
864.000	507.645	80.006	19.996	103.093	19.878	4.971	0.508
864.500	507.881	80.005	19.995	103.093	19.879	4.930	0.475
865.000	508.138	80.005	19.996	103.092	19.883	4.697	0.474
865.500	508.421	80.006	19.995	103.092	19.878	4.964	0.516
866.000	508.655	80.006	19.996	103.093	19.882	4.744	0.528
866.500	508.943	80.006	19.995	103.091	19.887	4.393	0.520
867.000	509.175	80.005	19.995	103.089	19.886	4.491	0.521
867.500	509.427	80.006	19.996	103.086	19.888	4.326	0.502
868.000	509.682	80.005	19.995	103.084	19.892	4.057	0.495
868.500	509.981	80.006	19.994	103.080	19.892	4.094	0.530
869.000	510.176	80.006	19.995	103.079	19.893	4.014	0.524
869.500	510.469	80.006	19.994	103.081	19.893	4.016	0.491
870.000	510.709	80.006	19.994	103.079	19.896	3.790	0.510
870.500	510.961	80.005	19.994	103.080	19.896	3.827	0.513
871.000	511.211	80.005	19.994	103.087	19.897	3.723	0.497
871.500	511.448	80.004	19.995	103.087	19.898	3.686	0.494
872.000	511.727	80.004	19.995	103.085	19.899	3.644	0.501
872.500	511.976	80.005	19.995	103.085	19.899	3.605	0.522
873.000	512.237	80.005	19.996	103.081	19.900	3.556	0.519
873.500	512.459	80.005	19.996	103.074	19.900	3.533	0.496
874.000	512.741	80.005	19.994	103.077	19.901	3.503	0.493
874.500	513.013	80.004	19.995	103.081	19.902	3.417	0.529
875.000	513.214	80.005	19.995	103.086	19.906	3.169	0.513
875.500	513.488	80.004	19.994	103.091	19.905	3.239	0.474
876.000	513.767	80.004	19.994	103.097	19.904	3.269	0.514
876.500	514.045	80.004	19.995	103.099	19.903	3.394	0.555
877.000	514.295	80.006	19.994	103.103	19.902	3.461	0.543
877.500	514.566	80.005	19.995	103.105	19.908	3.046	0.525
878.000	514.826	80.004	19.995	103.108	19.904	3.299	0.526
878.500	515.079	80.005	19.994	103.107	19.906	3.144	0.522
879.000	515.328	80.005	19.995	103.107	19.904	3.315	0.507
879.500	515.581	80.004	19.994	103.108	19.909	3.000	0.502
880.000	515.817	80.006	19.995	103.106	19.906	3.146	0.495
880.500	516.105	80.004	19.995	103.101	19.905	3.255	0.506
881.000	516.362	80.004	19.996	103.098	19.911	2.831	0.535
881.500	516.632	80.004	19.995	103.091	19.908	3.063	0.536
882.000	516.894	80.005	19.995	103.084	19.907	3.074	0.530
882.500	517.202	80.004	19.995	103.079	19.903	3.361	0.551
883.000	517.393	80.004	19.996	103.076	19.908	3.072	0.535
883.500	517.658	80.005	19.996	103.074	19.912	2.763	0.478
884.000	517.918	80.004	19.996	103.074	19.911	2.847	0.490
884.500	518.191	80.004	19.995	103.073	19.909	3.007	0.529
885.000	518.442	80.002	19.996	103.073	19.910	2.892	0.528
885.500	518.748	80.005	19.995	103.073	19.912	2.797	0.540
886.000	518.937	80.005	19.996	103.077	19.909	3.005	0.526
886.500	519.217	80.005	19.996	103.078	19.913	2.722	0.482
887.000	519.470	80.005	19.995	103.082	19.913	2.727	0.501
887.500	519.727	80.005	19.995	103.084	19.912	2.775	0.521
888.000	520.000	80.004	19.995	103.088	19.915	2.599	0.520
888.500	520.249	80.005	19.996	103.086	19.915	2.599	0.526
889.000	520.517	80.007	19.995	103.086	19.915	2.583	0.519
889.500	520.781	80.005	19.995	103.085	19.909	2.999	0.524
890.000	521.054	80.005	19.996	103.088	19.914	2.636	0.534
890.500	521.279	80.005	19.995	103.086	19.920	2.268	0.517
891.000	521.522	80.006	19.994	103.084	19.920	2.289	0.483
891.500	521.739	80.007	19.994	103.083	19.919	2.323	0.465
892.000	522.037	80.006	19.996	103.081	19.912	2.789	0.488
892.500	522.270	80.007	19.995	103.077	19.913	2.729	0.523
893.000	522.538	80.006	19.995	103.080	19.912	2.790	0.516
893.500	522.721	80.005	19.995	103.087	19.915	2.613	0.476
894.000	523.046	80.007	19.995	103.089	19.913	2.729	0.479
894.500	523.362	80.007	19.995	103.089	19.917	2.474	0.574
895.000	523.675	80.007	19.995	103.085	19.914	2.627	0.635
895.500	523.880	80.005	19.994	103.081	19.916	2.519	0.574
896.000	524.130	80.006	19.994	103.077	19.914	2.637	0.487
896.500	524.391	80.008	19.994	103.078	19.916	2.542	0.483
897.000	524.628	80.008	19.994	103.076	19.916	2.534	0.504
897.500	524.876	80.006	19.994	103.079	19.914	2.655	0.492
898.000	525.136	80.007	19.994	103.085	19.918	2.421	0.497
898.500	525.393	80.007	19.994	103.089	19.916	2.523	0.512
899.000	525.641	80.006	19.994	103.094	19.916	2.490	0.511
899.500	525.875	80.005	19.994	103.100	19.918	2.400	0.493
900.000	526.139	80.005	19.995	103.106	19.920	2.291	0.490
900.500	526.381	80.006	19.993	103.106	19.917	2.468	0.502
901.000	526.658	80.005	19.994	103.105	19.916	2.493	0.512
901.500	526.939	80.006	19.994	103.104	19.916	2.493	0.538
902.000	527.208	80.005	19.995	103.101	19.918	2.368	0.555
902.500	527.462	80.005	19.994	103.095	19.918	2.419	0.537
903.000	527.737	80.004	19.994	103.090	19.916	2.502	0.526
903.500	528.007	80.004	19.993	103.084	19.914	2.657	0.537
904.000	528.219	80.004	19.993	103.078	19.917	2.453	0.513
904.500	528.465	80.004	19.994	103.074	19.918	2.395	0.469
905.000	528.718	80.003	19.995	103.073	19.916	2.525	0.478
905.500	528.980	80.003	19.995	103.070	19.916	2.553	0.508
906.000	529.314	80.004	19.995	103.072	19.916	2.514	0.556
906.500	529.522	80.004	19.994	103.071	19.916	2.512	0.569
907.000	529.758	80.003	19.994	103.074	19.920	2.256	0.493
907.500	530.014	80.004	19.996	103.076	19.917	2.475	0.468
908.000	530.300	80.004	19.994	103.081	19.920	2.285	0.517
908.500	530.504	80.004	19.995	103.080	19.920	2.245	0.516
909.000	530.743	80.004	19.994	103.082	19.920	2.291	0.467
909.500	531.047	80.005	19.995	103.079	19.919	2.351	0.493
910.000	531.284	80.004	19.995	103.076	19.918	2.368	0.542
910.500	531.586	80.004	19.994	103.072	19.919	2.329	0.540
911.000	531.814	80.003	19.995	103.073	19.916	2.512	0.535
911.500	532.056	80.003	19.995	103.080	19.919	2.333	0.500
912.000	532.276	80.004	19.995	103.082	19.920	2.278	0.466
912.500	532.551	80.003	19.995	103.083	19.921	2.226	0.478
913.000	532.829	80.005	19.994	103.083	19.917	2.451	0.524
913.500	533.077	80.003	19.995	103.080	19.918	2.359	0.540
914.000	533.324	80.004	19.994	103.074	19.922	2.159	0.511
914.500	533.558	80.003	19.995	103.073	19.920	2.229	0.488
915.000	533.828	80.004	19.995	103.077	19.919	2.356	0.492
915.500	534.099	80.004	19.995	103.081	19.921	2.208	0.522
916.000	534.366	80.003	19.995	103.081	19.916	2.489	0.539
916.500	534.597	80.004	19.995	103.081	19.920	2.254	0.518
917.000	534.848	80.004	19.995	103.081	19.922	2.102	0.490
917.500	535.131	80.005	19.995	103.079	19.918	2.418	0.508
918.000	535.369	80.005	19.994	103.077	19.919	2.324	0.528
918.500	535.604	80.004	19.995	103.078	19.919	2.311	0.497
919.000	535.882	80.003	19.995	103.079	19.920	2.244	0.493
919.500	536.115	80.004	19.995	103.083	19.922	2.120	0.512
920.000	536.405	80.005	19.994	103.083	19.921	2.187	0.517
920.500	536.638	80.005	19.995	103.082	19.920	2.233	0.523
921.000	536.898	80.004	19.995	103.080	19.923	2.083	0.508
921.500	537.170	80.004	19.995	103.078	19.918	2.398	0.512
922.000	537.441	80.004	19.995	103.075	19.922	2.103	0.537
922.500	537.685	80.005	19.996	103.074	19.918	2.360	0.529
923.000	537.923	80.005	19.994	103.075	19.918	2.386	0.499
923.500	538.171	80.005	19.995	103.074	19.920	2.252	0.484
924.000	538.469	80.004	19.995	103.075	19.920	2.272	0.516
924.500	538.684	80.003	19.994	103.073	19.922	2.103	0.529
925.000	538.943	80.004	19.994	103.072	19.922	2.143	0.493
925.500	539.175	80.006	19.995	103.071	19.921	2.173	0.483
926.000	539.489	80.004	19.995	103.072	19.920	2.266	0.518
926.500	539.715	80.005	19.995	103.072	19.919	2.354	0.543
927.000	539.973	80.003	19.995	103.072	19.920	2.244	0.512
927.500	540.253	80.005	19.994	103.073	19.921	2.175	0.511
928.000	540.492	80.005	19.994	103.078	19.921	2.217	0.528
928.500	540.719	80.005	19.994	103.084	19.919	2.342	0.492
929.000	540.965	80.003	19.994	103.092	19.922	2.141	0.470
929.500	541.218	80.004	19.994	103.097	19.920	2.261	0.486
930.000	541.442	80.004	19.994	103.096	19.918	2.419	0.487
930.500	541.671	80.003	19.994	103.094	19.920	2.248	0.465
931.000	541.983	80.005	19.994	103.092	19.922	2.152	0.497
931.500	542.230	80.003	19.995	103.090	19.918	2.394	0.550
932.000	542.475	80.004	19.994	103.089	19.919	2.351	0.526
932.500	542.722	80.004	19.993	103.090	19.918	2.360	0.493
933.000	543.014	80.005	19.994	103.093	19.921	2.224	0.516
933.500	543.268	80.004	19.995	103.095	19.920	2.251	0.542
934.000	543.503	80.005	19.994	103.096	19.924	1.971	0.517
934.500	543.759	80.005	19.994	103.098	19.920	2.229	0.490
935.000	544.041	80.004	19.995	103.099	19.919	2.307	0.515
935.500	544.246	80.003	19.994	103.101	19.922	2.127	0.513
936.000	544.515	80.005	19.994	103.102	19.921	2.192	0.481
936.500	544.771	80.003	19.994	103.097	19.920	2.286	0.500
937.000	545.020	80.002	19.994	103.094	19.919	2.339	0.515
937.500	545.248	80.003	19.995	103.091	19.918	2.376	0.491
938.000	545.503	80.005	19.995	103.091	19.919	2.295	0.480
938.500	545.745	80.003	19.994	103.092	19.916	2.497	0.490
939.000	546.002	80.004	19.994	103.097	19.918	2.379	0.498
939.500	546.281	80.003	19.994	103.094	19.920	2.250	0.517
940.000	546.507	80.005	19.995	103.093	19.920	2.231	0.520
940.500	546.812	80.003	19.995	103.085	19.920	2.289	0.518
941.000	547.070	80.002	19.994	103.079	19.918	2.403	0.547
941.500	547.293	80.003	19.994	103.074	19.918	2.393	0.522
942.000	547.576	80.003	19.993	103.074	19.917	2.433	0.494
942.500	547.798	80.003	19.995	103.075	19.921	2.194	0.506
943.000	548.083	80.002	19.994	103.080	19.919	2.298	0.506
943.500	548.288	80.003	19.995	103.088	19.921	2.226	0.498
944.000	548.557	80.004	19.994	103.094	19.919	2.323	0.482
944.500	548.834	80.004	19.994	103.094	19.918	2.410	0.510
945.000	549.067	80.003	19.995	103.093	19.919	2.345	0.529
945.500	549.313	80.004	19.994	103.088	19.921	2.189	0.495
946.000	549.611	80.005	19.994	103.081	19.918	2.396	0.511
946.500	549.822	80.003	19.994	103.080	19.918	2.389	0.526
947.000	550.099	80.003	19.995	103.084	19.918	2.400	0.499
947.500	550.355	80.004	19.995	103.091	19.921	2.215	0.510
948.000	550.590	80.003	19.995	103.098	19.918	2.365	0.512
948.500	550.879	80.004	19.995	103.098	19.919	2.318	0.508
949.000	551.130	80.003	19.994	103.094	19.917	2.444	0.533
949.500	551.370	80.005	19.995	103.090	19.921	2.201	0.515
950.000	551.629	80.004	19.995	103.083	19.918	2.381	0.495
950.500	551.880	80.004	19.995	103.076	19.921	2.198	0.505
951.000	552.139	80.005	19.995	103.075	19.919	2.356	0.510
951.500	552.349	80.005	19.994	103.075	19.921	2.180	0.490
952.000	552.608	80.005	19.994	103.076	19.919	2.335	0.469
952.500	552.875	80.004	19.995	103.081	19.919	2.317	0.497
953.000	553.122	80.004	19.995	103.084	19.919	2.352	0.520
953.500	553.417	80.004	19.995	103.086	19.919	2.294	0.528
954.000	553.686	80.005	19.995	103.090	19.921	2.226	0.553
954.500	553.951	80.003	19.994	103.089	19.920	2.268	0.549
955.000	554.154	80.004	19.995	103.083	19.921	2.227	0.501
955.500	554.433	80.005	19.995	103.080	19.920	2.273	0.475
956.000	554.694	80.004	19.995	103.080	19.919	2.326	0.511
956.500	554.992	80.005	19.995	103.078	19.920	2.292	0.549
957.000	555.221	80.006	19.995	103.078	19.920	2.269	0.543
957.500	555.505	80.004	19.995	103.080	19.920	2.273	0.520
958.000	555.761	80.005	19.995	103.083	19.923	2.083	0.526
958.500	555.994	80.005	19.995	103.087	19.923	2.065	0.514
959.000	556.236	80.004	19.995	103.091	19.927	1.789	0.482
959.500	556.493	80.005	19.996	103.096	19.924	2.008	0.487
960.000	556.766	80.004	19.995	103.097	19.922	2.138	0.514
960.500	557.002	80.003	19.995	103.098	19.921	2.168	0.519
961.000	557.273	80.005	19.995	103.096	19.922	2.124	0.508
961.500	557.537	80.004	19.995	103.092	19.923	2.048	0.521
962.000	557.784	80.005	19.994	103.085	19.925	1.943	0.523
962.500	558.002	80.005	19.995	103.082	19.923	2.078	0.488
963.000	558.277	80.004	19.994	103.077	19.927	1.813	0.479
963.500	558.531	80.005	19.995	103.074	19.924	2.026	0.511
964.000	558.807	80.004	19.995	103.073	19.925	1.915	0.529
964.500	559.081	80.004	19.995	103.075	19.927	1.823	0.540
965.000	559.343	80.004	19.995	103.077	19.926	1.876	0.543
965.500	559.582	80.005	19.994	103.080	19.925	1.948	0.519
966.000	559.838	80.004	19.994	103.080	19.924	2.006	0.498
966.500	560.084	80.005	19.995	103.079	19.926	1.886	0.499
967.000	560.334	80.004	19.995	103.076	19.924	1.992	0.499
967.500	560.599	80.005	19.995	103.073	19.923	2.059	0.506
968.000	560.858	80.005	19.996	103.069	19.922	2.110	0.519
968.500	561.088	80.003	19.995	103.068	19.926	1.842	0.506
969.000	561.347	80.005	19.996	103.071	19.925	1.957	0.489
969.500	561.607	80.005	19.995	103.075	19.923	2.043	0.504
970.000	561.887	80.005	19.995	103.084	19.924	1.969	0.530
970.500	562.120	80.005	19.995	103.086	19.926	1.846	0.526
971.000	562.367	80.005	19.995	103.087	19.927	1.795	0.497
971.500	562.633	80.006	19.995	103.087	19.924	1.999	0.497
972.000	562.879	80.005	19.995	103.087	19.924	1.983	0.513
972.500	563.153	80.006	19.995	103.084	19.926	1.901	0.516
973.000	563.419	80.005	19.995	103.090	19.925	1.966	0.530
973.500	563.702	80.006	19.995	103.096	19.925	1.923	0.545
974.000	563.913	80.006	19.995	103.099	19.925	1.962	0.521
974.500	564.190	80.006	19.995	103.101	19.923	2.073	0.491
975.000	564.418	80.006	19.995	103.100	19.926	1.849	0.497
975.500	564.686	80.006	19.995	103.093	19.926	1.847	0.500
976.000	564.932	80.007	19.995	103.086	19.925	1.947	0.505
976.500	565.200	80.005	19.995	103.082	19.926	1.893	0.514
977.000	565.453	80.004	19.995	103.082	19.926	1.897	0.518
977.500	565.701	80.005	19.995	103.079	19.924	2.002	0.511
978.000	565.976	80.007	19.997	103.084	19.926	1.863	0.512
978.500	566.226	80.006	19.996	103.091	19.922	2.117	0.524
979.000	566.471	80.006	19.995	103.094	19.925	1.930	0.510
979.500	566.729	80.006	19.995	103.095	19.924	1.974	0.499
980.000	567.025	80.006	19.996	103.097	19.920	2.237	0.529
980.500	567.286	80.005	19.996	103.097	19.925	1.930	0.555
981.000	567.512	80.005	19.996	103.095	19.923	2.050	0.522
981.500	567.786	80.005	19.996	103.098	19.925	1.930	0.494
982.000	568.045	80.005	19.996	103.099	19.924	2.029	0.517
982.500	568.260	80.006	19.996	103.097	19.923	2.039	0.503
983.000	568.547	80.005	19.995	103.097	19.923	2.036	0.488
983.500	568.770	80.005	19.997	103.098	19.927	1.816	0.506
984.000	569.060	80.005	19.996	103.096	19.927	1.791	0.511
984.500	569.310	80.004	19.996	103.092	19.924	2.003	0.526
985.000	569.586	80.004	19.995	103.089	19.927	1.830	0.533
985.500	569.797	80.005	19.996	103.082	19.923	2.036	0.506
986.000	570.086	80.005	19.996	103.076	19.925	1.943	0.493
986.500	570.349	80.005	19.996	103.071	19.924	1.983	0.526
987.000	570.636	80.004	19.996	103.069	19.924	2.020	0.551
987.500	570.812	80.004	19.996	103.074	19.925	1.958	0.507
988.000	571.080	80.003	19.996	103.079	19.925	1.937	0.454
988.500	571.356	80.003	19.995	103.083	19.924	2.032	0.494
989.000	571.610	80.003	19.995	103.086	19.924	1.976	0.536
989.500	571.868	80.005	19.995	103.094	19.923	2.062	0.521
990.000	572.123	80.004	19.996	103.096	19.924	2.030	0.513
990.500	572.403	80.004	19.996	103.098	19.923	2.071	0.524
991.000	572.622	80.004	19.996	103.103	19.927	1.830	0.517
991.500	572.911	80.005	19.995	103.101	19.924	2.024	0.503
992.000	573.154	80.004	19.995	103.094	19.922	2.147	0.519
992.500	573.415	80.004	19.996	103.087	19.925	1.927	0.518
993.000	573.678	80.003	19.995	103.080	19.923	2.038	0.514
993.500	573.945	80.003	19.995	103.079	19.923	2.069	0.528
994.000	574.205	80.004	19.995	103.086	19.923	2.087	0.529
994.500	574.455	80.004	19.995	103.091	19.926	1.893	0.518
995.000	574.718	80.004	19.995	103.096	19.928	1.763	0.512
995.500	575.033	80.004	19.994	103.103	19.924	1.997	0.546
996.000	575.269	80.003	19.995	103.104	19.923	2.092	0.564
996.500	575.520	80.003	19.994	103.100	19.927	1.816	0.519
997.000	575.765	80.004	19.994	103.096	19.925	1.936	0.492
997.500	576.051	80.004	19.994	103.095	19.925	1.946	0.513
998.000	576.305	80.004	19.995	103.095	19.928	1.758	0.536
998.500	576.560	80.005	19.994	103.093	19.925	1.909	0.525
999.000	576.812	80.004	19.995	103.090	19.924	1.999	0.508
999.500	577.021	80.004	19.996	103.091	19.926	1.840	0.484
1000.000	577.268	80.003	19.995	103.089	19.927	1.835	0.459
1000.500	577.528	80.005	19.994	103.084	19.925	1.920	0.482
1001.000	577.789	80.004	19.994	103.081	19.927	1.788	0.514
1001.500	578.065	80.003	19.995	103.084	19.925	1.941	0.529
1002.000	578.337	80.004	19.995	103.086	19.923	2.047	0.543
1002.500	578.578	80.004	19.995	103.090	19.927	1.825	0.530
1003.000	578.830	80.003	19.995	103.093	19.927	1.809	0.503
1003.500	579.068	80.004	19.995	103.097	19.928	1.755	0.491
1004.000	579.319	80.004	19.995	103.097	19.925	1.946	0.489
1004.500	579.639	80.004	19.995	103.095	19.927	1.816	0.530
1005.000	579.870	80.005	19.995	103.089	19.928	1.721	0.561
1005.500	580.129	80.004	19.994	103.086	19.925	1.937	0.520
1006.000	580.355	80.005	19.994	103.082	19.925	1.908	0.487
1006.500	580.634	80.003	19.994	103.080	19.927	1.790	0.495
1007.000	580.878	80.003	19.995	103.085	19.925	1.920	0.514
1007.500	581.117	80.004	19.994	103.092	19.923	2.091	0.503
1008.000	581.397	80.004	19.994	103.096	19.923	2.057	0.501
1008.500	581.645	80.003	19.994	103.101	19.925	1.961	0.523
1009.000	581.923	80.004	19.995	103.105	19.927	1.793	0.527
1009.500	582.216	80.004	19.995	103.099	19.924	1.984	0.548
1010.000	582.440	80.004	19.995	103.092	19.922	2.121	0.543
1010.500	582.685	80.004	19.995	103.087	19.921	2.175	0.493
1011.000	582.931	80.004	19.994	103.086	19.923	2.057	0.480
1011.500	583.184	80.004	19.995	103.088	19.925	1.908	0.495
1012.000	583.446	80.004	19.995	103.095	19.922	2.115	0.507
1012.500	583.690	80.003	19.995	103.100	19.922	2.135	0.510
1013.000	583.961	80.004	19.995	103.104	19.923	2.084	0.511
1013.500	584.208	80.003	19.995	103.103	19.924	2.004	0.517
1014.000	584.458	80.003	19.995	103.104	19.922	2.105	0.507
1014.500	584.701	80.005	19.995	103.102	19.924	2.027	0.495
1015.000	584.961	80.003	19.995	103.103	19.924	2.031	0.498
1015.500	585.217	80.003	19.994	103.107	19.925	1.950	0.510
1016.000	585.482	80.003	19.995	103.106	19.921	2.191	0.519
1016.500	585.728	80.003	19.994	103.099	19.922	2.142	0.516
1017.000	585.972	80.003	19.995	103.098	19.921	2.193	0.500
1017.500	586.228	80.004	19.994	103.098	19.919	2.328	0.495
1018.000	586.473	80.002	19.995	103.098	19.921	2.209	0.500
1018.500	586.757	80.003	19.995	103.102	19.922	2.117	0.515
1019.000	586.990	80.004	19.995	103.109	19.921	2.186	0.523
1019.500	587.250	80.003	19.995	103.111	19.920	2.288	0.505
1020.000	587.507	80.002	19.995	103.113	19.922	2.122	0.505
1020.500	587.759	80.004	19.994	103.112	19.924	2.022	0.513
1021.000	588.031	80.002	19.994	103.111	19.923	2.071	0.517
1021.500	588.251	80.004	19.995	103.110	19.923	2.094	0.508
1022.000	588.489	80.002	19.996	103.110	19.925	1.967	0.475
1022.500	588.768	80.003	19.995	103.110	19.922	2.103	0.487
1023.000	589.006	80.003	19.995	103.110	19.923	2.078	0.517
1023.500	589.250	80.004	19.997	103.109	19.922	2.112	0.500
1024.000	589.526	80.002	19.995	103.105	19.924	1.985	0.501
1024.501	589.762	80.003	19.995	103.102	19.928	1.765	0.516
1025.001	590.019	80.002	19.994	103.101	19.922	2.159	0.502
1025.500	590.250	80.004	19.995	103.101	19.924	2.030	0.490
1025.999	590.511	80.004	19.995	103.102	19.922	2.117	0.490
1026.500	590.764	80.004	19.995	103.107	19.924	1.999	0.503
1027.000	591.048	80.003	19.995	103.107	19.923	2.090	0.525
1027.499	591.298	80.003	19.995	103.108	19.926	1.863	0.536
1027.999	591.494	80.004	19.994	103.106	19.923	2.078	0.491
1028.499	591.771	80.003	19.994	103.107	19.926	1.876	0.460
1028.999	592.046	80.005	19.995	103.106	19.922	2.129	0.512
1029.499	592.269	80.006	19.995	103.106	19.924	2.001	0.524
1030.000	592.553	80.004	19.994	103.105	19.920	2.236	0.503
1030.500	592.774	80.004	19.995	103.104	19.923	2.078	0.507
1030.999	593.052	80.004	19.994	103.099	19.925	1.932	0.502
1031.499	593.271	80.004	19.994	103.093	19.922	2.146	0.497
1031.999	593.532	80.004	19.994	103.090	19.922	2.141	0.488
1032.499	593.821	80.005	19.994	103.091	19.924	2.025	0.515
1032.999	594.061	80.004	19.994	103.092	19.925	1.914	0.539
1033.499	594.355	80.005	19.994	103.096	19.922	2.129	0.531
1033.999	594.605	80.005	19.994	103.101	19.926	1.846	0.539
1034.499	594.847	80.006	19.994	103.100	19.924	2.013	0.518
1034.999	595.101	80.005	19.995	103.094	19.920	2.263	0.495
1035.499	595.354	80.005	19.995	103.087	19.923	2.096	0.502
1035.999	595.607	80.005	19.995	103.082	19.923	2.047	0.507
1036.499	595.872	80.006	19.994	103.081	19.923	2.087	0.512
1036.999	596.153	80.005	19.994	103.082	19.923	2.091	0.532
1037.499	596.395	80.005	19.993	103.084	19.923	2.098	0.534
1037.999	596.645	80.005	19.994	103.092	19.922	2.136	0.507
1038.499	596.868	80.005	19.994	103.093	19.924	2.011	0.482
1038.999	597.173	80.005	19.995	103.093	19.922	2.117	0.500
1039.499	597.403	80.006	19.994	103.096	19.922	2.108	0.532
1039.999	597.694	80.005	19.994	103.095	19.923	2.049	0.528
1040.499	597.923	80.006	19.994	103.088	19.921	2.202	0.520
1041.000	598.193	80.004	19.994	103.083	19.922	2.147	0.509
1041.500	598.398	80.006	19.995	103.078	19.925	1.966	0.487
1041.999	598.694	80.005	19.995	103.073	19.924	1.971	0.488
1042.500	598.919	80.005	19.995	103.074	19.924	1.974	0.512
1043.000	599.194	80.004	19.994	103.079	19.927	1.823	0.511
1043.499	599.443	80.004	19.995	103.084	19.925	1.932	0.512
1043.999	599.676	80.004	19.994	103.086	19.921	2.166	0.503
1044.499	599.946	80.004	19.995	103.088	19.925	1.922	0.492
1044.999	600.212	80.004	19.994	103.087	19.925	1.923	0.519
1045.499	600.473	80.005	19.994	103.089	19.923	2.090	0.532
1045.999	600.703	80.005	19.995	103.092	19.925	1.960	0.509
1046.499	600.953	80.004	19.995	103.098	19.919	2.305	0.485
1047.000	601.223	80.004	19.995	103.101	19.922	2.112	0.500
1047.500	601.488	80.005	19.995	103.105	19.920	2.242	0.527
1048.000	601.789	80.005	19.995	103.103	19.923	2.054	0.550
1048.500	601.998	80.004	19.994	103.100	19.924	2.026	0.538
1048.999	602.251	80.005	19.995	103.099	19.924	1.982	0.486
1049.499	602.510	80.004	19.995	103.101	19.922	2.142	0.487
1049.999	602.744	80.004	19.995	103.101	19.921	2.221	0.502
1050.499	602.997	80.004	19.996	103.104	19.924	2.029	0.490
1051.000	603.222	80.004	19.996	103.107	19.924	1.992	0.483
1051.500	603.473	80.004	19.995	103.107	19.923	2.077	0.477
1051.999	603.750	80.006	19.995	103.107	19.926	1.883	0.502
1052.499	604.009	80.005	19.995	103.102	19.924	2.029	0.532
1052.999	604.271	80.005	19.996	103.097	19.925	1.920	0.528
1053.499	604.529	80.005	19.995	103.095	19.925	1.936	0.521
1053.999	604.799	80.006	19.995	103.095	19.925	1.937	0.524
1054.499	605.043	80.006	19.994	103.094	19.926	1.892	0.521
1054.999	605.310	80.004	19.995	103.096	19.925	1.962	0.513
1055.499	605.552	80.006	19.994	103.094	19.926	1.848	0.510
1055.999	605.790	80.004	19.995	103.092	19.928	1.770	0.494
1056.499	606.050	80.005	19.994	103.088	19.923	2.034	0.489
1056.999	606.276	80.005	19.994	103.087	19.926	1.881	0.492
1057.499	606.565	80.006	19.995	103.091	19.927	1.804	0.500
1057.999	606.807	80.007	19.995	103.096	19.922	2.128	0.523
1058.499	607.069	80.006	19.994	103.100	19.924	2.010	0.518
1058.999	607.348	80.007	19.995	103.106	19.922	2.163	0.523
1059.499	607.580	80.007	19.995	103.106	19.922	2.134	0.526
1060.000	607.830	80.007	19.994	103.105	19.924	2.025	0.497
1060.500	608.074	80.006	19.994	103.104	19.923	2.069	0.488
1060.999	608.314	80.007	19.994	103.102	19.925	1.951	0.489
1061.499	608.571	80.007	19.994	103.100	19.925	1.916	0.491
1061.999	608.831	80.007	19.996	103.101	19.925	1.923	0.507
1062.499	609.076	80.007	19.995	103.104	19.926	1.851	0.511
1062.999	609.357	80.005	19.995	103.105	19.925	1.961	0.516
1063.499	609.547	80.006	19.994	103.107	19.924	2.006	0.498
1063.999	609.856	80.007	19.994	103.106	19.926	1.864	0.485
1064.499	610.124	80.006	19.995	103.105	19.923	2.034	0.538
1064.999	610.382	80.006	19.994	103.098	19.925	1.927	0.552
1065.499	610.624	80.005	19.994	103.096	19.927	1.835	0.513
1065.999	610.911	80.006	19.994	103.091	19.926	1.846	0.514
1066.499	611.177	80.005	19.994	103.089	19.928	1.763	0.541
1066.999	611.402	80.006	19.995	103.090	19.925	1.957	0.522
1067.499	611.673	80.004	19.995	103.093	19.926	1.863	0.493
1067.999	611.935	80.006	19.995	103.096	19.926	1.860	0.515
1068.499	612.202	80.004	19.994	103.101	19.926	1.879	0.531
1068.999	612.422	80.006	19.995	103.100	19.924	2.024	0.508
1069.499	612.655	80.004	19.995	103.093	19.921	2.198	0.470
1070.000	612.947	80.003	19.994	103.092	19.922	2.119	0.489
1070.500	613.192	80.004	19.995	103.088	19.921	2.166	0.531
1071.000	613.442	80.004	19.995	103.083	19.921	2.187	0.516
1071.500	613.698	80.004	19.995	103.084	19.925	1.962	0.500
1071.999	613.947	80.002	19.995	103.092	19.924	2.025	0.505
1072.499	614.219	80.004	19.995	103.096	19.922	2.133	0.513
1072.999	614.465	80.002	19.995	103.101	19.921	2.166	0.520
1073.499	614.663	80.004	19.996	103.106	19.919	2.337	0.481
1073.999	614.960	80.003	19.995	103.106	19.918	2.361	0.469
1074.499	615.249	80.002	19.995	103.105	19.921	2.175	0.541
1075.000	615.482	80.002	19.995	103.102	19.922	2.122	0.554
1075.500	615.744	80.002	19.995	103.098	19.923	2.054	0.509
1075.999	616.012	80.003	19.996	103.095	19.920	2.268	0.512
1076.499	616.256	80.003	19.995	103.095	19.920	2.246	0.521
1076.999	616.516	80.003	19.996	103.089	19.922	2.147	0.508
1077.499	616.751	80.003	19.995	103.085	19.918	2.365	0.500
1077.999	617.041	80.001	19.996	103.085	19.922	2.107	0.510
1078.499	617.264	80.002	19.996	103.091	19.920	2.263	0.519
1078.999	617.528	80.003	19.996	103.091	19.921	2.196	0.500
1079.499	617.785	80.001	19.996	103.094	19.922	2.135	0.504
1080.000	618.044	80.004	19.995	103.095	19.921	2.175	0.518
1080.501	618.299	80.004	19.996	103.097	19.919	2.314	0.515
1081.000	618.541	80.003	19.995	103.094	19.917	2.462	0.506
1081.500	618.808	80.002	19.996	103.091	19.919	2.333	0.503
1082.001	619.054	80.003	19.996	103.094	19.918	2.393	0.511
1082.501	619.293	80.003	19.996	103.099	19.919	2.335	0.498
1083.000	619.491	80.003	19.995	103.095	19.918	2.370	0.461
1083.499	619.742	80.003	19.995	103.089	19.918	2.372	0.443
1083.999	619.969	80.004	19.995	103.089	19.918	2.400	0.464
1084.499	620.275	80.003	19.995	103.087	19.918	2.362	0.506
1084.999	620.514	80.003	19.995	103.084	19.917	2.474	0.539
1085.499	620.789	80.003	19.995	103.089	19.917	2.444	0.530
1085.999	621.021	80.004	19.995	103.097	19.919	2.318	0.511
1086.499	621.231	80.003	19.995	103.102	19.920	2.240	0.474
1086.999	621.452	80.002	19.994	103.105	19.921	2.198	0.436
1087.499	621.748	80.003	19.995	103.109	19.921	2.222	0.474
1087.999	622.002	80.004	19.995	103.105	19.918	2.412	0.533
1088.499	622.231	80.003	19.995	103.104	19.923	2.092	0.516
1088.999	622.486	80.004	19.995	103.104	19.922	2.110	0.483
1089.499	622.753	80.005	19.995	103.105	19.919	2.316	0.503
1089.999	622.998	80.005	19.994	103.106	19.921	2.184	0.517
1090.499	623.274	80.004	19.994	103.111	19.919	2.354	0.517
1090.999	623.518	80.005	19.994	103.110	19.915	2.582	0.520
1091.499	623.713	80.003	19.995	103.103	19.921	2.177	0.479
1091.999	623.992	80.004	19.994	103.098	19.920	2.279	0.457
1092.499	624.269	80.004	19.994	103.093	19.917	2.437	0.515
1092.999	624.476	80.004	19.995	103.093	19.920	2.247	0.520
1093.499	624.717	80.004	19.995	103.095	19.917	2.456	0.466
1093.999	624.975	80.004	19.994	103.097	19.920	2.277	0.473
1094.499	625.221	80.005	19.995	103.100	19.915	2.573	0.501
1094.999	625.494	80.004	19.994	103.103	19.916	2.548	0.512
1095.499	625.739	80.004	19.995	103.100	19.913	2.729	0.519
1096.000	625.958	80.004	19.995	103.100	19.919	2.351	0.491
1096.500	626.249	80.004	19.994	103.102	19.919	2.339	0.487
1096.999	626.455	80.004	19.994	103.104	19.918	2.412	0.503
1097.499	626.704	80.004	19.995	103.103	19.918	2.384	0.476
1097.999	626.997	80.004	19.995	103.101	19.920	2.293	0.499
1098.500	627.239	80.006	19.995	103.095	19.919	2.342	0.539
1099.000	627.487	80.003	19.995	103.090	19.919	2.353	0.513
1099.499	627.736	80.005	19.994	103.084	19.918	2.400	0.494
1099.999	627.986	80.004	19.995	103.079	19.919	2.316	0.498
1100.499	628.239	80.003	19.995	103.084	19.919	2.321	0.501
1100.999	628.513	80.004	19.996	103.090	19.916	2.492	0.515
1101.499	628.771	80.003	19.996	103.097	19.920	2.254	0.529
1101.999	628.999	80.003	19.994	103.102	19.920	2.284	0.509
1102.499	629.258	80.004	19.994	103.104	19.917	2.432	0.487
1102.999	629.537	80.004	19.995	103.096	19.919	2.312	0.512
1103.499	629.742	80.003	19.995	103.089	19.918	2.372	0.511
1103.999	630.000	80.003	19.994	103.088	19.921	2.197	0.473
1104.499	630.316	80.002	19.995	103.089	19.921	2.181	0.519
1105.000	630.511	80.004	19.995	103.094	19.920	2.259	0.543
1105.500	630.776	80.003	19.994	103.102	19.921	2.194	0.485
1105.999	631.020	80.003	19.994	103.104	19.920	2.259	0.484
1106.499	631.281	80.004	19.995	103.098	19.921	2.212	0.507
1106.999	631.526	80.003	19.995	103.094	19.922	2.152	0.506
1107.499	631.771	80.001	19.995	103.091	19.917	2.425	0.498
1107.999	632.032	80.004	19.995	103.087	19.918	2.360	0.498
1108.499	632.237	80.004	19.995	103.093	19.922	2.112	0.486
1108.999	632.510	80.004	19.996	103.098	19.921	2.186	0.472
1109.499	632.761	80.004	19.995	103.102	19.920	2.288	0.501
1109.999	633.041	80.005	19.996	103.104	19.922	2.158	0.528
1110.500	633.278	80.003	19.995	103.107	19.921	2.179	0.524
1111.000	633.543	80.003	19.996	103.106	19.919	2.325	0.509
1111.499	633.814	80.005	19.995	103.102	19.920	2.275	0.519
1111.999	634.039	80.004	19.994	103.098	19.921	2.198	0.516
1112.500	634.347	80.005	19.995	103.092	19.920	2.264	0.514
1113.000	634.573	80.006	19.995	103.086	19.921	2.196	0.533
1113.499	634.859	80.004	19.995	103.079	19.919	2.351	0.523
1113.999	635.092	80.005	19.996	103.076	19.919	2.354	0.516
1114.499	635.340	80.005	19.994	103.073	19.920	2.282	0.500
1114.999	635.633	80.005	19.995	103.071	19.922	2.145	0.511
1115.499	635.869	80.006	19.994	103.071	19.923	2.078	0.536
1115.999	636.096	80.006	19.995	103.071	19.921	2.206	0.496
1116.500	636.381	80.006	19.994	103.072	19.920	2.273	0.487
1117.000	636.636	80.005	19.995	103.073	19.920	2.244	0.526
1117.500	636.861	80.008	19.995	103.076	19.922	2.110	0.510
1118.000	637.169	80.006	19.994	103.079	19.922	2.103	0.506
1118.499	637.383	80.006	19.994	103.086	19.920	2.245	0.527
1118.999	637.645	80.007	19.994	103.092	19.922	2.120	0.499
1119.499	637.868	80.005	19.996	103.096	19.921	2.228	0.481
1119.999	638.161	80.006	19.994	103.100	19.923	2.054	0.500
1120.500	638.404	80.006	19.994	103.103	19.920	2.263	0.526
1121.000	638.657	80.006	19.996	103.103	19.920	2.235	0.516
1121.500	638.863	80.007	19.996	103.098	19.921	2.220	0.477
1122.000	639.129	80.006	19.994	103.093	19.923	2.083	0.465
1122.500	639.378	80.007	19.995	103.088	19.922	2.106	0.494
1123.000	639.621	80.006	19.994	103.087	19.923	2.059	0.504
1123.499	639.895	80.006	19.995	103.085	19.924	2.017	0.505
1123.999	640.180	80.006	19.995	103.084	19.924	1.994	0.538
1124.500	640.394	80.006	19.995	103.087	19.924	2.013	0.529
1125.000	640.681	80.007	19.995	103.085	19.926	1.856	0.500
1125.500	640.892	80.006	19.994	103.081	19.925	1.904	0.499
1126.001	641.174	80.007	19.994	103.077	19.923	2.069	0.495
1126.500	641.416	80.007	19.995	103.080	19.926	1.897	0.508
1126.999	641.665	80.006	19.995	103.083	19.925	1.905	0.507
1127.499	641.892	80.006	19.995	103.089	19.926	1.870	0.484
1127.999	642.171	80.007	19.994	103.091	19.924	2.025	0.492
1128.499	642.407	80.005	19.994	103.092	19.923	2.089	0.511
1128.999	642.680	80.006	19.995	103.088	19.925	1.932	0.512
1129.499	642.938	80.004	19.994	103.089	19.923	2.049	0.520
1129.999	643.194	80.006	19.994	103.092	19.924	1.989	0.522
1130.499	643.435	80.006	19.993	103.094	19.922	2.163	0.505
1130.999	643.667	80.005	19.995	103.093	19.924	1.969	0.485
1131.499	643.920	80.004	19.996	103.093	19.923	2.047	0.479
1131.999	644.184	80.005	19.995	103.088	19.924	2.010	0.501
1132.500	644.402	80.003	19.994	103.082	19.922	2.163	0.500
1133.000	644.664	80.004	19.994	103.083	19.921	2.207	0.481
1133.499	644.911	80.004	19.995	103.092	19.924	2.020	0.494
1133.999	645.189	80.005	19.994	103.098	19.924	2.027	0.517
1134.499	645.416	80.003	19.995	103.099	19.925	1.957	0.516
1134.999	645.669	80.004	19.994	103.099	19.923	2.062	0.493
1135.499	645.961	80.005	19.994	103.096	19.925	1.962	0.512
1135.999	646.244	80.004	19.995	103.089	19.922	2.141	0.560
1136.499	646.494	80.006	19.995	103.083	19.923	2.048	0.554
1136.999	646.755	80.006	19.994	103.081	19.923	2.068	0.522
1137.499	647.001	80.006	19.995	103.079	19.922	2.129	0.509
1137.999	647.257	80.006	19.994	103.080	19.922	2.129	0.505
1138.499	647.499	80.005	19.995	103.084	19.923	2.056	0.500
1138.999	647.779	80.005	19.995	103.092	19.923	2.057	0.510
1139.500	648.021	80.006	19.995	103.099	19.924	1.971	0.522
1140.001	648.292	80.005	19.995	103.106	19.923	2.047	0.518
1140.500	648.560	80.007	19.995	103.109	19.924	1.997	0.526
1140.999	648.770	80.005	19.994	103.111	19.922	2.133	0.508
1141.500	649.054	80.006	19.995	103.109	19.925	1.908	0.486
1142.000	649.260	80.007	19.994	103.104	19.928	1.728	0.492
1142.500	649.547	80.007	19.995	103.102	19.925	1.939	0.491
1143.000	649.816	80.006	19.995	103.100	19.924	2.027	0.524
1143.499	650.082	80.005	19.994	103.100	19.925	1.939	0.546
1143.999	650.359	80.007	19.995	103.099	19.924	2.020	0.539
1144.499	650.573	80.006	19.994	103.102	19.926	1.844	0.517
1144.999	650.842	80.006	19.995	103.100	19.925	1.918	0.487
1145.499	651.105	80.006	19.993	103.093	19.928	1.730	0.508
1145.999	651.346	80.007	19.995	103.091	19.926	1.853	0.518
1146.499	651.621	80.006	19.994	103.092	19.924	2.005	0.510
1146.999	651.862	80.007	19.994	103.093	19.927	1.790	0.516
1147.499	652.126	80.007	19.995	103.098	19.923	2.098	0.510
1147.999	652.384	80.006	19.995	103.105	19.927	1.837	0.514
1148.499	652.656	80.005	19.995	103.108	19.924	1.978	0.526
1149.000	652.879	80.007	19.994	103.107	19.925	1.952	0.512
1149.500	653.172	80.005	19.995	103.108	19.926	1.850	0.505
1149.999	653.417	80.005	19.995	103.108	19.927	1.790	0.527
1150.499	653.661	80.006	19.995	103.107	19.924	2.001	0.514
1150.999	653.941	80.006	19.994	103.107	19.924	2.024	0.506
1151.499	654.231	80.006	19.995	103.108	19.923	2.040	0.547
1151.999	654.443	80.004	19.995	103.108	19.924	1.980	0.536
1152.499	654.772	80.006	19.995	103.108	19.924	1.978	0.522
1152.999	655.021	80.004	19.995	103.109	19.925	1.913	0.560
1153.499	655.268	80.005	19.995	103.110	19.926	1.869	0.537
1153.999	655.528	80.004	19.995	103.111	19.927	1.776	0.501
1154.499	655.813	80.003	19.995	103.110	19.925	1.906	0.526
1154.999	656.100	80.004	19.995	103.111	19.925	1.922	0.559
1155.499	656.322	80.004	19.994	103.112	19.929	1.665	0.541
1155.999	656.594	80.003	19.994	103.112	19.927	1.820	0.501
1156.500	656.856	80.004	19.995	103.113	19.927	1.827	0.514
1157.000	657.113	80.004	19.994	103.114	19.924	2.017	0.526
1157.499	657.355	80.003	19.995	103.114	19.924	2.012	0.509
1157.999	657.617	80.004	19.994	103.113	19.927	1.813	0.502
1158.499	657.951	80.005	19.995	103.111	19.924	1.992	0.550
1158.999	658.215	80.004	19.995	103.109	19.923	2.059	0.597
1159.499	658.453	80.004	19.995	103.110	19.926	1.857	0.550
1159.999	658.718	80.004	19.994	103.111	19.927	1.823	0.503
1160.499	658.947	80.003	19.995	103.111	19.926	1.848	0.499
1160.999	659.248	80.004	19.994	103.112	19.926	1.858	0.512
1161.499	659.518	80.003	19.995	103.112	19.925	1.925	0.551
1161.999	659.772	80.003	19.995	103.111	19.927	1.829	0.548
1162.499	660.055	80.005	19.996	103.110	19.927	1.827	0.530
1162.999	660.294	80.002	19.995	103.110	19.928	1.746	0.529
1163.499	660.553	80.003	19.995	103.109	19.926	1.883	0.510
1163.999	660.808	80.003	19.995	103.109	19.929	1.688	0.506
1164.499	661.083	80.003	19.996	103.109	19.925	1.952	0.522
1164.999	661.357	80.005	19.995	103.109	19.928	1.753	0.540
1165.499	661.626	80.002	19.995	103.109	19.927	1.828	0.546
1165.999	661.872	80.004	19.995	103.109	19.927	1.786	0.529
1166.499	662.168	80.002	19.995	103.110	19.926	1.839	0.528
1166.999	662.430	80.004	19.995	103.109	19.925	1.925	0.550
1167.499	662.700	80.004	19.996	103.109	19.926	1.895	0.545
1167.999	662.956	80.005	19.996	103.108	19.925	1.925	0.529
1168.499	663.200	80.005	19.995	103.107	19.928	1.732	0.513
1169.000	663.465	80.003	19.996	103.106	19.923	2.098	0.505
1169.500	663.741	80.004	19.995	103.106	19.925	1.948	0.525
1170.000	663.967	80.005	19.996	103.106	19.922	2.136	0.521
1170.501	664.262	80.004	19.995	103.106	19.920	2.264	0.511
1171.000	664.530	80.004	19.996	103.106	19.922	2.120	0.542
1171.500	664.757	80.004	19.995	103.107	19.922	2.110	0.529
1172.000	665.046	80.002	19.996	103.107	19.921	2.226	0.505
1172.499	665.333	80.005	19.996	103.106	19.919	2.337	0.546
1172.999	665.572	80.004	19.995	103.106	19.919	2.330	0.551
1173.499	665.838	80.004	19.996	103.101	19.920	2.284	0.516
1173.999	666.089	80.005	19.996	103.099	19.917	2.429	0.511
1174.499	666.384	80.005	19.996	103.096	19.919	2.349	0.532
1174.999	666.617	80.004	19.996	103.095	19.921	2.224	0.537
1175.499	666.920	80.004	19.995	103.096	19.920	2.251	0.531
1175.999	667.213	80.005	19.996	103.101	19.921	2.214	0.566
1176.499	667.450	80.003	19.995	103.101	19.922	2.135	0.563
1176.999	667.702	80.006	19.997	103.098	19.917	2.452	0.510
1177.499	667.994	80.005	19.997	103.098	19.920	2.263	0.516
1177.999	668.262	80.003	19.996	103.100	19.920	2.242	0.552
1178.499	668.465	80.007	19.995	103.100	19.922	2.133	0.516
1178.999	668.762	80.003	19.996	103.101	19.920	2.281	0.486
1179.500	669.019	80.004	19.996	103.100	19.920	2.260	0.527
1180.000	669.288	80.004	19.996	103.094	19.921	2.202	0.540
1180.499	669.544	80.003	19.996	103.088	19.918	2.367	0.525
1180.999	669.803	80.004	19.996	103.083	19.920	2.246	0.520
1181.499	670.089	80.004	19.995	103.082	19.921	2.181	0.530
1181.999	670.344	80.005	19.995	103.086	19.919	2.305	0.543
1182.499	670.622	80.005	19.995	103.092	19.920	2.261	0.537
1182.999	670.826	80.003	19.996	103.096	19.923	2.054	0.508
1183.499	671.119	80.004	19.995	103.102	19.919	2.298	0.490
1183.999	671.388	80.002	19.996	103.104	19.921	2.189	0.529
1184.499	671.651	80.003	19.995	103.106	19.921	2.168	0.547
1184.999	671.936	80.005	19.997	103.105	19.922	2.149	0.540
1185.499	672.166	80.005	19.995	103.105	19.922	2.159	0.532
1185.999	672.403	80.004	19.995	103.105	19.922	2.101	0.491
1186.500	672.655	80.005	19.995	103.105	19.920	2.232	0.478
1187.001	672.943	80.004	19.995	103.106	19.923	2.040	0.515
1187.501	673.196	80.004	19.995	103.108	19.919	2.307	0.541
1188.000	673.487	80.004	19.995	103.109	19.924	2.020	0.543
1188.499	673.746	80.003	19.994	103.109	19.922	2.154	0.547
1188.999	674.045	80.005	19.995	103.109	19.919	2.297	0.554
1189.499	674.286	80.004	19.995	103.109	19.920	2.258	0.549
1190.000	674.578	80.005	19.994	103.108	19.921	2.214	0.536
1190.500	674.816	80.005	19.995	103.109	19.916	2.497	0.531
1191.000	675.087	80.005	19.995	103.109	19.920	2.281	0.519
1191.500	675.349	80.005	19.994	103.108	19.919	2.316	0.521
1191.999	675.676	80.005	19.995	103.108	19.920	2.258	0.561
1192.499	675.928	80.005	19.995	103.108	19.922	2.100	0.584
1192.999	676.185	80.005	19.994	103.107	19.921	2.175	0.544
1193.499	676.433	80.003	19.994	103.107	19.919	2.309	0.508
1193.999	676.702	80.006	19.995	103.108	19.918	2.385	0.511
1194.499	676.964	80.003	19.995	103.109	19.922	2.124	0.524
1194.999	677.255	80.005	19.994	103.110	19.920	2.291	0.542
1195.499	677.534	80.005	19.994	103.110	19.919	2.311	0.561
1195.999	677.746	80.006	19.994	103.110	19.922	2.154	0.530
1196.500	678.062	80.004	19.995	103.110	19.923	2.086	0.509
1197.001	678.270	80.005	19.994	103.109	19.917	2.467	0.527
1197.501	678.574	80.005	19.994	103.109	19.919	2.339	0.518
1198.000	678.828	80.004	19.994	103.109	19.919	2.337	0.535
1198.499	679.136	80.004	19.995	103.110	19.918	2.381	0.560
1198.999	679.374	80.005	19.995	103.111	19.920	2.261	0.554
1199.499	679.658	80.006	19.994	103.111	19.919	2.309	0.534
1199.999	679.894	80.007	19.995	103.111	19.917	2.439	0.521
1200.499	680.188	80.006	19.994	103.110	19.916	2.536	0.525
1200.999	680.433	80.006	19.995	103.109	19.918	2.415	0.534
1201.499	680.720	80.007	19.994	103.109	19.916	2.545	0.535
1201.999	680.986	80.006	19.995	103.108	19.918	2.416	0.543
1202.499	681.250	80.006	19.995	103.105	19.915	2.606	0.542
1202.999	681.479	80.008	19.994	103.105	19.918	2.386	0.511
1203.499	681.757	80.006	19.994	103.105	19.917	2.441	0.500
1203.999	681.996	80.007	19.994	103.105	19.915	2.555	0.512
1204.499	682.285	80.006	19.994	103.106	19.919	2.295	0.523
1204.999	682.523	80.007	19.994	103.109	19.917	2.465	0.528
1205.499	682.781	80.005	19.994	103.109	19.916	2.534	0.511
1205.999	683.047	80.005	19.994	103.110	19.916	2.502	0.510
1206.499	683.321	80.007	19.995	103.109	19.916	2.522	0.532
1206.999	683.611	80.004	19.995	103.110	19.916	2.520	0.552
1207.499	683.825	80.007	19.995	103.111	19.917	2.429	0.534
1207.999	684.136	80.005	19.995	103.111	19.918	2.422	0.515
1208.499	684.413	80.005	19.995	103.111	19.918	2.418	0.557
1208.999	684.674	80.005	19.995	103.111	19.917	2.453	0.563
1209.499	684.928	80.007	19.994	103.110	19.916	2.513	0.526
1210.000	685.178	80.006	19.994	103.106	19.920	2.291	0.509
1210.500	685.485	80.003	19.995	103.105	19.918	2.420	0.531
1210.999	685.726	80.005	19.995	103.105	19.920	2.270	0.553
1211.500	686.002	80.006	19.995	103.106	19.919	2.309	0.533
1212.000	686.251	80.006	19.995	103.107	19.920	2.279	0.521
1212.499	686.540	80.007	19.995	103.111	19.919	2.350	0.531
1212.999	686.753	80.004	19.995	103.110	19.918	2.395	0.520
1213.499	687.025	80.005	19.995	103.110	19.916	2.524	0.493
1213.999	687.296	80.005	19.994	103.109	19.916	2.541	0.514
1214.500	687.553	80.004	19.995	103.109	19.918	2.390	0.536
1215.000	687.813	80.005	19.995	103.103	19.917	2.453	0.523
1215.499	688.098	80.006	19.995	103.098	19.920	2.277	0.531
1215.999	688.320	80.005	19.995	103.094	19.918	2.383	0.526
1216.499	688.702	80.005	19.995	103.095	19.918	2.421	0.556
1216.999	688.902	80.005	19.995	103.097	19.918	2.409	0.593
1217.499	689.118	80.005	19.995	103.103	19.919	2.313	0.499
1217.999	689.401	80.004	19.994	103.110	19.919	2.321	0.457
1218.499	689.655	80.004	19.994	103.115	19.918	2.423	0.518
1218.999	689.905	80.004	19.995	103.115	19.919	2.314	0.521
1219.499	690.190	80.004	19.994	103.115	19.916	2.504	0.520
1219.999	690.443	80.004	19.994	103.115	19.922	2.163	0.536
1220.499	690.709	80.005	19.994	103.112	19.918	2.381	0.528
1220.999	690.981	80.004	19.994	103.110	19.918	2.379	0.528
1221.499	691.236	80.005	19.995	103.110	19.920	2.284	0.533
1221.999	691.496	80.007	19.994	103.110	19.919	2.307	0.521
1222.499	691.737	80.005	19.994	103.109	19.919	2.310	0.508
1222.999	691.976	80.005	19.994	103.112	19.916	2.511	0.491
1223.499	692.266	80.007	19.994	103.112	19.918	2.393	0.505
1223.999	692.525	80.007	19.994	103.110	19.918	2.412	0.539
1224.499	692.751	80.007	19.995	103.109	19.917	2.460	0.517
1224.999	693.025	80.006	19.993	103.103	19.920	2.230	0.493
1225.499	693.287	80.006	19.993	103.096	19.921	2.209	0.518
1225.999	693.522	80.007	19.993	103.091	19.920	2.244	0.517
1226.500	693.822	80.008	19.994	103.092	19.920	2.239	0.516
1227.000	694.053	80.006	19.994	103.093	19.922	2.119	0.533
1227.499	694.270	80.007	19.994	103.098	19.924	2.015	0.489
1227.999	694.555	80.008	19.994	103.103	19.920	2.288	0.475
1228.500	694.800	80.010	19.994	103.109	19.921	2.203	0.517
1229.000	695.070	80.007	19.994	103.109	19.923	2.036	0.523
1229.499	695.317	80.006	19.995	103.109	19.922	2.156	0.515
1229.999	695.587	80.007	19.994	103.109	19.923	2.082	0.517
1230.499	695.813	80.006	19.994	103.106	19.920	2.237	0.507
1230.999	696.060	80.008	19.995	103.098	19.922	2.161	0.484
1231.499	696.282	80.006	19.995	103.096	19.920	2.274	0.471
1231.999	696.565	80.008	19.995	103.095	19.920	2.231	0.487
1232.499	696.846	80.006	19.994	103.094	19.918	2.390	0.535
1232.999	697.074	80.006	19.995	103.091	19.919	2.323	0.537
1233.499	697.292	80.007	19.995	103.092	19.921	2.216	0.477
1233.999	697.591	80.005	19.994	103.092	19.919	2.303	0.482
1234.499	697.823	80.007	19.995	103.092	19.918	2.384	0.524
1234.999	698.079	80.002	19.995	103.092	19.918	2.365	0.509
1235.499	698.326	80.004	19.995	103.096	19.918	2.395	0.496
1235.999	698.534	80.005	19.995	103.101	19.920	2.291	0.479
1236.499	698.777	80.004	19.995	103.105	19.918	2.367	0.453
1236.999	698.999	80.005	19.995	103.105	19.918	2.367	0.458
1237.499	699.272	80.005	19.995	103.105	19.918	2.413	0.479
1238.000	699.509	80.006	19.995	103.105	19.919	2.318	0.502
1238.500	699.762	80.004	19.996	103.101	19.917	2.458	0.500
1238.999	699.992	80.004	19.996	103.097	19.918	2.414	0.486
1239.499	700.269	80.003	19.996	103.094	19.916	2.499	0.495
1239.999	700.480	80.001	19.996	103.096	19.919	2.342	0.497
1240.499	700.748	80.003	19.996	103.097	19.919	2.307	0.484
1240.999	700.983	80.004	19.995	103.101	19.917	2.432	0.492
1241.500	701.270	80.004	19.994	103.104	19.917	2.443	0.512
1242.001	701.458	80.006	19.996	103.107	19.919	2.330	0.498
1242.500	701.750	80.006	19.995	103.107	19.919	2.316	0.478
1242.999	701.937	80.004	19.995	103.104	19.922	2.159	0.479
1243.499	702.233	80.004	19.995	103.102	19.918	2.413	0.481
1243.999	702.431	80.005	19.995	103.102	19.920	2.237	0.489
1244.499	702.698	80.003	19.995	103.099	19.918	2.420	0.480
1245.000	702.925	80.004	19.995	103.093	19.917	2.430	0.479
1245.501	703.170	80.004	19.996	103.096	19.917	2.469	0.482
1246.001	703.417	80.003	19.996	103.098	19.918	2.372	0.482
1246.500	703.644	80.007	19.994	103.098	19.915	2.619	0.483
1246.999	703.892	80.003	19.995	103.101	19.917	2.434	0.475
1247.499	704.118	80.004	19.995	103.102	19.919	2.339	0.475
1247.999	704.357	80.007	19.996	103.098	19.917	2.455	0.469
1248.499	704.619	80.004	19.995	103.098	19.918	2.360	0.483
1248.999	704.860	80.004	19.995	103.098	19.919	2.355	0.502
1249.499	705.114	79.999	19.994	103.097	19.919	2.339	0.499
1249.999	705.340	80.004	19.995	103.100	19.919	2.349	0.488
1250.499	705.569	80.005	19.996	103.103	19.919	2.307	0.467
1250.999	705.803	80.006	19.995	103.103	19.920	2.237	0.459
1251.499	706.072	80.007	19.996	103.104	19.922	2.126	0.484
1251.999	706.337	80.003	19.996	103.104	19.917	2.445	0.519
1252.499	706.537	80.006	19.995	103.106	19.915	2.561	0.499
1252.999	706.780	80.007	19.995	103.108	19.918	2.364	0.454
1253.500	707.083	80.004	19.995	103.108	19.919	2.318	0.494
1254.001	707.309	80.002	19.995	103.108	19.919	2.358	0.537
1254.500	707.573	80.005	19.994	103.108	19.919	2.339	0.510
1254.999	707.807	80.007	19.995	103.107	19.919	2.330	0.494
1255.499	708.058	80.005	19.995	103.103	19.918	2.418	0.491
1255.999	708.348	80.002	19.995	103.100	19.919	2.298	0.513
1256.499	708.565	80.003	19.995	103.100	19.921	2.217	0.524
1256.999	708.809	80.003	19.994	103.100	19.919	2.297	0.484
1257.499	709.044	80.005	19.995	103.100	19.918	2.392	0.470
1257.999	709.314	80.005	19.995	103.102	19.920	2.260	0.491
1258.500	709.563	80.004	19.995	103.105	19.919	2.334	0.512
1259.000	709.777	80.005	19.995	103.104	19.919	2.325	0.491
1259.499	710.043	80.006	19.995	103.104	19.921	2.166	0.472
1259.999	710.268	80.003	19.995	103.104	19.919	2.309	0.485
1260.499	710.509	80.005	19.995	103.105	19.918	2.362	0.478
1261.000	710.742	80.005	19.995	103.105	19.920	2.237	0.470
1261.500	710.990	80.003	19.995	103.106	19.920	2.286	0.478
1261.999	711.240	80.004	19.995	103.106	19.918	2.423	0.490
1262.499	711.483	80.005	19.995	103.108	19.919	2.298	0.495
1262.999	711.736	80.003	19.995	103.108	19.918	2.372	0.494
1263.499	711.986	80.003	19.996	103.109	19.919	2.311	0.500
1263.999	712.243	80.002	19.995	103.109	19.920	2.288	0.505
1264.500	712.455	80.004	19.996	103.109	19.920	2.269	0.488
1265.000	712.754	80.003	19.996	103.108	19.919	2.339	0.490
1265.499	712.957	80.003	19.995	103.105	19.920	2.265	0.506
1265.999	713.200	80.005	19.995	103.104	19.916	2.496	0.474
1266.499	713.453	80.000	19.995	103.104	19.917	2.429	0.471
1266.999	713.720	80.004	19.996	103.103	19.915	2.592	0.508
1267.499	713.977	80.001	19.996	103.104	19.916	2.531	0.522
1267.999	714.233	80.000	19.996	103.106	19.916	2.539	0.519
1268.500	714.491	80.002	19.996	103.108	19.917	2.460	0.514
1269.000	714.725	80.002	19.996	103.107	19.915	2.603	0.503
1269.500	714.964	80.001	19.995	103.103	19.918	2.397	0.482
1270.000	715.250	80.004	19.996	103.100	19.916	2.536	0.499
1270.499	715.464	80.001	19.996	103.099	19.916	2.501	0.512
1270.999	715.699	80.003	19.996	103.099	19.917	2.457	0.475
1271.499	715.935	80.001	19.996	103.100	19.918	2.404	0.460
1272.000	716.195	80.003	19.996	103.107	19.916	2.496	0.483
1272.500	716.453	80.002	19.995	103.108	19.913	2.689	0.507
1272.999	716.681	80.003	19.995	103.108	19.917	2.462	0.502
1273.499	716.923	80.005	19.995	103.109	19.917	2.467	0.478
1273.999	717.202	80.002	19.996	103.108	19.918	2.374	0.496
1274.499	717.414	80.003	19.996	103.108	19.917	2.457	0.506
1274.999	717.707	80.006	19.996	103.109	19.917	2.486	0.498
1275.499	717.905	80.002	19.996	103.108	19.916	2.548	0.498
1275.999	718.116	80.001	19.995	103.107	19.919	2.316	0.450
1276.499	718.466	80.005	19.997	103.107	19.915	2.592	0.485
1277.000	718.654	80.001	19.996	103.107	19.916	2.503	0.549
1277.501	718.908	80.002	19.995	103.107	19.915	2.598	0.490
1278.000	719.193	80.002	19.995	103.103	19.914	2.636	0.491
1278.499	719.393	80.002	19.995	103.101	19.916	2.495	0.512
1278.999	719.675	80.006	19.995	103.100	19.917	2.437	0.483
1279.499	719.875	80.004	19.996	103.100	19.916	2.497	0.482
1279.999	720.115	80.004	19.995	103.096	19.917	2.455	0.461
1280.499	720.365	80.006	19.994	103.095	19.917	2.464	0.465
1280.999	720.631	80.003	19.994	103.097	19.917	2.437	0.503
1281.499	720.867	80.004	19.995	103.099	19.917	2.479	0.509
1281.999	721.133	80.005	19.995	103.098	19.917	2.462	0.502
1282.499	721.347	80.006	19.995	103.101	19.918	2.411	0.491
1282.999	721.596	80.003	19.994	103.108	19.918	2.381	0.472
1283.499	721.865	80.003	19.994	103.108	19.921	2.209	0.490
1283.999	722.113	80.005	19.995	103.108	19.916	2.492	0.517
1284.500	722.351	80.004	19.994	103.106	19.915	2.569	0.501
1285.000	722.562	80.003	19.993	103.101	19.916	2.504	0.468
1285.499	722.822	80.007	19.995	103.098	19.917	2.451	0.461
1285.999	723.102	80.006	19.993	103.095	19.919	2.324	0.506
1286.499	723.318	80.005	19.993	103.095	19.916	2.509	0.518
1287.000	723.595	80.008	19.994	103.099	19.914	2.625	0.495
1287.500	723.848	80.004	19.993	103.104	19.923	2.083	0.511
1288.000	724.095	80.005	19.994	103.107	19.918	2.393	0.515
1288.500	724.353	80.004	19.993	103.109	19.919	2.323	0.502
1288.999	724.578	80.005	19.995	103.103	19.919	2.337	0.494
1289.500	724.845	80.004	19.994	103.100	19.919	2.351	0.487
1290.000	725.094	80.007	19.994	103.100	19.919	2.305	0.504
1290.499	725.327	80.006	19.993	103.100	19.915	2.595	0.499
1290.999	725.549	80.005	19.994	103.098	19.917	2.469	0.469
1291.499	725.820	80.004	19.995	103.101	19.917	2.430	0.474
1292.000	726.043	80.004	19.994	103.103	19.917	2.436	0.493
1292.501	726.318	80.003	19.994	103.098	19.913	2.710	0.496
1293.000	726.542	80.006	19.994	103.099	19.916	2.554	0.499
1293.499	726.798	80.003	19.994	103.101	19.918	2.423	0.490
1293.999	727.073	80.003	19.994	103.105	19.915	2.555	0.505
1294.500	727.356	80.005	19.993	103.104	19.914	2.620	0.545
1295.000	727.583	80.006	19.994	103.107	19.916	2.515	0.534
1295.499	727.846	80.006	19.994	103.104	19.915	2.573	0.500
1296.000	728.032	80.005	19.995	103.100	19.916	2.537	0.470
1296.500	728.296	80.004	19.994	103.093	19.918	2.368	0.449
1296.999	728.569	80.008	19.995	103.093	19.916	2.516	0.493
1297.499	728.797	80.007	19.995	103.088	19.913	2.694	0.519
1297.999	729.071	80.006	19.995	103.084	19.914	2.655	0.501
1298.499	729.297	80.005	19.994	103.084	19.916	2.520	0.501
1298.999	729.548	80.006	19.995	103.087	19.914	2.627	0.488
1299.499	729.847	80.004	19.995	103.082	19.915	2.606	0.513
1299.999	730.061	80.003	19.995	103.083	19.914	2.620	0.532
1300.499	730.338	80.006	19.995	103.086	19.914	2.643	0.502
1300.999	730.552	80.004	19.995	103.088	19.917	2.441	0.491
1301.499	730.860	80.007	19.994	103.091	19.913	2.699	0.507
1301.999	731.106	80.004	19.996	103.096	19.915	2.617	0.538
1302.499	731.331	80.006	19.995	103.099	19.917	2.485	0.512
1303.000	731.592	80.004	19.995	103.103	19.917	2.478	0.478
1303.500	731.858	80.004	19.995	103.105	19.916	2.518	0.507
1303.999	732.098	80.007	19.995	103.107	19.915	2.599	0.517
1304.499	732.349	80.006	19.994	103.107	19.913	2.726	0.499
1304.999	732.595	80.004	19.994	103.105	19.916	2.509	0.494
1305.499	732.811	80.006	19.994	103.104	19.915	2.594	0.479
1305.999	733.118	80.008	19.995	103.102	19.916	2.518	0.493
1306.499	733.283	80.006	19.995	103.094	19.915	2.597	0.498
1306.999	733.533	80.004	19.995	103.089	19.916	2.543	0.443
1307.499	733.794	80.007	19.994	103.088	19.913	2.712	0.463
1307.999	734.059	80.004	19.995	103.088	19.913	2.719	0.519
1308.499	734.310	80.007	19.995	103.090	19.916	2.554	0.521
1308.999	734.541	80.006	19.995	103.095	19.915	2.610	0.499
1309.499	734.847	80.005	19.994	103.093	19.915	2.603	0.510
1309.999	735.060	80.007	19.994	103.096	19.911	2.833	0.528
1310.499	735.311	80.009	19.995	103.091	19.914	2.677	0.492
1311.000	735.568	80.007	19.996	103.088	19.915	2.555	0.486
1311.500	735.769	80.008	19.996	103.089	19.916	2.518	0.483
1311.999	736.021	80.007	19.995	103.092	19.917	2.450	0.456
1312.499	736.278	80.008	19.995	103.091	19.914	2.620	0.481
1312.999	736.560	80.006	19.995	103.091	19.917	2.464	0.524
1313.500	736.757	80.009	19.995	103.092	19.915	2.585	0.509
1314.000	737.015	80.006	19.994	103.093	19.914	2.634	0.468
1314.499	737.256	80.008	19.994	103.095	19.916	2.525	0.477
1314.999	737.541	80.008	19.994	103.096	19.914	2.675	0.512
1315.499	737.749	80.007	19.995	103.101	19.909	2.982	0.510
1315.999	738.021	80.006	19.995	103.099	19.912	2.764	0.487
1316.499	738.290	80.006	19.993	103.097	19.915	2.578	0.510
1316.999	738.478	80.007	19.995	103.097	19.917	2.444	0.499
1317.499	738.733	80.007	19.994	103.097	19.916	2.509	0.450
1317.999	739.008	80.007	19.994	103.097	19.915	2.615	0.487
1318.499	739.221	80.006	19.994	103.100	19.918	2.420	0.509
1319.000	739.487	80.006	19.994	103.103	19.915	2.615	0.484
1319.500	739.717	80.003	19.994	103.103	19.916	2.518	0.488
1319.999	739.994	80.003	19.993	103.105	19.916	2.553	0.501
1320.499	740.229	80.002	19.995	103.104	19.916	2.538	0.509
1320.999	740.534	80.004	19.995	103.102	19.916	2.493	0.526
1321.499	740.717	80.005	19.994	103.101	19.916	2.511	0.514
1321.999	740.985	80.005	19.994	103.100	19.915	2.603	0.470
1322.499	741.249	80.003	19.995	103.098	19.921	2.196	0.492
1322.999	741.474	80.007	19.994	103.098	19.914	2.664	0.510
1323.499	741.713	80.003	19.994	103.101	19.916	2.548	0.476
1323.999	741.939	80.004	19.994	103.100	19.914	2.636	0.464
1324.499	742.207	80.004	19.994	103.098	19.916	2.534	0.480
1324.999	742.451	80.004	19.994	103.097	19.912	2.784	0.503
1325.499	742.691	80.006	19.995	103.094	19.915	2.581	0.498
1325.999	742.983	80.004	19.995	103.088	19.915	2.569	0.508
1326.499	743.218	80.004	19.994	103.088	19.915	2.578	0.529
1326.999	743.469	80.002	19.993	103.087	19.914	2.657	0.506
1327.499	743.703	80.003	19.994	103.089	19.913	2.712	0.486
