Sample ID:	C:\MCC\MCC Cal\Test\PlasticA_MCC_30K_min_211019_R3.txt
Sample Weight (mg):	4.61
Heating Rate (C/s):	0.5
Combustor Temp (C):	900
N2 Flow Rate (cc/min):	80
O2 Flow Rate (cc/min):	20
Calibration File:	C:\MCC\MCC Cal\Coeff1 JN10440_30_210304.txt.txt
T Correction Coefficients:	0	1.024463	0
Time Shift (s):	14
*
Time (s)	Temperature (C)	N2 flow rate (cc/min)	O2 flow rate (cc/min)	Flow Rate (cc/min)	Oxygen (%)	HRR (W/g)	Heating rate (C/s)
0.000	107.006	80.008	19.995	102.965	19.974	0.128	0.017
0.500	106.997	80.007	19.994	102.968	19.977	-0.051	0.011
1.000	107.004	80.007	19.995	102.970	19.976	0.021	0.000
1.500	107.010	80.006	19.995	102.966	19.976	0.011	0.006
2.000	107.004	80.006	19.995	102.965	19.975	0.083	0.006
2.500	106.973	80.007	19.995	102.966	19.975	0.079	-0.018
3.000	106.989	80.007	19.995	102.969	19.977	-0.038	-0.026
3.500	107.016	80.006	19.995	102.972	19.975	0.092	0.014
4.000	107.011	80.008	19.995	102.975	19.977	-0.070	0.033
4.500	107.010	80.006	19.995	102.979	19.975	0.083	0.008
5.000	106.979	80.006	19.995	102.979	19.976	0.002	-0.019
5.500	106.976	80.005	19.992	102.972	19.975	0.094	-0.033
6.000	107.020	80.008	19.996	102.970	19.975	0.096	0.003
6.500	107.003	80.007	19.995	102.969	19.977	-0.049	0.034
7.000	107.007	80.005	19.995	102.970	19.976	0.015	0.007
7.500	107.001	80.007	19.995	102.973	19.975	0.081	-0.008
8.000	106.997	80.007	19.995	102.979	19.974	0.136	-0.006
8.500	107.003	80.007	19.995	102.983	19.974	0.128	-0.004
9.000	107.002	80.007	19.995	102.986	19.973	0.208	0.004
9.500	107.031	80.008	19.994	102.985	19.975	0.106	0.016
10.000	106.976	80.008	19.994	102.985	19.976	0.011	0.000
10.500	106.996	80.007	19.994	102.981	19.977	-0.026	-0.030
11.000	106.963	80.007	19.994	102.981	19.977	-0.059	-0.024
11.500	107.004	80.008	19.995	102.980	19.975	0.081	-0.003
12.000	106.990	80.008	19.994	102.980	19.976	0.047	0.017
12.500	107.004	80.007	19.994	102.981	19.978	-0.123	0.013
13.000	107.000	80.008	19.994	102.984	19.980	-0.238	0.005
13.500	106.989	80.008	19.994	102.986	19.976	0.002	-0.003
14.000	107.004	80.008	19.994	102.987	19.973	0.213	-0.005
14.500	106.995	80.008	19.994	102.987	19.973	0.229	0.005
15.000	107.017	80.008	19.993	102.987	19.977	-0.028	0.009
15.500	106.974	80.008	19.994	102.987	19.977	-0.034	-0.004
16.000	107.033	80.007	19.993	102.986	19.977	-0.047	-0.002
16.500	107.031	80.006	19.994	102.988	19.973	0.204	0.037
17.000	107.002	80.007	19.994	102.992	19.974	0.132	0.013
17.500	107.007	80.008	19.994	102.996	19.973	0.251	-0.028
18.000	107.034	80.007	19.995	103.004	19.973	0.221	0.004
18.500	107.020	80.010	19.994	103.006	19.971	0.336	0.023
19.000	107.033	80.009	19.994	103.008	19.972	0.276	0.006
19.500	107.006	80.008	19.995	103.012	19.970	0.444	-0.008
20.000	107.057	80.008	19.995	103.015	19.970	0.465	0.005
20.500	107.014	80.008	19.994	103.015	19.969	0.482	0.016
21.000	107.045	80.007	19.995	103.019	19.968	0.584	-0.001
21.500	107.064	80.008	19.995	103.023	19.968	0.577	0.019
22.000	107.065	80.008	19.995	103.027	19.972	0.295	0.035
22.500	107.078	80.008	19.995	103.035	19.970	0.469	0.017
23.000	107.083	80.009	19.995	103.043	19.966	0.713	0.016
23.500	107.085	80.008	19.995	103.054	19.964	0.821	0.012
24.000	107.082	80.009	19.995	103.065	19.960	1.157	0.003
24.500	107.127	80.007	19.994	103.078	19.961	1.070	0.021
25.000	107.137	80.006	19.995	103.086	19.963	0.934	0.048
25.500	107.145	80.006	19.995	103.093	19.961	1.034	0.036
26.000	107.157	80.006	19.995	103.103	19.960	1.163	0.019
26.500	107.199	80.006	19.995	103.111	19.959	1.184	0.037
27.000	107.213	80.005	19.995	103.115	19.958	1.267	0.055
27.500	107.268	80.006	19.995	103.117	19.957	1.350	0.063
28.000	107.280	80.006	19.996	103.122	19.956	1.384	0.068
28.500	107.295	80.006	19.995	103.125	19.954	1.520	0.047
29.000	107.346	80.005	19.995	103.128	19.956	1.422	0.046
29.500	107.370	80.006	19.995	103.131	19.955	1.496	0.071
30.000	107.401	80.007	19.995	103.138	19.952	1.709	0.065
30.500	107.439	80.006	19.994	103.141	19.952	1.700	0.062
31.000	107.479	80.005	19.996	103.143	19.951	1.791	0.074
31.500	107.530	80.006	19.995	103.144	19.951	1.779	0.085
32.000	107.588	80.005	19.995	103.150	19.949	1.908	0.100
32.501	107.644	80.007	19.996	103.157	19.947	2.012	0.111
33.001	107.662	80.006	19.995	103.163	19.947	2.058	0.094
33.500	107.714	80.005	19.995	103.171	19.946	2.132	0.072
34.000	107.777	80.006	19.995	103.176	19.943	2.319	0.093
34.500	107.808	80.005	19.995	103.173	19.948	1.952	0.105
35.000	107.877	80.005	19.994	103.174	19.946	2.100	0.097
35.500	107.932	80.005	19.995	103.175	19.946	2.111	0.112
36.000	107.989	80.005	19.996	103.175	19.946	2.105	0.118
36.500	108.081	80.006	19.996	103.175	19.944	2.283	0.130
37.000	108.138	80.006	19.995	103.179	19.944	2.226	0.149
37.500	108.183	80.004	19.995	103.181	19.943	2.347	0.126
38.000	108.235	80.006	19.995	103.179	19.942	2.417	0.100
38.500	108.327	80.007	19.995	103.177	19.941	2.445	0.121
39.000	108.417	80.005	19.995	103.179	19.941	2.458	0.163
39.500	108.461	80.007	19.995	103.179	19.939	2.574	0.158
40.000	108.530	80.006	19.995	103.176	19.940	2.506	0.124
40.500	108.642	80.006	19.995	103.177	19.940	2.506	0.147
41.000	108.659	80.005	19.995	103.178	19.937	2.735	0.155
41.500	108.749	80.005	19.995	103.179	19.939	2.568	0.118
42.000	108.858	80.005	19.994	103.179	19.941	2.481	0.153
42.500	108.907	80.006	19.995	103.182	19.939	2.613	0.179
43.000	108.994	80.006	19.995	103.184	19.938	2.687	0.147
43.500	109.072	80.006	19.995	103.186	19.937	2.767	0.151
44.000	109.180	80.006	19.995	103.190	19.936	2.789	0.176
44.501	109.259	80.006	19.994	103.196	19.938	2.678	0.186
45.001	109.347	80.005	19.995	103.200	19.938	2.680	0.177
45.500	109.439	80.005	19.995	103.202	19.936	2.838	0.174
46.000	109.534	80.005	19.995	103.208	19.936	2.791	0.183
46.500	109.613	80.006	19.996	103.206	19.937	2.721	0.180
47.000	109.740	80.005	19.995	103.201	19.940	2.544	0.191
47.500	109.814	80.005	19.995	103.197	19.939	2.595	0.204
48.001	109.939	80.007	19.995	103.187	19.941	2.432	0.200
48.501	110.025	80.006	19.995	103.179	19.940	2.549	0.205
49.001	110.172	80.006	19.995	103.176	19.941	2.489	0.222
49.501	110.253	80.006	19.994	103.175	19.942	2.389	0.231
50.001	110.296	80.006	19.995	103.176	19.941	2.493	0.176
50.500	110.424	80.006	19.995	103.183	19.943	2.307	0.147
51.000	110.526	80.005	19.995	103.184	19.942	2.366	0.200
51.500	110.634	80.005	19.995	103.184	19.939	2.633	0.220
52.000	110.733	80.005	19.995	103.184	19.942	2.411	0.208
52.500	110.857	80.006	19.995	103.184	19.942	2.381	0.215
53.000	110.971	80.006	19.996	103.183	19.940	2.508	0.231
53.500	111.087	80.005	19.996	103.183	19.943	2.300	0.234
54.000	111.219	80.005	19.995	103.183	19.942	2.356	0.239
54.500	111.331	80.005	19.996	103.183	19.940	2.525	0.246
55.000	111.429	80.004	19.995	103.183	19.940	2.511	0.227
55.500	111.527	80.006	19.996	103.183	19.941	2.491	0.203
56.000	111.659	80.005	19.996	103.182	19.942	2.394	0.213
56.500	111.754	80.005	19.996	103.182	19.940	2.508	0.228
57.000	111.901	80.005	19.996	103.182	19.940	2.500	0.234
57.500	112.021	80.005	19.996	103.181	19.939	2.599	0.255
58.000	112.121	80.005	19.996	103.183	19.938	2.668	0.243
58.500	112.250	80.005	19.996	103.189	19.938	2.657	0.224
59.000	112.398	80.004	19.996	103.192	19.939	2.623	0.253
59.500	112.502	80.005	19.996	103.192	19.940	2.559	0.264
60.001	112.654	80.004	19.996	103.195	19.938	2.667	0.254
60.501	112.779	80.005	19.996	103.192	19.937	2.740	0.267
61.001	112.849	80.005	19.996	103.188	19.939	2.585	0.236
61.500	113.042	80.005	19.996	103.188	19.938	2.687	0.229
62.000	113.177	80.004	19.996	103.189	19.939	2.633	0.295
62.501	113.297	80.005	19.996	103.188	19.941	2.495	0.291
63.001	113.471	80.004	19.996	103.191	19.938	2.652	0.275
63.501	113.602	80.003	19.995	103.192	19.936	2.799	0.300
64.001	113.752	80.005	19.996	103.191	19.939	2.580	0.293
64.500	113.856	80.005	19.996	103.191	19.934	2.937	0.267
65.000	114.033	80.004	19.996	103.190	19.939	2.586	0.267
65.500	114.156	80.005	19.996	103.189	19.940	2.516	0.291
66.000	114.311	80.005	19.996	103.188	19.941	2.482	0.289
66.500	114.399	80.005	19.996	103.193	19.938	2.694	0.260
67.000	114.570	80.006	19.996	103.196	19.938	2.673	0.251
67.500	114.708	80.006	19.995	103.195	19.937	2.749	0.285
68.001	114.817	80.006	19.996	103.194	19.937	2.715	0.278
68.501	115.017	80.006	19.995	103.193	19.936	2.794	0.278
69.001	115.132	80.007	19.994	103.187	19.937	2.726	0.312
69.500	115.297	80.006	19.995	103.182	19.939	2.601	0.297
70.000	115.448	80.006	19.996	103.182	19.937	2.713	0.298
70.500	115.540	80.007	19.996	103.184	19.937	2.726	0.280
71.000	115.733	80.007	19.996	103.186	19.937	2.707	0.264
71.500	115.872	80.007	19.995	103.189	19.939	2.607	0.308
72.000	115.996	80.006	19.995	103.189	19.937	2.707	0.298
72.500	116.187	80.007	19.995	103.192	19.939	2.567	0.289
73.000	116.298	80.007	19.995	103.195	19.939	2.575	0.309
73.500	116.440	80.007	19.994	103.194	19.938	2.641	0.278
74.000	116.625	80.007	19.994	103.194	19.938	2.641	0.290
74.500	116.779	80.007	19.995	103.201	19.936	2.836	0.333
75.000	116.952	80.007	19.995	103.203	19.936	2.775	0.333
75.500	117.098	80.009	19.995	103.200	19.935	2.864	0.323
76.000	117.246	80.008	19.995	103.207	19.936	2.825	0.307
76.500	117.415	80.008	19.995	103.211	19.934	2.978	0.306
77.000	117.565	80.009	19.995	103.211	19.934	2.957	0.318
77.500	117.726	80.009	19.993	103.212	19.933	3.001	0.315
78.000	117.886	80.007	19.995	103.217	19.932	3.092	0.316
78.500	117.994	80.008	19.994	103.217	19.932	3.115	0.295
79.000	118.190	80.007	19.995	103.218	19.932	3.086	0.286
79.500	118.366	80.009	19.995	103.219	19.934	2.939	0.338
80.001	118.553	80.008	19.995	103.220	19.932	3.084	0.368
80.501	118.712	80.008	19.994	103.221	19.930	3.196	0.354
81.001	118.859	80.007	19.994	103.221	19.934	2.950	0.326
81.500	119.016	80.009	19.994	103.221	19.933	3.045	0.305
82.000	119.184	80.008	19.995	103.219	19.929	3.304	0.314
82.500	119.381	80.008	19.995	103.220	19.930	3.243	0.345
83.000	119.533	80.008	19.994	103.220	19.932	3.102	0.357
83.500	119.731	80.007	19.996	103.220	19.931	3.179	0.350
84.000	119.880	80.007	19.996	103.220	19.929	3.321	0.349
84.500	120.086	80.007	19.995	103.221	19.931	3.151	0.351
85.000	120.235	80.008	19.994	103.220	19.932	3.066	0.355
85.500	120.433	80.007	19.996	103.220	19.929	3.299	0.351
86.000	120.578	80.007	19.995	103.220	19.929	3.306	0.345
86.500	120.799	80.008	19.995	103.220	19.927	3.460	0.355
87.000	120.949	80.007	19.994	103.225	19.929	3.293	0.369
87.500	121.139	80.006	19.996	103.227	19.928	3.359	0.356
88.000	121.325	80.008	19.995	103.230	19.931	3.195	0.358
88.500	121.444	80.007	19.995	103.237	19.932	3.123	0.341
89.000	121.658	80.007	19.994	103.243	19.929	3.284	0.319
89.501	121.862	80.006	19.994	103.246	19.927	3.410	0.376
90.001	122.046	80.006	19.994	103.252	19.929	3.301	0.403
90.500	122.230	80.007	19.994	103.251	19.930	3.227	0.378
91.000	122.413	80.006	19.995	103.248	19.929	3.267	0.368
91.501	122.585	80.006	19.995	103.247	19.927	3.458	0.361
92.001	122.785	80.005	19.995	103.248	19.928	3.352	0.364
92.500	122.979	80.006	19.995	103.246	19.928	3.372	0.383
93.001	123.197	80.006	19.995	103.250	19.927	3.433	0.402
93.501	123.402	80.008	19.995	103.252	19.929	3.327	0.417
94.000	123.578	80.006	19.994	103.255	19.926	3.480	0.402
94.500	123.734	80.006	19.996	103.255	19.927	3.465	0.357
95.000	123.974	80.006	19.994	103.256	19.926	3.529	0.365
95.500	124.172	80.006	19.994	103.259	19.924	3.662	0.417
96.000	124.352	80.007	19.994	103.260	19.924	3.669	0.408
96.501	124.541	80.009	19.995	103.260	19.924	3.626	0.373
97.001	124.749	80.007	19.995	103.262	19.926	3.510	0.383
97.500	124.956	80.009	19.995	103.262	19.925	3.573	0.406
98.000	125.111	80.008	19.994	103.262	19.925	3.609	0.388
98.500	125.359	80.010	19.995	103.262	19.925	3.584	0.382
99.000	125.569	80.008	19.994	103.263	19.926	3.501	0.431
99.500	125.766	80.008	19.995	103.261	19.923	3.723	0.432
100.001	126.003	80.008	19.994	103.261	19.925	3.569	0.420
100.501	126.194	80.008	19.994	103.262	19.920	3.917	0.431
101.001	126.420	80.007	19.995	103.263	19.924	3.618	0.423
101.501	126.649	80.008	19.994	103.263	19.926	3.486	0.436
102.000	126.861	80.008	19.993	103.262	19.926	3.488	0.448
102.500	127.084	80.008	19.995	103.262	19.925	3.586	0.438
103.000	127.287	80.009	19.994	103.262	19.927	3.473	0.430
103.500	127.479	80.008	19.995	103.260	19.923	3.708	0.411
104.000	127.723	80.009	19.994	103.260	19.925	3.566	0.416
104.500	127.938	80.009	19.994	103.259	19.924	3.615	0.448
105.000	128.160	80.008	19.994	103.258	19.924	3.630	0.448
105.500	128.339	80.008	19.995	103.257	19.922	3.812	0.419
106.000	128.594	80.009	19.994	103.256	19.926	3.477	0.417
106.500	128.789	80.009	19.994	103.254	19.927	3.469	0.442
107.000	129.002	80.008	19.995	103.255	19.926	3.484	0.429
107.501	129.242	80.008	19.994	103.256	19.928	3.350	0.431
108.001	129.488	80.009	19.994	103.258	19.927	3.446	0.470
108.501	129.680	80.008	19.995	103.259	19.927	3.435	0.462
109.000	129.910	80.007	19.993	103.261	19.927	3.420	0.430
109.500	130.152	80.007	19.994	103.261	19.926	3.535	0.447
110.001	130.334	80.008	19.994	103.261	19.927	3.452	0.448
110.501	130.588	80.007	19.994	103.260	19.929	3.333	0.430
111.001	130.813	80.007	19.994	103.260	19.925	3.581	0.458
111.501	131.050	80.006	19.994	103.260	19.926	3.477	0.470
112.000	131.292	80.007	19.993	103.260	19.926	3.537	0.471
112.500	131.491	80.005	19.993	103.261	19.926	3.529	0.460
113.000	131.726	80.006	19.994	103.263	19.926	3.514	0.438
113.500	131.953	80.006	19.995	103.264	19.925	3.562	0.448
114.000	132.161	80.006	19.994	103.265	19.925	3.611	0.448
114.500	132.398	80.005	19.994	103.265	19.926	3.490	0.440
115.000	132.658	80.005	19.994	103.264	19.926	3.537	0.471
115.500	132.891	80.006	19.994	103.263	19.925	3.592	0.495
116.000	133.133	80.006	19.995	103.262	19.920	3.934	0.484
116.500	133.378	80.005	19.994	103.264	19.923	3.728	0.481
117.000	133.602	80.004	19.995	103.265	19.923	3.696	0.478
117.500	133.833	80.005	19.995	103.265	19.924	3.679	0.462
118.001	134.050	80.005	19.995	103.263	19.922	3.766	0.452
118.501	134.297	80.005	19.996	103.263	19.920	3.898	0.456
119.000	134.509	80.006	19.995	103.260	19.921	3.834	0.462
119.500	134.813	80.006	19.995	103.259	19.922	3.781	0.487
120.000	135.012	80.006	19.995	103.259	19.920	3.895	0.509
120.500	135.252	80.006	19.995	103.261	19.923	3.687	0.472
121.000	135.500	80.005	19.996	103.264	19.921	3.845	0.464
121.500	135.747	80.006	19.995	103.266	19.923	3.713	0.491
122.000	136.002	80.005	19.996	103.266	19.922	3.777	0.498
122.500	136.247	80.006	19.995	103.264	19.921	3.839	0.502
123.000	136.484	80.005	19.996	103.262	19.919	4.006	0.491
123.500	136.738	80.006	19.995	103.259	19.922	3.794	0.486
124.000	136.980	80.005	19.996	103.257	19.921	3.860	0.494
124.500	137.222	80.006	19.996	103.255	19.922	3.772	0.490
125.000	137.435	80.006	19.996	103.255	19.923	3.715	0.469
125.500	137.714	80.006	19.996	103.255	19.923	3.696	0.473
126.000	137.956	80.006	19.996	103.255	19.921	3.885	0.507
126.500	138.170	80.006	19.995	103.255	19.922	3.775	0.489
127.000	138.447	80.007	19.996	103.255	19.922	3.805	0.473
127.500	138.662	80.006	19.995	103.257	19.922	3.775	0.492
128.000	138.945	80.007	19.996	103.258	19.922	3.817	0.495
128.500	139.172	80.006	19.996	103.258	19.922	3.813	0.503
129.000	139.396	80.007	19.996	103.257	19.922	3.770	0.480
129.500	139.677	80.006	19.996	103.257	19.921	3.883	0.479
130.000	139.911	80.007	19.995	103.257	19.925	3.577	0.510
130.500	140.148	80.005	19.997	103.257	19.924	3.635	0.493
131.000	140.390	80.006	19.995	103.259	19.926	3.501	0.474
131.500	140.675	80.006	19.995	103.259	19.926	3.539	0.503
132.000	140.904	80.006	19.995	103.258	19.925	3.599	0.521
132.500	141.154	80.007	19.995	103.256	19.923	3.715	0.496
133.000	141.363	80.006	19.994	103.250	19.927	3.421	0.469
133.500	141.659	80.005	19.995	103.247	19.922	3.754	0.482
134.000	141.901	80.005	19.995	103.247	19.924	3.676	0.521
134.500	142.126	80.007	19.996	103.248	19.925	3.568	0.502
135.000	142.349	80.005	19.996	103.248	19.921	3.827	0.458
135.500	142.648	80.008	19.995	103.254	19.922	3.769	0.486
136.000	142.883	80.006	19.996	103.251	19.922	3.784	0.528
136.500	143.156	80.005	19.995	103.248	19.922	3.801	0.521
137.000	143.439	80.006	19.995	103.248	19.922	3.778	0.532
137.500	143.654	80.006	19.995	103.251	19.924	3.682	0.527
138.000	143.956	80.006	19.996	103.250	19.924	3.675	0.507
138.500	144.197	80.006	19.996	103.254	19.923	3.722	0.530
139.000	144.483	80.005	19.995	103.256	19.924	3.663	0.535
139.500	144.737	80.006	19.995	103.256	19.923	3.710	0.534
140.000	144.959	80.006	19.995	103.253	19.923	3.685	0.509
140.500	145.207	80.006	19.995	103.250	19.923	3.725	0.473
141.000	145.454	80.006	19.996	103.251	19.920	3.947	0.482
141.500	145.756	80.005	19.996	103.252	19.920	3.926	0.522
142.000	145.992	80.005	19.996	103.252	19.919	4.030	0.544
142.501	146.235	80.004	19.995	103.255	19.919	3.987	0.508
143.001	146.485	80.006	19.995	103.257	19.917	4.123	0.486
143.501	146.717	80.006	19.995	103.256	19.920	3.922	0.488
144.000	147.039	80.006	19.995	103.250	19.923	3.746	0.518
144.500	147.301	80.005	19.995	103.247	19.921	3.886	0.569
145.000	147.524	80.006	19.995	103.243	19.923	3.710	0.535
145.500	147.820	80.007	19.996	103.237	19.921	3.892	0.502
146.000	148.064	80.006	19.995	103.230	19.920	3.916	0.530
146.500	148.316	80.006	19.996	103.228	19.921	3.866	0.518
147.000	148.559	80.006	19.995	103.226	19.921	3.879	0.495
147.500	148.797	80.005	19.995	103.229	19.924	3.680	0.488
148.000	149.098	80.006	19.996	103.234	19.924	3.623	0.510
148.500	149.340	80.006	19.997	103.238	19.924	3.667	0.541
149.000	149.605	80.005	19.996	103.241	19.924	3.674	0.525
149.500	149.878	80.006	19.996	103.240	19.921	3.825	0.522
150.000	150.129	80.005	19.996	103.236	19.924	3.664	0.531
150.500	150.386	80.005	19.997	103.229	19.921	3.833	0.516
151.000	150.620	80.005	19.995	103.226	19.924	3.665	0.499
151.500	150.880	80.006	19.998	103.226	19.922	3.808	0.492
152.000	151.157	80.006	19.998	103.233	19.924	3.668	0.516
152.500	151.401	80.005	19.996	103.236	19.926	3.496	0.530
153.000	151.689	80.004	19.997	103.241	19.924	3.666	0.527
153.500	151.935	80.006	19.996	103.241	19.924	3.640	0.533
154.000	152.206	80.006	19.997	103.238	19.923	3.723	0.525
154.500	152.486	80.006	19.996	103.231	19.924	3.621	0.534
155.000	152.707	80.006	19.996	103.225	19.924	3.680	0.526
155.500	152.968	80.006	19.997	103.224	19.923	3.685	0.492
156.000	153.208	80.006	19.996	103.225	19.925	3.574	0.492
156.500	153.507	80.006	19.997	103.229	19.924	3.630	0.520
157.000	153.733	80.006	19.996	103.234	19.924	3.613	0.532
157.500	154.005	80.008	19.996	103.239	19.921	3.823	0.511
158.000	154.255	80.006	19.996	103.239	19.923	3.691	0.510
158.500	154.526	80.006	19.996	103.238	19.920	3.893	0.521
159.000	154.786	80.007	19.995	103.234	19.922	3.753	0.526
159.500	155.022	80.007	19.996	103.229	19.923	3.744	0.513
160.000	155.294	80.009	19.995	103.225	19.923	3.710	0.503
160.500	155.560	80.006	19.995	103.221	19.923	3.691	0.523
161.000	155.815	80.006	19.994	103.222	19.923	3.719	0.529
161.500	156.072	80.006	19.995	103.222	19.925	3.562	0.516
162.000	156.353	80.007	19.996	103.227	19.924	3.657	0.525
162.500	156.612	80.007	19.996	103.226	19.922	3.768	0.539
163.000	156.865	80.008	19.995	103.226	19.921	3.842	0.526
163.500	157.119	80.008	19.995	103.225	19.923	3.733	0.510
164.000	157.359	80.009	19.995	103.225	19.924	3.629	0.500
164.500	157.668	80.009	19.995	103.220	19.921	3.823	0.522
165.000	157.926	80.006	19.995	103.224	19.926	3.526	0.558
165.500	158.170	80.007	19.994	103.225	19.923	3.708	0.534
166.000	158.436	80.008	19.994	103.227	19.924	3.613	0.506
166.500	158.709	80.007	19.993	103.227	19.927	3.441	0.525
167.000	158.958	80.007	19.995	103.227	19.922	3.817	0.530
167.500	159.211	80.008	19.995	103.225	19.924	3.660	0.512
168.000	159.465	80.007	19.995	103.225	19.922	3.787	0.505
168.500	159.744	80.007	19.994	103.223	19.923	3.736	0.520
169.000	160.021	80.006	19.994	103.222	19.924	3.674	0.545
169.500	160.264	80.006	19.995	103.222	19.922	3.801	0.538
170.000	160.535	80.005	19.995	103.221	19.923	3.687	0.516
170.500	160.789	80.007	19.995	103.221	19.924	3.636	0.519
171.000	161.042	80.008	19.994	103.221	19.923	3.731	0.516
171.500	161.306	80.006	19.994	103.221	19.922	3.819	0.513
172.000	161.548	80.007	19.994	103.221	19.922	3.766	0.512
172.500	161.805	80.006	19.994	103.221	19.922	3.759	0.502
173.000	162.062	80.006	19.995	103.220	19.923	3.692	0.506
173.500	162.343	80.006	19.995	103.222	19.922	3.789	0.527
174.000	162.592	80.006	19.995	103.223	19.923	3.728	0.534
174.500	162.867	80.006	19.995	103.224	19.923	3.711	0.527
175.000	163.090	80.006	19.994	103.224	19.925	3.602	0.511
175.500	163.359	80.006	19.995	103.225	19.925	3.556	0.495
176.000	163.614	80.006	19.995	103.219	19.922	3.787	0.508
176.501	163.901	80.006	19.994	103.215	19.921	3.840	0.533
177.001	164.180	80.006	19.994	103.210	19.923	3.726	0.554
177.500	164.436	80.008	19.994	103.208	19.922	3.777	0.550
178.000	164.711	80.008	19.994	103.208	19.922	3.806	0.532
178.500	164.932	80.008	19.995	103.210	19.923	3.707	0.513
179.000	165.216	80.007	19.994	103.212	19.924	3.643	0.501
179.500	165.485	80.007	19.995	103.218	19.920	3.947	0.529
180.000	165.750	80.007	19.994	103.221	19.926	3.535	0.544
180.500	166.015	80.009	19.994	103.222	19.925	3.580	0.532
181.000	166.282	80.007	19.994	103.223	19.921	3.872	0.530
181.500	166.497	80.007	19.994	103.222	19.921	3.824	0.507
182.000	166.744	80.007	19.994	103.221	19.923	3.707	0.472
182.500	167.043	80.008	19.994	103.219	19.923	3.728	0.504
183.000	167.290	80.006	19.994	103.217	19.920	3.921	0.546
183.500	167.485	80.008	19.994	103.211	19.924	3.648	0.494
184.000	167.796	80.008	19.994	103.210	19.925	3.554	0.474
184.500	168.035	80.009	19.994	103.209	19.925	3.603	0.528
185.000	168.292	80.008	19.994	103.207	19.925	3.595	0.523
185.500	168.556	80.009	19.995	103.209	19.924	3.661	0.509
186.000	168.802	80.009	19.994	103.213	19.925	3.580	0.515
186.500	169.065	80.008	19.995	103.213	19.923	3.735	0.509
187.000	169.325	80.008	19.994	103.211	19.921	3.872	0.516
187.500	169.591	80.007	19.995	103.211	19.923	3.728	0.525
188.000	169.799	80.008	19.995	103.208	19.926	3.535	0.500
188.500	170.061	80.009	19.994	103.203	19.923	3.730	0.472
189.000	170.336	80.009	19.994	103.204	19.926	3.499	0.503
189.500	170.577	80.009	19.994	103.205	19.926	3.520	0.527
190.000	170.876	80.010	19.994	103.205	19.924	3.630	0.528
190.500	171.115	80.008	19.994	103.203	19.923	3.701	0.539
191.000	171.333	80.008	19.994	103.204	19.923	3.705	0.498
191.500	171.618	80.009	19.994	103.202	19.922	3.758	0.480
192.000	171.833	80.009	19.994	103.203	19.921	3.852	0.502
192.500	172.128	80.007	19.995	103.198	19.924	3.680	0.505
193.000	172.357	80.007	19.994	103.201	19.922	3.801	0.517
193.500	172.653	80.008	19.994	103.205	19.923	3.731	0.524
194.000	172.891	80.006	19.995	103.202	19.923	3.710	0.529
194.500	173.152	80.007	19.995	103.196	19.925	3.565	0.517
195.000	173.416	80.008	19.996	103.195	19.924	3.665	0.512
195.500	173.646	80.008	19.994	103.188	19.923	3.718	0.509
196.000	173.901	80.007	19.994	103.184	19.923	3.705	0.490
196.500	174.127	80.006	19.995	103.190	19.924	3.618	0.483
197.000	174.421	80.007	19.994	103.194	19.926	3.516	0.501
197.500	174.649	80.005	19.994	103.199	19.922	3.763	0.521
198.000	174.901	80.005	19.994	103.204	19.924	3.625	0.501
198.500	175.150	80.008	19.995	103.202	19.919	3.969	0.490
199.000	175.404	80.007	19.994	103.198	19.921	3.835	0.502
199.500	175.672	80.006	19.994	103.198	19.925	3.578	0.512
200.000	175.897	80.007	19.995	103.197	19.925	3.555	0.507
200.500	176.146	80.005	19.994	103.194	19.926	3.527	0.483
201.000	176.401	80.006	19.994	103.199	19.925	3.589	0.489
201.500	176.647	80.006	19.995	103.197	19.927	3.440	0.503
202.000	176.908	80.007	19.993	103.194	19.924	3.633	0.504
202.500	177.128	80.006	19.994	103.189	19.925	3.589	0.494
203.000	177.431	80.005	19.995	103.188	19.923	3.682	0.502
203.500	177.647	80.006	19.995	103.183	19.925	3.595	0.521
204.000	177.910	80.005	19.993	103.182	19.927	3.429	0.499
204.500	178.149	80.006	19.994	103.182	19.929	3.296	0.490
205.001	178.407	80.006	19.994	103.183	19.928	3.400	0.499
205.501	178.675	80.006	19.993	103.184	19.928	3.385	0.511
206.000	178.911	80.006	19.994	103.187	19.926	3.501	0.515
206.500	179.184	80.006	19.995	103.189	19.925	3.561	0.507
207.000	179.387	80.006	19.994	103.190	19.923	3.684	0.493
207.500	179.647	80.007	19.994	103.189	19.925	3.567	0.470
208.000	179.885	80.006	19.994	103.189	19.924	3.642	0.480
208.500	180.166	80.006	19.994	103.186	19.925	3.593	0.509
209.000	180.406	80.008	19.995	103.184	19.927	3.436	0.520
209.500	180.617	80.006	19.995	103.182	19.926	3.521	0.486
210.000	180.875	80.006	19.994	103.184	19.926	3.486	0.460
210.500	181.135	80.006	19.995	103.187	19.922	3.771	0.493
211.000	181.404	80.007	19.994	103.187	19.922	3.794	0.523
211.500	181.633	80.006	19.995	103.187	19.926	3.480	0.513
212.000	181.848	80.007	19.994	103.188	19.927	3.421	0.471
212.500	182.096	80.005	19.994	103.186	19.927	3.423	0.454
213.000	182.370	80.005	19.995	103.183	19.928	3.400	0.493
213.500	182.646	80.006	19.994	103.182	19.928	3.378	0.536
214.000	182.908	80.006	19.995	103.182	19.928	3.393	0.544
214.500	183.124	80.006	19.994	103.181	19.928	3.387	0.508
215.000	183.350	80.006	19.995	103.182	19.930	3.222	0.460
215.500	183.591	80.006	19.994	103.184	19.928	3.376	0.454
216.000	183.841	80.006	19.995	103.184	19.925	3.582	0.479
216.500	184.079	80.007	19.996	103.187	19.929	3.323	0.490
217.000	184.303	80.005	19.995	103.187	19.930	3.228	0.475
217.500	184.590	80.007	19.995	103.186	19.926	3.493	0.486
218.000	184.834	80.008	19.995	103.184	19.928	3.397	0.521
218.500	185.101	80.007	19.995	103.185	19.928	3.362	0.521
219.000	185.372	80.006	19.996	103.183	19.926	3.514	0.525
219.500	185.620	80.005	19.995	103.188	19.930	3.238	0.528
220.000	185.851	80.005	19.996	103.189	19.928	3.334	0.499
220.500	186.126	80.006	19.996	103.190	19.926	3.480	0.493
221.000	186.328	80.006	19.995	103.190	19.926	3.540	0.492
221.500	186.579	80.007	19.995	103.189	19.925	3.604	0.465
222.000	186.828	80.006	19.995	103.184	19.928	3.400	0.476
222.500	187.103	80.006	19.996	103.183	19.928	3.400	0.512
223.000	187.332	80.008	19.994	103.182	19.926	3.531	0.514
223.500	187.611	80.005	19.995	103.182	19.926	3.525	0.506
224.000	187.786	80.005	19.995	103.181	19.928	3.340	0.481
224.500	188.061	80.006	19.995	103.184	19.925	3.548	0.452
225.000	188.303	80.006	19.995	103.184	19.927	3.455	0.484
225.500	188.523	80.004	19.995	103.185	19.927	3.457	0.489
226.000	188.769	80.005	19.995	103.185	19.924	3.641	0.464
226.500	189.057	80.005	19.995	103.186	19.928	3.349	0.500
227.000	189.315	80.006	19.995	103.184	19.926	3.508	0.540
227.500	189.531	80.005	19.996	103.185	19.926	3.531	0.510
228.000	189.717	80.005	19.995	103.186	19.925	3.574	0.438
228.500	189.972	80.005	19.995	103.186	19.925	3.578	0.422
229.000	190.249	80.005	19.995	103.187	19.926	3.508	0.487
229.500	190.521	80.005	19.994	103.188	19.925	3.604	0.541
230.000	190.733	80.005	19.995	103.188	19.926	3.478	0.516
230.501	190.959	80.005	19.994	103.188	19.925	3.584	0.461
231.000	191.262	80.005	19.996	103.188	19.922	3.782	0.484
231.500	191.471	80.005	19.994	103.185	19.921	3.831	0.521
232.000	191.740	80.006	19.994	103.183	19.925	3.608	0.495
232.500	191.919	80.005	19.995	103.182	19.922	3.813	0.463
233.000	192.208	80.006	19.996	103.182	19.924	3.612	0.458
233.500	192.455	80.005	19.995	103.182	19.923	3.727	0.502
234.000	192.675	80.004	19.995	103.186	19.924	3.621	0.502
234.500	192.914	80.007	19.996	103.186	19.926	3.495	0.463
235.000	193.182	80.005	19.995	103.187	19.925	3.557	0.483
235.500	193.394	80.005	19.995	103.187	19.924	3.659	0.493
236.000	193.612	80.006	19.995	103.188	19.926	3.540	0.455
236.500	193.842	80.004	19.995	103.188	19.924	3.663	0.440
237.000	194.136	80.006	19.996	103.188	19.923	3.716	0.486
237.500	194.338	80.007	19.995	103.188	19.923	3.716	0.510
238.000	194.573	80.006	19.995	103.187	19.922	3.759	0.466
238.500	194.823	80.005	19.995	103.185	19.925	3.591	0.461
239.000	195.076	80.006	19.995	103.184	19.924	3.629	0.494
239.500	195.360	80.006	19.996	103.183	19.924	3.621	0.520
240.000	195.572	80.007	19.996	103.183	19.922	3.809	0.517
240.500	195.805	80.007	19.995	103.183	19.920	3.922	0.471
241.000	196.048	80.006	19.995	103.183	19.922	3.809	0.460
241.500	196.274	80.007	19.995	103.183	19.924	3.671	0.472
242.000	196.510	80.006	19.995	103.183	19.921	3.833	0.465
242.500	196.775	80.006	19.995	103.185	19.922	3.771	0.482
243.000	197.012	80.005	19.994	103.187	19.923	3.689	0.502
243.500	197.184	80.006	19.995	103.185	19.926	3.474	0.456
244.000	197.454	80.006	19.996	103.184	19.925	3.606	0.425
244.500	197.699	80.006	19.996	103.184	19.926	3.485	0.478
245.000	197.929	80.007	19.995	103.182	19.926	3.508	0.495
245.500	198.148	80.005	19.995	103.181	19.925	3.561	0.462
246.000	198.414	80.005	19.995	103.182	19.925	3.587	0.467
246.500	198.641	80.005	19.996	103.184	19.923	3.701	0.489
247.000	198.915	80.007	19.996	103.184	19.926	3.536	0.497
247.500	199.156	80.006	19.995	103.184	19.922	3.757	0.508
248.000	199.363	80.006	19.996	103.184	19.922	3.784	0.482
248.500	199.621	80.005	19.995	103.184	19.924	3.623	0.457
249.000	199.894	80.006	19.995	103.183	19.925	3.557	0.498
249.500	200.125	80.005	19.995	103.183	19.924	3.625	0.517
250.000	200.345	80.006	19.996	103.184	19.925	3.601	0.478
250.501	200.555	80.005	19.996	103.185	19.924	3.648	0.441
251.000	200.835	80.006	19.996	103.184	19.926	3.527	0.460
251.500	201.066	80.006	19.996	103.184	19.926	3.517	0.500
252.000	201.310	80.006	19.996	103.183	19.927	3.438	0.493
252.500	201.538	80.005	19.996	103.182	19.927	3.404	0.473
253.000	201.800	80.006	19.995	103.180	19.924	3.678	0.481
253.500	202.011	80.006	19.996	103.180	19.923	3.695	0.481
254.000	202.241	80.005	19.996	103.181	19.924	3.614	0.457
254.500	202.521	80.006	19.996	103.183	19.921	3.831	0.475
255.000	202.733	80.006	19.995	103.183	19.923	3.722	0.501
255.500	202.998	80.008	19.995	103.183	19.923	3.701	0.485
256.000	203.216	80.006	19.996	103.183	19.925	3.576	0.480
256.500	203.471	80.006	19.996	103.181	19.920	3.933	0.478
257.000	203.739	80.006	19.996	103.181	19.923	3.750	0.498
257.500	204.002	80.007	19.995	103.180	19.920	3.935	0.527
258.000	204.244	80.007	19.995	103.179	19.925	3.601	0.518
258.500	204.511	80.007	19.995	103.175	19.921	3.858	0.507
259.000	204.713	80.006	19.995	103.175	19.920	3.909	0.489
259.500	204.992	80.007	19.995	103.176	19.922	3.754	0.475
260.000	205.218	80.007	19.996	103.177	19.920	3.894	0.493
260.500	205.438	80.008	19.995	103.181	19.924	3.665	0.475
261.000	205.685	80.009	19.995	103.185	19.925	3.585	0.456
261.500	205.958	80.008	19.995	103.185	19.921	3.822	0.493
262.000	206.195	80.008	19.994	103.184	19.922	3.805	0.515
262.500	206.442	80.007	19.995	103.180	19.922	3.820	0.497
263.000	206.694	80.008	19.994	103.177	19.922	3.769	0.491
263.500	206.958	80.009	19.994	103.178	19.920	3.909	0.508
264.000	207.197	80.009	19.995	103.178	19.919	4.015	0.510
264.500	207.436	80.008	19.995	103.178	19.919	3.990	0.491
265.000	207.675	80.008	19.994	103.182	19.920	3.954	0.478
265.500	207.939	80.009	19.995	103.182	19.921	3.827	0.490
266.000	208.183	80.009	19.994	103.182	19.923	3.744	0.505
266.500	208.470	80.008	19.995	103.182	19.919	3.981	0.520
267.000	208.653	80.009	19.994	103.182	19.919	3.988	0.501
267.500	208.933	80.008	19.994	103.181	19.922	3.765	0.466
268.000	209.133	80.010	19.994	103.180	19.920	3.911	0.471
268.500	209.388	80.009	19.994	103.179	19.918	4.052	0.467
269.000	209.610	80.009	19.994	103.180	19.918	4.047	0.466
269.500	209.890	80.009	19.995	103.179	19.918	4.045	0.490
270.000	210.145	80.009	19.994	103.180	19.917	4.156	0.519
270.500	210.420	80.010	19.994	103.180	19.922	3.761	0.533
271.000	210.637	80.009	19.994	103.180	19.918	4.088	0.511
271.500	210.874	80.009	19.995	103.179	19.921	3.879	0.473
272.000	211.121	80.009	19.994	103.179	19.920	3.931	0.469
272.500	211.370	80.010	19.994	103.179	19.918	4.034	0.490
273.000	211.635	80.009	19.994	103.178	19.919	3.965	0.505
273.500	211.872	80.008	19.994	103.178	19.916	4.177	0.508
274.000	212.122	80.007	19.996	103.178	19.920	3.896	0.495
274.500	212.390	80.007	19.994	103.178	19.921	3.835	0.503
275.000	212.604	80.006	19.993	103.179	19.919	3.998	0.500
275.500	212.835	80.007	19.995	103.178	19.918	4.066	0.463
276.000	213.107	80.008	19.995	103.177	19.918	4.083	0.474
276.500	213.340	80.007	19.995	103.178	19.917	4.119	0.505
277.000	213.552	80.008	19.995	103.178	19.918	4.041	0.475
277.500	213.827	80.007	19.995	103.178	19.919	4.003	0.466
278.000	214.072	80.006	19.995	103.178	19.920	3.911	0.504
278.500	214.307	80.006	19.995	103.178	19.920	3.951	0.500
279.000	214.540	80.008	19.995	103.177	19.921	3.888	0.474
279.500	214.818	80.007	19.995	103.177	19.919	3.973	0.490
280.000	215.105	80.006	19.994	103.176	19.918	4.038	0.538
280.500	215.323	80.007	19.995	103.177	19.921	3.865	0.535
281.000	215.602	80.007	19.995	103.179	19.918	4.087	0.501
281.500	215.861	80.006	19.995	103.179	19.919	3.962	0.518
282.000	216.104	80.006	19.995	103.180	19.919	3.962	0.520
282.500	216.309	80.006	19.994	103.180	19.921	3.869	0.474
283.000	216.576	80.006	19.995	103.179	19.917	4.124	0.460
283.500	216.814	80.006	19.995	103.179	19.918	4.094	0.489
284.000	217.061	80.005	19.995	103.180	19.918	4.045	0.495
284.500	217.300	80.006	19.995	103.180	19.917	4.149	0.485
285.000	217.556	80.005	19.995	103.180	19.916	4.177	0.491
285.500	217.799	80.007	19.994	103.182	19.916	4.236	0.497
286.000	218.053	80.006	19.995	103.182	19.914	4.312	0.498
286.500	218.271	80.007	19.995	103.181	19.914	4.374	0.485
287.000	218.541	80.006	19.995	103.181	19.916	4.198	0.480
287.500	218.783	80.006	19.995	103.180	19.915	4.249	0.499
288.000	219.059	80.006	19.995	103.180	19.915	4.245	0.515
288.500	219.310	80.007	19.995	103.183	19.916	4.174	0.523
289.000	219.567	80.006	19.995	103.185	19.914	4.317	0.517
289.500	219.816	80.006	19.994	103.186	19.915	4.270	0.507
290.000	220.037	80.006	19.994	103.188	19.916	4.210	0.488
290.500	220.309	80.006	19.994	103.188	19.914	4.332	0.482
291.000	220.569	80.007	19.994	103.185	19.915	4.272	0.512
291.500	220.819	80.007	19.995	103.182	19.913	4.399	0.521
292.000	221.025	80.007	19.995	103.182	19.917	4.145	0.483
292.500	221.277	80.007	19.994	103.181	19.918	4.088	0.457
293.000	221.549	80.006	19.994	103.181	19.914	4.312	0.491
293.500	221.829	80.006	19.995	103.182	19.914	4.312	0.538
294.000	222.073	80.007	19.995	103.183	19.914	4.349	0.539
294.500	222.307	80.006	19.994	103.184	19.914	4.338	0.501
295.000	222.573	80.006	19.994	103.185	19.914	4.348	0.489
295.500	222.842	80.006	19.994	103.186	19.914	4.314	0.517
296.000	223.111	80.007	19.995	103.185	19.917	4.168	0.537
296.500	223.308	80.007	19.994	103.185	19.913	4.387	0.502
297.000	223.545	80.007	19.994	103.184	19.913	4.414	0.450
297.500	223.811	80.007	19.994	103.184	19.912	4.480	0.468
298.000	224.060	80.006	19.994	103.184	19.914	4.378	0.509
298.500	224.336	80.006	19.994	103.182	19.913	4.385	0.520
299.000	224.582	80.006	19.993	103.181	19.912	4.453	0.524
299.500	224.806	80.006	19.994	103.181	19.912	4.472	0.496
300.000	225.063	80.006	19.994	103.182	19.912	4.478	0.476
300.500	225.287	80.006	19.995	103.181	19.909	4.663	0.481
301.000	225.547	80.006	19.995	103.183	19.911	4.529	0.482
301.500	225.838	80.007	19.994	103.183	19.910	4.595	0.517
302.000	226.067	80.007	19.995	103.183	19.911	4.586	0.536
302.500	226.336	80.006	19.995	103.182	19.910	4.593	0.510
303.000	226.607	80.006	19.994	103.180	19.909	4.672	0.519
303.500	226.826	80.006	19.995	103.179	19.911	4.568	0.515
304.000	227.078	80.006	19.994	103.180	19.912	4.508	0.480
304.500	227.338	80.005	19.994	103.180	19.910	4.612	0.491
305.000	227.584	80.005	19.995	103.182	19.911	4.531	0.509
305.500	227.844	80.006	19.995	103.185	19.910	4.591	0.506
306.000	228.108	80.006	19.994	103.186	19.910	4.652	0.515
306.500	228.351	80.005	19.995	103.187	19.911	4.580	0.516
307.000	228.606	80.006	19.994	103.184	19.909	4.679	0.503
307.500	228.871	80.005	19.995	103.181	19.910	4.601	0.509
308.000	229.124	80.005	19.996	103.178	19.909	4.680	0.519
308.500	229.377	80.005	19.995	103.177	19.910	4.603	0.512
309.000	229.647	80.005	19.995	103.176	19.907	4.807	0.514
309.500	229.886	80.005	19.995	103.178	19.913	4.410	0.516
310.000	230.136	80.006	19.995	103.180	19.910	4.589	0.499
310.500	230.386	80.005	19.995	103.180	19.913	4.393	0.495
311.000	230.657	80.005	19.996	103.182	19.912	4.482	0.510
311.500	230.925	80.004	19.995	103.183	19.910	4.625	0.530
312.000	231.159	80.005	19.995	103.184	19.912	4.459	0.520
312.500	231.410	80.005	19.995	103.184	19.910	4.601	0.493
313.000	231.635	80.004	19.996	103.182	19.910	4.631	0.480
313.500	231.902	80.005	19.995	103.174	19.907	4.799	0.484
314.000	232.135	80.005	19.995	103.170	19.910	4.621	0.496
314.500	232.388	80.005	19.996	103.169	19.909	4.659	0.493
315.000	232.647	80.004	19.996	103.165	19.912	4.487	0.499
315.500	232.887	80.004	19.996	103.166	19.913	4.410	0.505
316.000	233.109	80.005	19.995	103.173	19.913	4.429	0.481
316.500	233.345	80.005	19.995	103.177	19.912	4.480	0.461
317.000	233.631	80.005	19.995	103.178	19.913	4.402	0.490
317.500	233.870	80.005	19.995	103.182	19.912	4.455	0.523
318.000	234.138	80.006	19.996	103.183	19.910	4.599	0.516
318.500	234.406	80.005	19.995	103.182	19.911	4.555	0.521
319.000	234.640	80.006	19.994	103.179	19.909	4.682	0.519
319.500	234.900	80.006	19.995	103.175	19.909	4.672	0.498
320.001	235.120	80.006	19.995	103.174	19.909	4.659	0.487
320.500	235.385	80.005	19.996	103.174	19.910	4.617	0.482
321.000	235.645	80.007	19.995	103.176	19.909	4.727	0.505
321.500	235.877	80.005	19.995	103.178	19.908	4.783	0.508
322.000	236.119	80.006	19.995	103.182	19.911	4.536	0.483
322.500	236.402	80.007	19.995	103.181	19.908	4.733	0.500
323.000	236.618	80.006	19.996	103.178	19.911	4.585	0.512
323.500	236.910	80.008	19.995	103.172	19.909	4.659	0.503
324.000	237.171	80.008	19.995	103.168	19.912	4.517	0.530
324.500	237.418	80.007	19.996	103.168	19.907	4.816	0.531
325.000	237.701	80.008	19.995	103.168	19.907	4.799	0.519
325.500	237.932	80.007	19.994	103.170	19.908	4.763	0.522
326.000	238.152	80.007	19.995	103.174	19.906	4.903	0.483
326.500	238.417	80.007	19.995	103.174	19.908	4.748	0.468
327.000	238.657	80.009	19.995	103.175	19.906	4.920	0.494
327.500	238.887	80.008	19.995	103.172	19.905	4.948	0.487
328.000	239.092	80.007	19.995	103.171	19.904	5.034	0.453
328.500	239.384	80.008	19.995	103.168	19.906	4.897	0.466
329.000	239.632	80.007	19.995	103.170	19.908	4.733	0.518
329.500	239.904	80.008	19.994	103.168	19.905	4.961	0.530
330.000	240.138	80.008	19.994	103.167	19.904	5.065	0.513
330.500	240.384	80.007	19.995	103.163	19.906	4.927	0.493
331.000	240.597	80.007	19.995	103.164	19.906	4.910	0.470
331.500	240.839	80.007	19.994	103.162	19.906	4.910	0.457
332.000	241.132	80.006	19.995	103.161	19.907	4.844	0.495
332.500	241.397	80.007	19.995	103.162	19.907	4.823	0.547
333.000	241.598	80.007	19.995	103.166	19.907	4.848	0.512
333.500	241.839	80.007	19.995	103.169	19.909	4.704	0.454
334.000	242.086	80.007	19.995	103.172	19.905	4.978	0.465
334.500	242.310	80.006	19.995	103.172	19.907	4.863	0.480
335.000	242.538	80.006	19.994	103.171	19.906	4.887	0.462
335.500	242.821	80.008	19.995	103.171	19.904	5.035	0.482
336.000	243.073	80.007	19.996	103.167	19.904	5.054	0.523
336.500	243.303	80.007	19.995	103.161	19.906	4.929	0.508
337.000	243.563	80.006	19.995	103.163	19.905	4.978	0.486
337.500	243.837	80.007	19.995	103.166	19.907	4.847	0.512
338.000	244.034	80.005	19.995	103.168	19.906	4.915	0.502
338.500	244.281	80.006	19.995	103.172	19.908	4.734	0.458
339.000	244.511	80.005	19.995	103.177	19.905	4.962	0.461
339.500	244.758	80.007	19.994	103.171	19.905	5.006	0.477
340.000	245.053	80.008	19.995	103.170	19.911	4.577	0.509
340.500	245.270	80.006	19.995	103.164	19.908	4.776	0.527
341.000	245.537	80.006	19.995	103.158	19.906	4.870	0.498
341.500	245.743	80.006	19.994	103.154	19.904	5.025	0.479
342.000	245.995	80.006	19.996	103.156	19.906	4.872	0.466
342.500	246.285	80.007	19.996	103.157	19.910	4.657	0.500
343.000	246.495	80.007	19.996	103.162	19.907	4.867	0.521
343.500	246.748	80.006	19.995	103.168	19.907	4.810	0.482
344.000	246.967	80.006	19.996	103.169	19.910	4.621	0.468
344.500	247.280	80.007	19.995	103.166	19.907	4.812	0.502
345.000	247.462	80.007	19.996	103.160	19.910	4.599	0.513
345.500	247.716	80.006	19.995	103.155	19.906	4.894	0.466
346.000	247.971	80.007	19.996	103.154	19.905	4.954	0.473
346.501	248.200	80.007	19.995	103.157	19.908	4.774	0.496
347.000	248.471	80.007	19.996	103.159	19.906	4.914	0.492
347.500	248.698	80.007	19.996	103.158	19.909	4.721	0.499
348.000	248.988	80.008	19.996	103.155	19.907	4.820	0.507
348.500	249.228	80.008	19.995	103.150	19.905	4.986	0.523
349.000	249.445	80.008	19.996	103.147	19.905	4.971	0.494
349.500	249.679	80.007	19.995	103.147	19.905	4.977	0.454
350.000	249.980	80.009	19.995	103.148	19.907	4.841	0.493
350.500	250.227	80.009	19.996	103.148	19.905	4.986	0.541
351.000	250.459	80.008	19.995	103.151	19.906	4.917	0.514
351.500	250.716	80.010	19.995	103.155	19.907	4.816	0.485
352.000	250.957	80.009	19.994	103.155	19.906	4.875	0.494
352.500	251.180	80.009	19.995	103.156	19.906	4.913	0.480
353.000	251.502	80.008	19.995	103.157	19.906	4.919	0.504
353.500	251.690	80.008	19.994	103.161	19.903	5.087	0.528
354.000	251.970	80.008	19.995	103.162	19.906	4.928	0.489
354.500	252.174	80.009	19.994	103.166	19.907	4.867	0.477
355.000	252.427	80.008	19.994	103.168	19.904	5.050	0.471
355.500	252.640	80.009	19.994	103.173	19.902	5.194	0.461
356.000	252.898	80.008	19.994	103.172	19.906	4.884	0.469
356.500	253.152	80.006	19.994	103.172	19.905	4.986	0.491
357.000	253.418	80.009	19.994	103.170	19.905	4.956	0.516
357.500	253.644	80.008	19.994	103.172	19.905	4.975	0.506
358.000	253.862	80.008	19.993	103.169	19.903	5.096	0.468
358.500	254.095	80.006	19.994	103.165	19.907	4.829	0.448
359.000	254.349	80.007	19.994	103.164	19.905	5.000	0.469
359.500	254.601	80.007	19.994	103.166	19.906	4.932	0.496
360.000	254.823	80.007	19.994	103.168	19.903	5.109	0.490
360.500	255.089	80.004	19.994	103.169	19.903	5.140	0.481
361.000	255.361	80.006	19.994	103.175	19.904	5.032	0.513
361.500	255.553	80.006	19.994	103.176	19.901	5.240	0.501
362.000	255.803	80.005	19.994	103.178	19.902	5.185	0.453
362.500	256.014	80.005	19.995	103.177	19.903	5.106	0.451
363.000	256.297	80.006	19.994	103.180	19.905	4.969	0.477
363.500	256.529	80.005	19.995	103.180	19.901	5.245	0.505
364.000	256.779	80.006	19.995	103.179	19.901	5.245	0.499
364.500	257.062	80.006	19.995	103.177	19.902	5.181	0.507
365.000	257.274	80.006	19.995	103.175	19.904	5.077	0.514
365.500	257.538	80.005	19.995	103.173	19.901	5.271	0.486
366.000	257.742	80.005	19.994	103.170	19.902	5.162	0.472
366.500	258.037	80.006	19.995	103.170	19.904	5.022	0.483
367.000	258.213	80.006	19.995	103.170	19.905	5.005	0.485
367.500	258.510	80.006	19.995	103.173	19.907	4.818	0.472
368.000	258.738	80.006	19.994	103.174	19.904	5.009	0.499
368.500	259.008	80.006	19.995	103.175	19.903	5.140	0.512
369.000	259.228	80.005	19.994	103.175	19.905	4.969	0.494
369.500	259.477	80.006	19.994	103.173	19.905	4.975	0.480
370.000	259.705	80.005	19.994	103.174	19.903	5.113	0.473
370.500	259.957	80.006	19.995	103.174	19.904	5.069	0.478
371.000	260.206	80.006	19.995	103.177	19.902	5.156	0.490
371.500	260.430	80.005	19.994	103.178	19.904	5.049	0.487
372.000	260.668	80.005	19.995	103.182	19.904	5.026	0.467
372.500	260.931	80.005	19.994	103.182	19.903	5.088	0.481
373.000	261.174	80.007	19.995	103.181	19.903	5.128	0.504
373.500	261.442	80.006	19.994	103.180	19.903	5.118	0.509
374.000	261.671	80.006	19.995	103.174	19.901	5.234	0.504
374.500	261.888	80.007	19.993	103.169	19.902	5.170	0.471
375.000	262.121	80.006	19.994	103.169	19.899	5.423	0.448
375.500	262.352	80.007	19.995	103.166	19.904	5.075	0.457
376.000	262.613	80.006	19.994	103.163	19.903	5.079	0.478
376.500	262.885	80.008	19.995	103.164	19.903	5.132	0.513
377.000	263.149	80.006	19.995	103.168	19.903	5.111	0.535
377.500	263.353	80.006	19.995	103.169	19.903	5.147	0.502
378.000	263.609	80.005	19.995	103.173	19.902	5.149	0.464
378.500	263.846	80.007	19.994	103.177	19.900	5.349	0.477
379.000	264.103	80.006	19.994	103.180	19.903	5.109	0.494
379.500	264.320	80.005	19.994	103.176	19.901	5.278	0.484
380.000	264.608	80.006	19.995	103.170	19.902	5.159	0.489
380.500	264.910	80.006	19.994	103.169	19.901	5.247	0.547
381.000	265.126	80.005	19.994	103.164	19.903	5.100	0.554
381.500	265.350	80.006	19.994	103.163	19.903	5.096	0.479
382.000	265.587	80.006	19.995	103.167	19.901	5.266	0.450
382.500	265.858	80.007	19.994	103.172	19.902	5.215	0.484
383.000	266.105	80.006	19.995	103.169	19.905	4.961	0.513
383.500	266.329	80.006	19.995	103.168	19.903	5.124	0.495
384.000	266.596	80.006	19.994	103.167	19.902	5.187	0.481
384.500	266.804	80.005	19.994	103.168	19.903	5.113	0.483
385.000	267.078	80.005	19.994	103.168	19.906	4.877	0.478
385.500	267.311	80.007	19.995	103.172	19.903	5.117	0.495
386.000	267.576	80.006	19.995	103.176	19.902	5.162	0.503
386.500	267.817	80.006	19.995	103.177	19.904	5.030	0.502
387.000	268.085	80.007	19.994	103.177	19.903	5.090	0.507
387.500	268.344	80.007	19.994	103.176	19.904	5.047	0.518
388.000	268.552	80.005	19.994	103.172	19.904	5.039	0.497
388.500	268.842	80.006	19.995	103.173	19.904	5.064	0.483
389.000	269.043	80.006	19.995	103.175	19.906	4.871	0.495
389.500	269.311	80.007	19.994	103.174	19.904	5.013	0.480
390.000	269.517	80.006	19.994	103.175	19.906	4.928	0.471
390.500	269.797	80.005	19.994	103.177	19.906	4.884	0.480
391.000	270.110	80.007	19.994	103.178	19.908	4.754	0.539
391.500	270.307	80.008	19.994	103.178	19.905	4.945	0.552
392.000	270.542	80.005	19.995	103.174	19.902	5.162	0.471
392.500	270.837	80.006	19.994	103.170	19.908	4.788	0.481
393.000	271.065	80.006	19.994	103.169	19.905	4.963	0.527
393.500	271.355	80.006	19.994	103.168	19.909	4.725	0.521
394.000	271.571	80.007	19.994	103.166	19.907	4.850	0.512
394.500	271.825	80.005	19.994	103.169	19.904	5.044	0.488
395.000	272.083	80.005	19.994	103.172	19.909	4.674	0.491
395.500	272.332	80.005	19.994	103.171	19.907	4.803	0.509
396.000	272.577	80.005	19.994	103.172	19.911	4.557	0.501
396.500	272.851	80.006	19.995	103.173	19.909	4.665	0.507
397.000	273.132	80.005	19.995	103.171	19.912	4.513	0.537
397.500	273.345	80.005	19.995	103.172	19.912	4.513	0.525
398.000	273.585	80.006	19.995	103.175	19.912	4.517	0.473
398.500	273.784	80.006	19.995	103.175	19.909	4.710	0.446
399.000	274.030	80.005	19.995	103.177	19.909	4.685	0.441
399.500	274.331	80.006	19.995	103.181	19.911	4.522	0.496
400.000	274.550	80.007	19.994	103.176	19.914	4.331	0.534
400.500	274.813	80.006	19.994	103.171	19.911	4.570	0.501
401.000	275.060	80.006	19.995	103.171	19.910	4.598	0.496
401.500	275.345	80.006	19.995	103.169	19.909	4.723	0.521
402.000	275.583	80.006	19.995	103.168	19.911	4.580	0.528
402.500	275.836	80.006	19.995	103.172	19.914	4.357	0.507
403.000	276.139	80.006	19.995	103.176	19.911	4.542	0.523
403.500	276.340	80.007	19.994	103.173	19.913	4.434	0.530
404.000	276.573	80.007	19.995	103.169	19.914	4.320	0.469
404.500	276.812	80.007	19.996	103.163	19.913	4.419	0.453
405.000	277.123	80.006	19.995	103.159	19.914	4.329	0.511
405.500	277.347	80.008	19.994	103.159	19.912	4.486	0.542
406.000	277.567	80.008	19.995	103.161	19.912	4.467	0.489
406.500	277.837	80.008	19.995	103.165	19.910	4.622	0.467
407.000	278.062	80.007	19.995	103.167	19.911	4.554	0.492
407.500	278.344	80.008	19.995	103.168	19.907	4.804	0.501
408.000	278.644	80.007	19.994	103.165	19.910	4.613	0.545
408.501	278.922	80.008	19.995	103.165	19.912	4.509	0.580
409.000	279.137	80.007	19.995	103.164	19.910	4.651	0.535
409.500	279.408	80.008	19.996	103.162	19.912	4.475	0.489
410.000	279.666	80.007	19.995	103.159	19.911	4.520	0.508
410.500	279.930	80.006	19.995	103.160	19.909	4.677	0.526
411.000	280.163	80.006	19.995	103.157	19.914	4.356	0.509
411.500	280.424	80.008	19.994	103.158	19.913	4.409	0.495
412.000	280.677	80.007	19.995	103.161	19.913	4.427	0.504
412.500	280.962	80.009	19.995	103.168	19.912	4.499	0.526
413.000	281.149	80.008	19.995	103.170	19.910	4.618	0.505
413.500	281.407	80.007	19.995	103.173	19.910	4.639	0.459
414.000	281.678	80.007	19.994	103.173	19.910	4.588	0.487
414.500	281.917	80.007	19.995	103.171	19.916	4.174	0.519
415.000	282.172	80.006	19.995	103.166	19.915	4.282	0.502
415.500	282.378	80.006	19.995	103.161	19.914	4.315	0.478
416.000	282.679	80.008	19.995	103.155	19.916	4.207	0.484
416.500	282.916	80.008	19.996	103.150	19.914	4.369	0.522
417.000	283.165	80.006	19.995	103.150	19.912	4.513	0.512
417.500	283.429	80.007	19.995	103.150	19.913	4.416	0.500
418.000	283.678	80.007	19.995	103.149	19.916	4.197	0.513
418.500	283.926	80.006	19.995	103.151	19.913	4.422	0.505
419.000	284.184	80.006	19.996	103.152	19.914	4.327	0.502
419.500	284.394	80.007	19.994	103.151	19.916	4.214	0.487
420.000	284.675	80.007	19.995	103.152	19.914	4.316	0.479
420.500	284.935	80.007	19.995	103.153	19.914	4.375	0.516
421.000	285.153	80.007	19.995	103.151	19.914	4.310	0.509
421.500	285.418	80.006	19.995	103.151	19.915	4.286	0.480
422.000	285.651	80.006	19.995	103.152	19.916	4.187	0.490
422.500	285.938	80.006	19.996	103.150	19.915	4.259	0.509
423.000	286.149	80.006	19.995	103.150	19.918	4.036	0.509
423.500	286.402	80.006	19.995	103.148	19.916	4.176	0.481
424.000	286.659	80.006	19.995	103.151	19.915	4.244	0.487
424.500	286.917	80.007	19.995	103.149	19.917	4.146	0.512
425.000	287.204	80.006	19.994	103.152	19.916	4.174	0.530
425.500	287.439	80.007	19.995	103.155	19.913	4.416	0.534
426.000	287.662	80.008	19.994	103.160	19.916	4.239	0.490
426.500	287.964	80.006	19.995	103.161	19.916	4.182	0.491
427.000	288.193	80.007	19.995	103.161	19.917	4.141	0.528
427.500	288.463	80.007	19.995	103.159	19.916	4.213	0.515
428.000	288.658	80.007	19.995	103.156	19.917	4.145	0.482
428.500	288.953	80.008	19.995	103.152	19.917	4.140	0.478
429.000	289.182	80.009	19.995	103.149	19.917	4.146	0.507
429.500	289.469	80.009	19.995	103.150	19.916	4.214	0.520
430.000	289.704	80.007	19.995	103.150	19.917	4.132	0.519
430.500	289.926	80.007	19.995	103.151	19.919	3.979	0.489
431.000	290.195	80.008	19.995	103.150	19.920	3.941	0.474
431.500	290.434	80.009	19.995	103.151	19.920	3.894	0.499
432.000	290.716	80.007	19.995	103.149	19.919	3.985	0.515
432.500	290.978	80.008	19.994	103.152	19.915	4.242	0.533
433.000	291.216	80.007	19.995	103.151	19.919	4.012	0.522
433.500	291.467	80.008	19.995	103.153	19.916	4.205	0.495
434.000	291.722	80.007	19.994	103.157	19.915	4.243	0.497
434.500	291.980	80.007	19.995	103.156	19.917	4.146	0.509
435.001	292.251	80.010	19.995	103.151	19.918	4.076	0.521
435.500	292.489	80.008	19.995	103.150	19.917	4.131	0.519
436.000	292.783	80.007	19.995	103.148	19.917	4.161	0.520
436.500	292.998	80.008	19.996	103.148	19.916	4.225	0.521
437.000	293.230	80.008	19.995	103.154	19.913	4.431	0.478
437.500	293.536	80.008	19.995	103.161	19.918	4.099	0.492
438.000	293.749	80.008	19.995	103.168	19.915	4.297	0.528
438.500	294.013	80.008	19.995	103.169	19.916	4.219	0.498
439.000	294.251	80.008	19.995	103.166	19.916	4.180	0.490
439.500	294.489	80.007	19.995	103.158	19.915	4.284	0.489
440.000	294.789	80.007	19.995	103.150	19.917	4.163	0.507
440.500	295.040	80.006	19.996	103.143	19.915	4.295	0.544
441.000	295.274	80.005	19.995	103.143	19.917	4.104	0.518
441.500	295.538	80.008	19.996	103.144	19.915	4.240	0.492
442.000	295.791	80.006	19.995	103.144	19.919	4.027	0.508
442.500	296.024	80.005	19.996	103.145	19.916	4.199	0.502
443.000	296.283	80.007	19.995	103.145	19.916	4.180	0.489
443.500	296.538	80.005	19.996	103.148	19.918	4.083	0.503
444.000	296.809	80.004	19.996	103.151	19.916	4.214	0.521
444.500	297.044	80.004	19.995	103.158	19.917	4.121	0.516
445.000	297.305	80.005	19.995	103.163	19.920	3.891	0.500
445.500	297.587	80.005	19.995	103.165	19.917	4.125	0.519
446.000	297.832	80.005	19.995	103.162	19.915	4.267	0.535
446.500	298.044	80.004	19.996	103.161	19.918	4.038	0.492
447.000	298.320	80.005	19.996	103.157	19.920	3.913	0.473
447.500	298.572	80.005	19.995	103.153	19.919	4.019	0.508
448.000	298.815	80.006	19.995	103.150	19.918	4.070	0.512
448.500	299.070	80.005	19.995	103.152	19.916	4.172	0.497
449.000	299.336	80.005	19.995	103.149	19.919	3.979	0.509
449.500	299.575	80.005	19.995	103.148	19.919	4.004	0.513
450.000	299.859	80.006	19.994	103.147	19.920	3.896	0.514
450.500	300.069	80.005	19.994	103.146	19.917	4.130	0.508
451.000	300.307	80.005	19.995	103.146	19.920	3.924	0.471
451.500	300.585	80.006	19.995	103.150	19.917	4.138	0.482
452.000	300.831	80.005	19.996	103.151	19.916	4.221	0.520
452.500	301.088	80.006	19.994	103.151	19.917	4.159	0.514
453.000	301.316	80.006	19.995	103.152	19.916	4.195	0.494
453.500	301.581	80.007	19.994	103.154	19.915	4.259	0.489
454.000	301.806	80.007	19.994	103.152	19.917	4.168	0.491
454.500	302.097	80.007	19.995	103.150	19.915	4.261	0.503
455.000	302.334	80.006	19.995	103.149	19.917	4.123	0.522
455.500	302.603	80.007	19.994	103.149	19.914	4.312	0.517
456.000	302.837	80.007	19.995	103.148	19.915	4.246	0.505
456.500	303.099	80.007	19.995	103.151	19.917	4.129	0.500
457.000	303.338	80.005	19.994	103.152	19.915	4.253	0.499
457.500	303.606	80.007	19.995	103.153	19.915	4.301	0.504
458.000	303.866	80.006	19.994	103.151	19.917	4.108	0.517
458.500	304.116	80.008	19.994	103.148	19.914	4.316	0.519
459.000	304.362	80.008	19.994	103.141	19.913	4.408	0.503
459.500	304.627	80.006	19.994	103.141	19.915	4.301	0.504
460.000	304.851	80.007	19.995	103.141	19.915	4.286	0.500
460.500	305.087	80.005	19.995	103.141	19.915	4.263	0.474
461.000	305.346	80.006	19.995	103.141	19.912	4.499	0.477
461.500	305.592	80.007	19.994	103.142	19.914	4.314	0.500
462.000	305.892	80.007	19.994	103.144	19.911	4.541	0.525
462.500	306.119	80.006	19.995	103.147	19.912	4.461	0.536
463.000	306.367	80.007	19.995	103.148	19.912	4.514	0.501
463.500	306.599	80.005	19.995	103.148	19.913	4.384	0.478
464.000	306.858	80.007	19.995	103.150	19.912	4.457	0.485
464.500	307.126	80.007	19.996	103.148	19.914	4.340	0.509
465.000	307.374	80.007	19.994	103.145	19.912	4.476	0.522
465.500	307.631	80.006	19.995	103.144	19.913	4.406	0.511
466.000	307.861	80.007	19.995	103.144	19.913	4.442	0.496
466.500	308.096	80.007	19.994	103.141	19.912	4.514	0.476
467.000	308.367	80.006	19.995	103.141	19.913	4.431	0.486
467.500	308.605	80.007	19.994	103.144	19.912	4.471	0.507
468.000	308.877	80.006	19.994	103.145	19.912	4.512	0.509
468.500	309.074	80.008	19.995	103.145	19.911	4.539	0.490
469.000	309.352	80.007	19.995	103.145	19.910	4.618	0.472
469.500	309.634	80.008	19.994	103.147	19.911	4.520	0.518
470.000	309.852	80.006	19.995	103.144	19.911	4.539	0.530
470.500	310.091	80.007	19.995	103.143	19.909	4.716	0.478
471.000	310.331	80.006	19.995	103.145	19.911	4.571	0.468
471.500	310.600	80.006	19.995	103.147	19.910	4.611	0.494
472.000	310.820	80.005	19.995	103.145	19.911	4.565	0.499
472.500	311.098	80.005	19.995	103.148	19.912	4.488	0.494
473.000	311.355	80.005	19.995	103.148	19.913	4.423	0.517
473.500	311.610	80.007	19.994	103.146	19.909	4.703	0.524
474.000	311.846	80.004	19.995	103.144	19.909	4.665	0.502
474.500	312.071	80.005	19.995	103.144	19.906	4.873	0.476
475.000	312.383	80.006	19.995	103.142	19.906	4.871	0.498
475.500	312.582	80.005	19.995	103.142	19.906	4.907	0.524
476.000	312.825	80.005	19.995	103.141	19.909	4.722	0.477
476.500	313.090	80.005	19.995	103.142	19.905	4.972	0.475
477.000	313.382	80.006	19.994	103.143	19.907	4.813	0.533
477.501	313.623	80.005	19.995	103.143	19.907	4.845	0.545
478.000	313.871	80.006	19.995	103.143	19.905	4.996	0.511
478.500	314.155	80.005	19.995	103.143	19.904	5.032	0.511
479.000	314.387	80.007	19.996	103.142	19.904	5.021	0.524
479.500	314.610	80.006	19.995	103.142	19.905	4.958	0.485
480.000	314.846	80.006	19.995	103.142	19.902	5.200	0.457
480.500	315.099	80.006	19.995	103.142	19.903	5.104	0.474
481.000	315.398	80.005	19.995	103.142	19.905	4.998	0.521
481.500	315.582	80.006	19.995	103.142	19.903	5.081	0.518
482.000	315.864	80.006	19.995	103.143	19.904	5.076	0.474
482.500	316.167	80.005	19.994	103.142	19.902	5.206	0.525
483.000	316.390	80.005	19.995	103.142	19.902	5.176	0.555
483.500	316.639	80.005	19.995	103.142	19.902	5.193	0.499
484.000	316.887	80.006	19.995	103.142	19.900	5.308	0.484
484.500	317.122	80.007	19.995	103.142	19.901	5.276	0.490
485.000	317.401	80.005	19.995	103.142	19.900	5.314	0.499
485.500	317.657	80.006	19.995	103.142	19.899	5.410	0.524
486.000	317.921	80.006	19.995	103.142	19.901	5.268	0.527
486.500	318.180	80.008	19.994	103.143	19.900	5.318	0.522
487.000	318.413	80.004	19.995	103.143	19.899	5.393	0.508
487.500	318.659	80.007	19.995	103.143	19.900	5.346	0.485
488.000	318.887	80.006	19.995	103.143	19.902	5.172	0.477
488.500	319.130	80.007	19.995	103.144	19.899	5.378	0.473
489.000	319.381	80.007	19.994	103.143	19.900	5.327	0.482
489.500	319.641	80.006	19.995	103.143	19.898	5.427	0.502
490.000	319.875	80.007	19.994	103.144	19.897	5.524	0.503
490.500	320.163	80.007	19.994	103.144	19.899	5.361	0.509
491.000	320.395	80.009	19.994	103.144	19.897	5.509	0.521
491.500	320.636	80.006	19.994	103.144	19.896	5.569	0.496
492.000	320.912	80.007	19.994	103.144	19.897	5.520	0.495
492.500	321.176	80.006	19.994	103.144	19.897	5.497	0.528
493.000	321.423	80.007	19.994	103.144	19.894	5.712	0.525
493.500	321.657	80.006	19.994	103.144	19.896	5.631	0.496
494.001	321.892	80.007	19.994	103.143	19.896	5.620	0.475
494.500	322.135	80.007	19.993	103.144	19.896	5.606	0.474
495.000	322.427	80.007	19.994	103.141	19.894	5.730	0.507
495.500	322.620	80.007	19.994	103.141	19.895	5.669	0.510
496.000	322.915	80.008	19.994	103.142	19.892	5.877	0.487
496.500	323.156	80.008	19.994	103.142	19.895	5.682	0.512
497.000	323.442	80.007	19.994	103.142	19.897	5.535	0.532
497.500	323.638	80.007	19.995	103.144	19.895	5.675	0.504
498.000	323.888	80.008	19.995	103.144	19.894	5.752	0.464
498.500	324.147	80.007	19.994	103.144	19.895	5.675	0.477
499.000	324.377	80.007	19.994	103.142	19.894	5.760	0.499
499.500	324.686	80.010	19.994	103.142	19.890	6.032	0.514
500.000	324.923	80.006	19.995	103.142	19.894	5.707	0.542
500.500	325.167	80.006	19.995	103.142	19.892	5.911	0.513
501.000	325.430	80.006	19.994	103.143	19.891	5.973	0.494
501.500	325.671	80.008	19.994	103.145	19.891	5.954	0.506
502.000	325.963	80.007	19.996	103.145	19.888	6.145	0.518
502.501	326.197	80.008	19.994	103.145	19.891	5.952	0.529
503.000	326.462	80.007	19.994	103.145	19.888	6.138	0.513
503.500	326.687	80.008	19.994	103.140	19.888	6.176	0.494
504.000	326.965	80.007	19.995	103.136	19.889	6.123	0.496
504.500	327.190	80.007	19.995	103.137	19.887	6.225	0.503
505.000	327.453	80.006	19.994	103.136	19.887	6.263	0.496
505.500	327.704	80.006	19.995	103.136	19.888	6.149	0.501
506.000	327.922	80.006	19.996	103.140	19.886	6.280	0.491
506.500	328.200	80.006	19.994	103.142	19.887	6.261	0.482
507.000	328.434	80.008	19.995	103.141	19.885	6.401	0.504
507.500	328.650	80.007	19.994	103.140	19.884	6.463	0.481
508.000	328.944	80.007	19.995	103.138	19.885	6.361	0.480
508.500	329.186	80.007	19.994	103.138	19.886	6.308	0.523
509.000	329.464	80.006	19.995	103.139	19.882	6.554	0.528
509.500	329.739	80.007	19.995	103.140	19.880	6.716	0.537
510.000	329.976	80.007	19.995	103.142	19.884	6.406	0.533
510.500	330.175	80.006	19.994	103.145	19.883	6.493	0.474
511.000	330.452	80.007	19.995	103.145	19.882	6.561	0.456
511.500	330.719	80.007	19.995	103.141	19.881	6.642	0.510
512.000	330.974	80.007	19.995	103.141	19.881	6.659	0.533
512.500	331.218	80.006	19.995	103.138	19.878	6.875	0.511
513.000	331.459	80.007	19.994	103.139	19.881	6.619	0.492
513.500	331.723	80.006	19.994	103.138	19.876	6.978	0.495
514.000	331.963	80.007	19.995	103.142	19.880	6.729	0.505
514.500	332.214	80.007	19.994	103.143	19.878	6.823	0.498
515.000	332.468	80.007	19.994	103.144	19.876	6.984	0.498
515.500	332.708	80.007	19.995	103.143	19.873	7.180	0.499
516.000	332.982	80.008	19.994	103.143	19.873	7.196	0.503
516.500	333.246	80.008	19.994	103.143	19.871	7.324	0.526
517.000	333.507	80.009	19.994	103.142	19.871	7.370	0.532
517.500	333.733	80.008	19.995	103.141	19.872	7.298	0.506
518.000	333.976	80.007	19.995	103.141	19.870	7.383	0.478
518.500	334.283	80.009	19.995	103.141	19.871	7.313	0.509
519.000	334.499	80.009	19.994	103.141	19.870	7.389	0.536
519.500	334.782	80.009	19.995	103.142	19.872	7.296	0.511
520.000	335.011	80.009	19.994	103.142	19.869	7.489	0.506
520.500	335.262	80.008	19.994	103.141	19.871	7.336	0.496
521.000	335.538	80.008	19.995	103.141	19.869	7.466	0.504
521.500	335.768	80.009	19.994	103.140	19.868	7.539	0.517
522.000	335.992	80.008	19.995	103.139	19.868	7.575	0.480
522.500	336.266	80.008	19.995	103.136	19.866	7.720	0.476
523.000	336.504	80.008	19.995	103.136	19.865	7.753	0.505
523.500	336.728	80.008	19.995	103.134	19.865	7.729	0.487
524.000	337.011	80.007	19.994	103.132	19.865	7.795	0.485
524.500	337.270	80.006	19.995	103.129	19.863	7.886	0.525
525.000	337.498	80.008	19.994	103.131	19.861	8.065	0.514
525.500	337.782	80.007	19.994	103.128	19.862	8.001	0.500
526.000	338.013	80.007	19.995	103.126	19.858	8.251	0.514
526.500	338.285	80.005	19.995	103.125	19.860	8.119	0.509
527.000	338.546	80.006	19.995	103.129	19.857	8.327	0.518
527.500	338.764	80.006	19.996	103.130	19.855	8.438	0.506
528.000	339.019	80.004	19.995	103.132	19.858	8.257	0.476
528.500	339.252	80.008	19.996	103.133	19.859	8.202	0.481
529.000	339.507	80.006	19.995	103.134	19.853	8.591	0.488
529.500	339.723	80.006	19.996	103.134	19.858	8.222	0.479
530.000	339.957	80.004	19.996	103.134	19.855	8.493	0.460
530.500	340.213	80.006	19.995	103.136	19.855	8.487	0.470
531.000	340.470	80.006	19.995	103.138	19.849	8.880	0.502
531.500	340.707	80.005	19.995	103.136	19.849	8.908	0.504
532.000	340.970	80.006	19.995	103.130	19.853	8.634	0.497
532.500	341.233	80.006	19.995	103.124	19.846	9.061	0.513
533.000	341.474	80.006	19.995	103.121	19.846	9.063	0.514
533.500	341.729	80.005	19.996	103.122	19.847	9.054	0.500
534.000	341.987	80.006	19.996	103.124	19.845	9.175	0.505
534.500	342.263	80.004	19.996	103.130	19.843	9.310	0.524
535.000	342.488	80.006	19.996	103.135	19.841	9.432	0.517
535.500	342.744	80.005	19.996	103.134	19.840	9.505	0.491
536.000	342.978	80.005	19.996	103.134	19.838	9.641	0.486
536.500	343.210	80.005	19.995	103.135	19.836	9.821	0.478
537.000	343.430	80.006	19.996	103.136	19.835	9.834	0.459
537.500	343.691	80.005	19.995	103.137	19.837	9.704	0.467
538.000	343.940	80.004	19.996	103.139	19.833	10.014	0.495
538.500	344.204	80.006	19.996	103.139	19.834	9.894	0.511
539.000	344.450	80.006	19.995	103.139	19.834	9.895	0.512
539.500	344.693	80.005	19.996	103.137	19.833	10.027	0.500
540.000	344.918	80.004	19.997	103.135	19.829	10.254	0.478
540.501	345.181	80.005	19.996	103.134	19.824	10.605	0.478
541.000	345.419	80.005	19.996	103.134	19.826	10.518	0.495
541.500	345.672	80.007	19.995	103.134	19.826	10.475	0.496
542.000	345.957	80.006	19.996	103.131	19.824	10.655	0.514
542.500	346.186	80.005	19.996	103.130	19.823	10.690	0.526
543.000	346.402	80.006	19.996	103.132	19.821	10.849	0.479
543.500	346.718	80.006	19.996	103.133	19.818	11.033	0.488
544.000	346.910	80.005	19.996	103.134	19.816	11.196	0.520
544.500	347.195	80.006	19.994	103.138	19.816	11.160	0.493
545.000	347.423	80.007	19.996	103.139	19.816	11.203	0.495
545.500	347.665	80.007	19.995	103.138	19.815	11.269	0.491
546.000	347.965	80.007	19.996	103.133	19.813	11.358	0.506
546.500	348.205	80.007	19.995	103.130	19.811	11.553	0.540
547.000	348.409	80.006	19.995	103.126	19.809	11.649	0.492
547.500	348.683	80.008	19.995	103.127	19.809	11.678	0.462
548.000	348.939	80.007	19.995	103.126	19.807	11.814	0.504
548.500	349.184	80.009	19.995	103.132	19.805	11.969	0.516
549.000	349.455	80.007	19.994	103.135	19.803	12.086	0.508
549.500	349.671	80.007	19.996	103.138	19.798	12.418	0.501
550.000	349.930	80.009	19.995	103.133	19.798	12.465	0.481
550.500	350.197	80.005	19.995	103.131	19.798	12.429	0.501
551.000	350.442	80.007	19.995	103.131	19.797	12.535	0.519
551.500	350.663	80.007	19.994	103.128	19.797	12.487	0.489
552.000	350.907	80.007	19.994	103.123	19.794	12.732	0.466
552.500	351.152	80.006	19.994	103.127	19.792	12.832	0.477
553.000	351.404	80.006	19.994	103.130	19.787	13.175	0.493
553.500	351.689	80.007	19.994	103.128	19.791	12.948	0.517
554.000	351.931	80.006	19.995	103.130	19.784	13.404	0.532
554.500	352.189	80.006	19.995	103.136	19.783	13.452	0.513
555.000	352.420	80.006	19.995	103.138	19.780	13.687	0.495
555.500	352.647	80.007	19.995	103.137	19.781	13.655	0.473
556.000	352.918	80.007	19.994	103.135	19.779	13.750	0.478
556.500	353.161	80.006	19.995	103.134	19.777	13.898	0.506
557.000	353.419	80.005	19.995	103.134	19.776	13.989	0.508
557.500	353.693	80.006	19.995	103.133	19.773	14.202	0.517
558.000	353.894	80.006	19.995	103.134	19.772	14.282	0.503
558.500	354.179	80.006	19.994	103.139	19.771	14.305	0.480
559.000	354.401	80.005	19.995	103.140	19.769	14.462	0.496
559.500	354.689	80.003	19.995	103.138	19.763	14.895	0.508
560.000	354.911	80.004	19.995	103.137	19.764	14.846	0.510
560.500	355.171	80.004	19.995	103.131	19.764	14.807	0.496
561.000	355.442	80.005	19.994	103.128	19.762	14.939	0.506
561.500	355.653	80.006	19.995	103.129	19.760	15.098	0.507
562.000	355.888	80.003	19.996	103.130	19.757	15.287	0.464
562.500	356.166	80.006	19.994	103.126	19.755	15.456	0.479
563.000	356.407	80.004	19.994	103.130	19.755	15.459	0.516
563.500	356.667	80.006	19.994	103.127	19.748	15.906	0.510
564.000	356.893	80.005	19.995	103.125	19.748	15.931	0.493
564.500	357.168	80.007	19.995	103.123	19.743	16.294	0.493
565.000	357.409	80.007	19.995	103.126	19.743	16.289	0.509
565.500	357.636	80.005	19.996	103.127	19.740	16.509	0.492
566.000	357.949	80.005	19.994	103.132	19.737	16.732	0.504
566.500	358.167	80.005	19.996	103.135	19.733	16.987	0.535
567.000	358.388	80.007	19.996	103.139	19.735	16.859	0.485
567.500	358.649	80.006	19.995	103.142	19.728	17.355	0.461
568.000	358.890	80.009	19.994	103.142	19.732	17.039	0.492
568.500	359.082	80.005	19.994	103.139	19.730	17.217	0.468
569.000	359.380	80.006	19.994	103.135	19.727	17.416	0.461
569.500	359.543	80.006	19.995	103.133	19.725	17.563	0.475
570.000	359.845	80.006	19.995	103.133	19.722	17.763	0.463
570.500	360.110	80.008	19.995	103.134	19.717	18.091	0.516
571.000	360.374	80.005	19.995	103.137	19.716	18.172	0.548
571.500	360.654	80.006	19.994	103.141	19.713	18.399	0.537
572.000	360.888	80.006	19.994	103.143	19.707	18.808	0.529
572.500	361.175	80.006	19.994	103.143	19.707	18.787	0.517
573.000	361.349	80.007	19.995	103.144	19.705	18.920	0.491
573.500	361.649	80.006	19.995	103.143	19.702	19.164	0.467
574.000	361.902	80.008	19.995	103.141	19.700	19.274	0.513
574.500	362.126	80.009	19.994	103.137	19.696	19.535	0.514
575.000	362.423	80.006	19.994	103.137	19.694	19.670	0.499
575.500	362.687	80.007	19.994	103.135	19.694	19.709	0.541
576.000	362.908	80.005	19.995	103.133	19.689	20.054	0.523
576.500	363.137	80.006	19.995	103.135	19.687	20.188	0.468
577.000	363.375	80.006	19.994	103.136	19.687	20.199	0.458
577.500	363.643	80.008	19.995	103.135	19.681	20.598	0.486
578.000	363.923	80.007	19.995	103.136	19.679	20.771	0.527
578.500	364.150	80.005	19.994	103.139	19.675	21.038	0.528
579.000	364.384	80.005	19.994	103.138	19.671	21.275	0.484
579.500	364.630	80.006	19.995	103.140	19.668	21.531	0.470
580.000	364.893	80.006	19.994	103.142	19.665	21.754	0.494
580.500	365.183	80.006	19.994	103.141	19.661	22.029	0.531
581.001	365.382	80.006	19.994	103.141	19.657	22.259	0.521
581.500	365.702	80.006	19.994	103.143	19.657	22.294	0.504
582.000	365.919	80.006	19.994	103.143	19.648	22.895	0.528
582.500	366.201	80.007	19.994	103.141	19.648	22.928	0.518
583.000	366.413	80.008	19.994	103.140	19.646	23.031	0.497
583.500	366.673	80.006	19.994	103.139	19.642	23.357	0.483
584.000	366.908	80.007	19.994	103.139	19.638	23.627	0.484
584.500	367.201	80.007	19.994	103.139	19.634	23.889	0.512
585.000	367.435	80.006	19.994	103.141	19.631	24.122	0.527
585.500	367.704	80.008	19.994	103.143	19.628	24.306	0.514
586.000	367.935	80.006	19.994	103.137	19.623	24.624	0.502
586.500	368.204	80.006	19.994	103.132	19.622	24.750	0.501
587.000	368.438	80.005	19.994	103.128	19.617	25.100	0.502
587.500	368.739	80.006	19.994	103.121	19.616	25.168	0.519
588.000	369.017	80.007	19.994	103.115	19.611	25.467	0.557
588.500	369.264	80.005	19.994	103.118	19.604	25.997	0.552
589.000	369.499	80.006	19.995	103.123	19.605	25.892	0.503
589.500	369.750	80.007	19.994	103.125	19.599	26.350	0.484
590.000	370.000	80.008	19.994	103.131	19.596	26.522	0.493
590.500	370.278	80.007	19.995	103.136	19.593	26.771	0.514
591.000	370.509	80.005	19.994	103.133	19.587	27.195	0.519
591.500	370.785	80.006	19.994	103.129	19.584	27.382	0.508
592.000	371.040	80.007	19.995	103.128	19.580	27.680	0.519
592.500	371.280	80.007	19.995	103.128	19.579	27.712	0.513
593.000	371.540	80.008	19.994	103.130	19.574	28.057	0.498
593.500	371.793	80.006	19.995	103.136	19.568	28.461	0.507
594.000	372.026	80.008	19.994	103.138	19.564	28.763	0.499
594.500	372.318	80.008	19.995	103.140	19.562	28.882	0.505
595.000	372.518	80.007	19.994	103.140	19.555	29.406	0.509
595.500	372.823	80.008	19.995	103.139	19.554	29.473	0.499
596.000	373.096	80.008	19.994	103.138	19.545	30.081	0.541
596.500	373.328	80.009	19.994	103.133	19.543	30.235	0.541
597.000	373.571	80.009	19.995	103.129	19.537	30.632	0.490
597.500	373.848	80.008	19.996	103.127	19.535	30.828	0.497
598.000	374.089	80.009	19.995	103.127	19.532	31.025	0.519
598.500	374.352	80.008	19.995	103.129	19.524	31.556	0.511
599.000	374.599	80.009	19.995	103.135	19.521	31.751	0.507
599.501	374.894	80.008	19.995	103.139	19.518	31.984	0.526
600.001	375.110	80.008	19.995	103.141	19.513	32.307	0.526
600.500	375.351	80.009	19.995	103.139	19.509	32.619	0.484
601.000	375.588	80.008	19.995	103.138	19.503	33.060	0.467
601.500	375.863	80.009	19.995	103.136	19.500	33.274	0.495
602.000	376.133	80.010	19.995	103.137	19.493	33.716	0.529
602.500	376.379	80.009	19.996	103.136	19.489	33.990	0.531
603.000	376.655	80.009	19.995	103.135	19.481	34.585	0.519
603.500	376.882	80.007	19.995	103.136	19.477	34.882	0.512
604.000	377.173	80.008	19.995	103.136	19.474	35.058	0.511
604.500	377.387	80.008	19.996	103.135	19.467	35.523	0.512
605.000	377.666	80.010	19.995	103.134	19.460	36.070	0.499
605.500	377.903	80.008	19.996	103.135	19.458	36.182	0.504
606.000	378.147	80.007	19.995	103.136	19.450	36.748	0.498
606.500	378.431	80.007	19.995	103.137	19.444	37.134	0.505
607.000	378.663	80.007	19.995	103.138	19.439	37.534	0.522
607.501	378.909	80.007	19.995	103.139	19.435	37.795	0.496
608.001	379.151	80.007	19.995	103.138	19.431	38.057	0.482
608.501	379.421	80.007	19.995	103.136	19.420	38.830	0.500
609.000	379.709	80.006	19.996	103.134	19.418	38.964	0.535
609.500	379.962	80.004	19.996	103.133	19.411	39.431	0.549
610.000	380.189	80.006	19.995	103.134	19.407	39.713	0.510
610.500	380.436	80.005	19.995	103.135	19.403	40.012	0.477
611.000	380.662	80.007	19.995	103.139	19.397	40.424	0.474
611.500	380.926	80.006	19.995	103.141	19.392	40.754	0.482
612.000	381.162	80.005	19.995	103.142	19.384	41.340	0.495
612.500	381.426	80.006	19.996	103.142	19.380	41.629	0.500
613.000	381.655	80.006	19.995	103.143	19.373	42.136	0.497
613.500	381.929	80.006	19.995	103.141	19.368	42.442	0.498
614.000	382.212	80.007	19.995	103.141	19.362	42.851	0.530
614.500	382.483	80.006	19.995	103.141	19.355	43.399	0.555
615.000	382.708	80.007	19.995	103.141	19.350	43.727	0.525
615.500	382.975	80.006	19.995	103.142	19.343	44.223	0.494
616.000	383.214	80.008	19.995	103.144	19.337	44.591	0.499
616.500	383.497	80.005	19.995	103.144	19.331	45.066	0.514
617.000	383.721	80.005	19.995	103.142	19.324	45.558	0.515
617.500	383.944	80.005	19.995	103.142	19.319	45.860	0.477
618.000	384.228	80.004	19.996	103.140	19.313	46.288	0.477
618.500	384.486	80.006	19.994	103.141	19.303	46.970	0.525
619.000	384.735	80.007	19.995	103.140	19.298	47.329	0.525
619.500	384.969	80.006	19.995	103.143	19.291	47.823	0.495
620.000	385.183	80.005	19.995	103.142	19.283	48.383	0.465
620.500	385.462	80.006	19.996	103.142	19.279	48.672	0.471
621.000	385.742	80.006	19.995	103.143	19.268	49.437	0.527
621.500	385.949	80.006	19.995	103.144	19.264	49.725	0.523
622.000	386.246	80.005	19.995	103.144	19.255	50.349	0.495
622.500	386.439	80.005	19.994	103.144	19.248	50.813	0.497
623.000	386.729	80.003	19.996	103.143	19.239	51.450	0.486
623.500	386.962	80.005	19.996	103.143	19.233	51.877	0.502
624.000	387.229	80.005	19.995	103.142	19.225	52.439	0.511
624.500	387.493	80.006	19.994	103.143	19.218	52.936	0.516
625.000	387.767	80.006	19.995	103.144	19.211	53.432	0.535
625.500	387.995	80.005	19.995	103.145	19.203	54.001	0.520
626.000	388.251	80.004	19.996	103.146	19.193	54.663	0.493
626.500	388.470	80.005	19.995	103.147	19.189	54.967	0.480
627.000	388.726	80.005	19.995	103.147	19.178	55.722	0.475
627.500	389.007	80.006	19.995	103.147	19.170	56.305	0.506
628.000	389.241	80.006	19.996	103.148	19.160	56.965	0.526
628.500	389.492	80.003	19.995	103.146	19.149	57.793	0.500
629.000	389.770	80.004	19.996	103.144	19.141	58.290	0.507
629.500	390.036	80.004	19.996	103.145	19.131	59.004	0.537
630.000	390.285	80.003	19.996	103.144	19.123	59.597	0.530
630.500	390.536	80.005	19.995	103.144	19.114	60.203	0.508
631.000	390.731	80.005	19.995	103.145	19.103	60.941	0.473
631.500	391.030	80.006	19.996	103.145	19.100	61.197	0.470
632.000	391.258	80.004	19.996	103.145	19.085	62.198	0.510
632.500	391.485	80.004	19.996	103.145	19.076	62.855	0.491
633.000	391.775	80.006	19.995	103.145	19.068	63.392	0.486
633.500	392.008	80.006	19.996	103.144	19.059	64.076	0.519
634.000	392.258	80.005	19.996	103.144	19.051	64.589	0.503
634.500	392.528	80.005	19.996	103.144	19.039	65.456	0.502
635.000	392.744	80.004	19.996	103.144	19.032	65.945	0.503
635.500	393.010	80.004	19.996	103.145	19.021	66.699	0.484
636.000	393.244	80.003	19.996	103.146	19.012	67.316	0.491
636.500	393.536	80.005	19.997	103.146	19.000	68.181	0.513
637.000	393.785	80.004	19.996	103.146	18.990	68.849	0.533
637.500	393.999	80.004	19.995	103.150	18.979	69.643	0.502
638.000	394.271	80.005	19.996	103.155	18.968	70.425	0.474
638.500	394.501	80.004	19.996	103.161	18.955	71.331	0.493
639.000	394.752	80.005	19.996	103.169	18.946	71.975	0.491
639.500	394.998	80.006	19.995	103.176	18.934	72.806	0.489
640.000	395.276	80.005	19.995	103.179	18.922	73.606	0.511
640.500	395.500	80.005	19.995	103.174	18.912	74.340	0.513
641.000	395.731	80.004	19.996	103.169	18.903	74.959	0.478
641.501	395.954	80.006	19.995	103.165	18.887	76.034	0.455
642.000	396.166	80.005	19.995	103.162	18.877	76.744	0.445
642.500	396.454	80.005	19.995	103.158	18.863	77.720	0.468
643.000	396.672	80.005	19.994	103.161	18.850	78.623	0.503
643.500	396.942	80.005	19.995	103.165	18.836	79.615	0.496
644.000	397.162	80.004	19.995	103.169	18.825	80.425	0.489
644.500	397.427	80.005	19.995	103.171	18.812	81.268	0.488
645.000	397.630	80.006	19.994	103.175	18.800	82.111	0.477
645.500	397.916	80.005	19.994	103.177	18.789	82.903	0.478
646.000	398.142	80.006	19.995	103.178	18.777	83.745	0.500
646.500	398.401	80.005	19.995	103.178	18.767	84.431	0.498
647.000	398.683	80.005	19.994	103.179	18.751	85.542	0.513
647.500	398.882	80.007	19.994	103.181	18.736	86.590	0.511
648.000	399.123	80.005	19.995	103.180	18.719	87.783	0.460
648.500	399.361	80.007	19.995	103.181	18.707	88.663	0.460
649.000	399.611	80.006	19.995	103.182	18.693	89.617	0.484
649.500	399.866	80.006	19.995	103.182	18.679	90.595	0.497
650.000	400.080	80.006	19.994	103.183	18.667	91.490	0.487
650.500	400.393	80.007	19.994	103.185	18.652	92.477	0.498
651.000	400.553	80.006	19.995	103.184	18.634	93.764	0.500
651.500	400.815	80.007	19.994	103.182	18.624	94.446	0.447
652.000	401.049	80.006	19.995	103.180	18.605	95.775	0.458
652.500	401.304	80.007	19.995	103.179	18.592	96.724	0.492
653.000	401.529	80.007	19.995	103.179	18.577	97.738	0.485
653.500	401.769	80.006	19.994	103.178	18.560	98.906	0.472
654.000	402.017	80.006	19.995	103.180	18.542	100.161	0.477
654.500	402.292	80.008	19.995	103.181	18.531	100.972	0.506
655.000	402.509	80.008	19.995	103.182	18.515	102.086	0.508
655.500	402.735	80.007	19.994	103.182	18.496	103.401	0.468
656.000	402.977	80.007	19.995	103.183	18.481	104.451	0.456
656.500	403.242	80.009	19.995	103.183	18.466	105.502	0.487
657.000	403.470	80.007	19.995	103.185	18.449	106.698	0.500
657.500	403.729	80.007	19.995	103.188	18.432	107.923	0.490
658.000	403.963	80.008	19.994	103.193	18.412	109.277	0.490
658.500	404.214	80.007	19.994	103.200	18.395	110.505	0.489
659.000	404.427	80.007	19.995	103.208	18.377	111.737	0.475
659.500	404.646	80.006	19.995	103.213	18.356	113.225	0.448
660.000	404.889	80.008	19.995	103.218	18.337	114.519	0.447
660.500	405.159	80.008	19.995	103.220	18.320	115.750	0.488
661.000	405.381	80.008	19.995	103.221	18.303	116.928	0.502
661.500	405.623	80.006	19.995	103.220	18.282	118.425	0.478
662.000	405.873	80.007	19.995	103.219	18.264	119.643	0.478
662.500	406.069	80.005	19.995	103.217	18.247	120.864	0.469
663.000	406.330	80.008	19.995	103.216	18.226	122.336	0.451
663.500	406.565	80.008	19.995	103.216	18.206	123.722	0.477
664.001	406.813	80.006	19.995	103.216	18.188	124.994	0.489
664.500	407.072	80.006	19.995	103.215	18.167	126.425	0.495
665.000	407.315	80.007	19.995	103.218	18.147	127.821	0.505
665.500	407.561	80.007	19.995	103.219	18.128	129.165	0.495
666.000	407.768	80.008	19.995	103.219	18.105	130.741	0.471
666.500	408.042	80.006	19.995	103.220	18.084	132.257	0.467
667.000	408.271	80.006	19.994	103.223	18.062	133.795	0.492
667.500	408.498	80.006	19.995	103.229	18.043	135.105	0.479
668.000	408.760	80.006	19.995	103.236	18.019	136.798	0.473
668.500	409.045	80.007	19.995	103.236	17.996	138.396	0.518
669.000	409.261	80.006	19.994	103.237	17.974	139.965	0.524
669.500	409.485	80.007	19.995	103.243	17.950	141.607	0.471
670.000	409.747	80.008	19.995	103.243	17.927	143.235	0.463
670.500	409.996	80.006	19.994	103.244	17.904	144.894	0.498
671.000	410.264	80.006	19.994	103.251	17.880	146.521	0.514
671.500	410.484	80.006	19.994	103.256	17.858	148.081	0.502
672.000	410.744	80.008	19.995	103.255	17.836	149.654	0.484
672.500	410.987	80.008	19.995	103.255	17.812	151.323	0.492
673.000	411.191	80.007	19.995	103.255	17.789	152.919	0.475
673.500	411.440	80.008	19.995	103.255	17.761	154.865	0.450
674.000	411.682	80.008	19.995	103.256	17.735	156.701	0.472
674.500	411.952	80.007	19.994	103.258	17.711	158.390	0.502
675.000	412.218	80.008	19.994	103.259	17.687	160.062	0.524
675.500	412.455	80.007	19.995	103.259	17.666	161.538	0.520
676.000	412.696	80.008	19.995	103.259	17.637	163.579	0.491
676.500	412.917	80.008	19.994	103.260	17.610	165.420	0.470
677.000	413.160	80.007	19.995	103.260	17.586	167.147	0.463
677.500	413.407	80.009	19.995	103.263	17.559	169.001	0.477
678.000	413.658	80.008	19.995	103.267	17.535	170.675	0.494
678.500	413.865	80.009	19.994	103.270	17.507	172.629	0.479
679.000	414.144	80.009	19.994	103.274	17.481	174.430	0.472
679.500	414.380	80.009	19.994	103.281	17.452	176.479	0.500
680.000	414.631	80.008	19.994	103.283	17.427	178.237	0.501
680.500	414.888	80.009	19.994	103.287	17.401	180.088	0.498
681.000	415.109	80.007	19.994	103.293	17.369	182.302	0.493
681.500	415.377	80.009	19.995	103.294	17.344	184.087	0.483
682.000	415.636	80.009	19.994	103.295	17.317	186.014	0.508
682.500	415.836	80.010	19.994	103.298	17.287	188.052	0.493
683.000	416.079	80.008	19.994	103.298	17.262	189.836	0.452
683.500	416.370	80.009	19.995	103.297	17.233	191.882	0.489
684.000	416.610	80.009	19.993	103.293	17.205	193.796	0.532
684.500	416.843	80.009	19.994	103.291	17.180	195.568	0.502
685.000	417.106	80.009	19.994	103.291	17.146	197.949	0.484
685.500	417.342	80.008	19.995	103.296	17.122	199.652	0.497
686.000	417.584	80.008	19.994	103.299	17.089	201.953	0.488
686.500	417.913	80.008	19.995	103.308	17.058	204.116	0.525
687.000	418.105	80.007	19.994	103.315	17.032	205.906	0.546
687.500	418.368	80.007	19.994	103.316	17.004	207.857	0.488
688.000	418.643	80.007	19.994	103.311	16.975	209.890	0.497
688.500	418.861	80.006	19.995	103.309	16.942	212.182	0.516
689.000	419.097	80.007	19.995	103.306	16.914	214.150	0.473
689.500	419.391	80.007	19.994	103.305	16.887	216.082	0.492
690.000	419.620	80.006	19.994	103.305	16.856	218.270	0.526
690.500	419.855	80.006	19.996	103.310	16.825	220.410	0.493
691.000	420.111	80.006	19.994	103.317	16.800	222.195	0.477
691.500	420.366	80.007	19.994	103.323	16.768	224.379	0.501
692.000	420.609	80.005	19.994	103.329	16.742	226.257	0.505
692.500	420.896	80.006	19.996	103.335	16.713	228.261	0.514
693.000	421.119	80.006	19.996	103.338	16.685	230.244	0.520
693.500	421.384	80.005	19.996	103.337	16.653	232.475	0.499
694.000	421.610	80.006	19.997	103.337	16.628	234.258	0.490
694.500	421.876	80.005	19.995	103.337	16.600	236.201	0.491
695.000	422.075	80.005	19.995	103.338	16.569	238.353	0.478
695.500	422.346	80.007	19.996	103.337	16.542	240.245	0.468
696.000	422.631	80.005	19.997	103.339	16.515	242.104	0.513
696.500	422.873	80.005	19.995	103.342	16.489	243.951	0.542
697.000	423.119	80.006	19.996	103.343	16.461	245.899	0.508
697.500	423.341	80.007	19.995	103.343	16.436	247.670	0.477
698.000	423.645	80.006	19.996	103.343	16.410	249.505	0.497
698.500	423.871	80.006	19.995	103.344	16.387	251.102	0.528
699.000	424.133	80.006	19.996	103.341	16.359	253.057	0.509
699.500	424.381	80.005	19.995	103.340	16.336	254.654	0.499
700.000	424.633	80.005	19.995	103.340	16.310	256.500	0.505
700.500	424.887	80.006	19.996	103.342	16.290	257.840	0.503
701.000	425.171	80.005	19.995	103.345	16.268	259.403	0.522
701.500	425.427	80.006	19.996	103.350	16.243	261.186	0.539
702.000	425.666	80.006	19.996	103.354	16.219	262.780	0.517
702.500	425.918	80.005	19.994	103.356	16.196	264.472	0.493
703.000	426.160	80.006	19.995	103.357	16.170	266.232	0.493
703.500	426.421	80.005	19.995	103.357	16.149	267.698	0.499
704.000	426.660	80.005	19.995	103.361	16.130	269.055	0.502
704.500	426.918	80.004	19.995	103.366	16.107	270.640	0.499
705.000	427.167	80.005	19.995	103.365	16.085	272.161	0.502
705.500	427.397	80.006	19.995	103.361	16.065	273.545	0.493
706.000	427.683	80.005	19.995	103.356	16.045	274.990	0.498
706.500	427.921	80.005	19.996	103.358	16.026	276.271	0.520
707.000	428.187	80.006	19.995	103.361	16.006	277.663	0.514
707.500	428.458	80.004	19.995	103.362	15.991	278.756	0.520
708.000	428.673	80.006	19.996	103.365	15.974	279.952	0.511
708.500	428.975	80.006	19.995	103.375	15.959	281.009	0.501
709.000	429.195	80.006	19.995	103.376	15.943	282.078	0.519
709.500	429.430	80.006	19.994	103.363	15.927	283.216	0.489
710.000	429.657	80.006	19.996	103.364	15.911	284.344	0.459
710.500	429.938	80.006	19.995	103.375	15.899	285.213	0.485
711.000	430.198	80.006	19.996	103.365	15.881	286.422	0.524
711.500	430.446	80.007	19.995	103.355	15.869	287.276	0.524
712.000	430.707	80.006	19.995	103.369	15.858	288.076	0.509
712.500	430.917	80.007	19.996	103.364	15.846	288.920	0.491
713.000	431.189	80.006	19.995	103.355	15.835	289.686	0.477
713.500	431.411	80.006	19.995	103.365	15.825	290.380	0.488
714.000	431.723	80.006	19.995	103.360	15.816	290.988	0.514
714.500	431.971	80.006	19.995	103.358	15.805	291.732	0.546
715.000	432.245	80.006	19.994	103.359	15.797	292.342	0.540
715.500	432.461	80.005	19.995	103.354	15.789	292.884	0.506
716.000	432.726	80.005	19.996	103.354	15.782	293.370	0.486
716.500	432.976	80.005	19.996	103.352	15.776	293.809	0.498
717.000	433.237	80.005	19.995	103.348	15.771	294.148	0.513
717.500	433.486	80.006	19.995	103.348	15.764	294.591	0.511
718.000	433.783	80.006	19.996	103.349	15.764	294.615	0.529
718.500	434.026	80.005	19.996	103.349	15.761	294.831	0.543
719.000	434.278	80.005	19.996	103.348	15.759	294.927	0.517
719.500	434.538	80.005	19.996	103.351	15.754	295.308	0.504
720.000	434.762	80.005	19.996	103.351	15.752	295.472	0.498
720.500	435.043	80.005	19.996	103.351	15.753	295.364	0.494
721.000	435.270	80.005	19.996	103.348	15.757	295.085	0.507
721.500	435.565	80.005	19.996	103.348	15.755	295.214	0.515
722.000	435.815	80.005	19.996	103.349	15.759	294.980	0.533
722.500	436.060	80.004	19.996	103.349	15.758	294.991	0.520
723.000	436.292	80.005	19.996	103.354	15.766	294.424	0.486
723.500	436.601	80.005	19.996	103.354	15.770	294.166	0.509
724.000	436.863	80.005	19.998	103.355	15.773	293.950	0.556
724.500	437.120	80.005	19.996	103.354	15.781	293.343	0.545
725.000	437.350	80.004	19.997	103.355	15.785	293.061	0.503
725.500	437.610	80.004	19.997	103.347	15.792	292.581	0.488
726.000	437.905	80.005	19.996	103.351	15.802	291.838	0.523
726.500	438.122	80.004	19.997	103.355	15.807	291.486	0.534
727.000	438.412	80.006	19.996	103.345	15.818	290.762	0.509
727.500	438.649	80.005	19.997	103.353	15.824	290.321	0.517
728.000	438.959	80.005	19.996	103.354	15.837	289.419	0.537
728.500	439.204	80.004	19.996	103.346	15.848	288.687	0.551
729.000	439.425	80.006	19.996	103.358	15.857	288.077	0.510
729.500	439.717	80.007	19.996	103.353	15.870	287.145	0.490
730.000	439.938	80.006	19.996	103.342	15.880	286.422	0.513
730.500	440.204	80.006	19.997	103.353	15.893	285.520	0.500
731.000	440.498	80.006	19.996	103.352	15.906	284.665	0.523
731.500	440.745	80.006	19.997	103.338	15.919	283.726	0.551
732.000	440.989	80.007	19.996	103.340	15.933	282.779	0.517
732.500	441.239	80.006	19.995	103.347	15.946	281.836	0.493
733.000	441.495	80.008	19.995	103.339	15.958	280.993	0.500
733.500	441.754	80.007	19.996	103.330	15.973	279.921	0.510
734.000	442.001	80.006	19.995	103.331	15.990	278.722	0.510
734.500	442.271	80.008	19.995	103.333	16.008	277.472	0.512
735.000	442.508	80.007	19.995	103.329	16.024	276.287	0.512
735.500	442.799	80.007	19.995	103.321	16.039	275.263	0.518
736.000	443.064	80.009	19.995	103.321	16.056	274.050	0.542
736.500	443.349	80.008	19.994	103.316	16.073	272.858	0.553
737.000	443.598	80.007	19.995	103.310	16.092	271.492	0.542
737.500	443.816	80.007	19.995	103.307	16.107	270.462	0.501
738.000	444.143	80.008	19.994	103.311	16.118	269.655	0.506
738.500	444.376	80.008	19.996	103.314	16.136	268.367	0.552
739.000	444.633	80.008	19.994	103.319	16.152	267.263	0.525
739.500	444.913	80.007	19.995	103.322	16.165	266.356	0.513
740.000	445.141	80.009	19.995	103.323	16.179	265.359	0.522
740.500	445.441	80.008	19.995	103.321	16.196	264.154	0.518
741.000	445.656	80.006	19.994	103.319	16.205	263.439	0.522
741.500	445.951	80.007	19.995	103.321	16.220	262.356	0.512
742.000	446.213	80.008	19.994	103.327	16.231	261.587	0.533
742.500	446.455	80.008	19.995	103.332	16.244	260.658	0.531
743.000	446.654	80.009	19.995	103.331	16.255	259.839	0.472
743.500	446.960	80.007	19.995	103.329	16.269	258.909	0.473
744.000	447.205	80.006	19.995	103.322	16.280	258.129	0.528
744.500	447.487	80.006	19.994	103.311	16.293	257.170	0.539
745.000	447.703	80.007	19.994	103.304	16.306	256.272	0.513
745.500	447.958	80.008	19.994	103.305	16.318	255.437	0.485
746.000	448.226	80.007	19.994	103.304	16.334	254.357	0.497
746.500	448.490	80.006	19.995	103.300	16.345	253.605	0.527
747.000	448.753	80.007	19.994	103.292	16.363	252.369	0.529
747.500	448.988	80.008	19.995	103.286	16.379	251.210	0.513
748.000	449.262	80.006	19.995	103.280	16.396	250.050	0.504
748.500	449.555	80.006	19.994	103.274	16.409	249.148	0.538
749.000	449.776	80.005	19.995	103.270	16.429	247.796	0.540
749.500	450.035	80.005	19.995	103.270	16.452	246.166	0.497
750.000	450.285	80.007	19.994	103.266	16.477	244.453	0.495
750.500	450.592	80.007	19.995	103.259	16.503	242.688	0.533
751.000	450.834	80.007	19.995	103.251	16.529	240.876	0.553
751.500	451.154	80.005	19.995	103.242	16.562	238.579	0.555
752.000	451.399	80.006	19.995	103.229	16.594	236.343	0.563
752.500	451.622	80.007	19.995	103.214	16.627	234.039	0.516
753.000	451.899	80.007	19.995	103.203	16.663	231.500	0.484
753.500	452.162	80.007	19.995	103.193	16.703	228.724	0.520
754.000	452.436	80.008	19.995	103.186	16.738	226.272	0.539
754.500	452.737	80.007	19.995	103.183	16.777	223.507	0.556
755.000	452.956	80.007	19.995	103.181	16.819	220.585	0.548
755.500	453.257	80.006	19.994	103.180	16.859	217.714	0.520
756.000	453.524	80.007	19.996	103.180	16.898	214.985	0.544
756.500	453.787	80.008	19.995	103.181	16.942	211.930	0.549
757.000	454.049	80.009	19.995	103.183	16.982	209.131	0.528
757.500	454.328	80.007	19.994	103.187	17.020	206.441	0.533
758.000	454.550	80.009	19.995	103.191	17.060	203.625	0.521
758.500	454.872	80.009	19.995	103.192	17.097	201.064	0.522
759.000	455.148	80.009	19.994	103.199	17.135	198.381	0.571
759.500	455.372	80.009	19.994	103.207	17.171	195.861	0.549
760.000	455.664	80.009	19.994	103.215	17.207	193.324	0.509
760.500	455.936	80.009	19.996	103.223	17.239	191.100	0.540
761.000	456.205	80.010	19.995	103.234	17.273	188.752	0.552
761.500	456.438	80.009	19.995	103.240	17.303	186.664	0.521
762.000	456.718	80.008	19.995	103.246	17.337	184.273	0.508
762.500	456.973	80.008	19.994	103.249	17.368	182.064	0.524
763.000	457.232	80.009	19.995	103.248	17.401	179.756	0.525
763.500	457.516	80.008	19.995	103.248	17.432	177.608	0.529
764.000	457.775	80.008	19.994	103.249	17.461	175.552	0.543
764.500	458.047	80.008	19.994	103.245	17.491	173.519	0.537
765.000	458.317	80.008	19.995	103.239	17.517	171.661	0.536
765.500	458.584	80.008	19.994	103.234	17.547	169.577	0.540
766.000	458.840	80.008	19.995	103.224	17.572	167.849	0.530
766.500	459.133	80.008	19.995	103.211	17.602	165.708	0.536
767.000	459.426	80.007	19.994	103.201	17.627	163.961	0.567
767.500	459.674	80.009	19.994	103.193	17.651	162.274	0.563
768.000	459.916	80.009	19.995	103.186	17.676	160.540	0.516
768.500	460.190	80.007	19.994	103.182	17.699	158.909	0.503
769.000	460.462	80.006	19.994	103.180	17.728	156.900	0.531
769.500	460.713	80.007	19.994	103.174	17.751	155.294	0.535
770.000	460.965	80.005	19.995	103.173	17.774	153.716	0.514
770.500	461.264	80.006	19.994	103.173	17.800	151.871	0.527
771.000	461.511	80.006	19.994	103.169	17.822	150.314	0.548
771.500	461.778	80.005	19.995	103.164	17.848	148.528	0.530
772.000	462.044	80.006	19.994	103.166	17.871	146.911	0.523
772.500	462.315	80.005	19.994	103.159	17.894	145.291	0.535
773.000	462.575	80.006	19.994	103.156	17.918	143.653	0.534
773.500	462.853	80.006	19.994	103.154	17.940	142.083	0.534
774.000	463.117	80.006	19.994	103.153	17.963	140.456	0.540
774.500	463.365	80.006	19.995	103.149	17.987	138.828	0.527
775.000	463.619	80.007	19.993	103.147	18.009	137.258	0.507
775.500	463.853	80.005	19.994	103.144	18.031	135.725	0.495
776.000	464.116	80.006	19.994	103.143	18.054	134.125	0.492
776.500	464.417	80.007	19.995	103.143	18.075	132.663	0.530
777.000	464.659	80.005	19.994	103.143	18.099	130.979	0.554
777.500	464.926	80.006	19.994	103.144	18.120	129.531	0.526
778.000	465.188	80.005	19.995	103.143	18.142	128.008	0.519
778.500	465.434	80.007	19.995	103.136	18.166	126.334	0.518
779.000	465.704	80.007	19.995	103.128	18.186	124.897	0.512
779.500	465.970	80.007	19.995	103.121	18.205	123.607	0.526
780.000	466.194	80.007	19.995	103.114	18.228	122.017	0.514
780.500	466.491	80.006	19.995	103.112	18.249	120.503	0.505
781.000	466.757	80.006	19.996	103.115	18.273	118.855	0.541
781.500	467.008	80.007	19.995	103.119	18.292	117.500	0.540
782.000	467.298	80.006	19.995	103.118	18.311	116.223	0.529
782.500	467.579	80.007	19.995	103.118	18.333	114.659	0.556
783.000	467.811	80.006	19.995	103.116	18.351	113.372	0.542
783.500	468.099	80.006	19.996	103.111	18.375	111.671	0.516
784.000	468.343	80.006	19.995	103.108	18.395	110.312	0.526
784.500	468.605	80.006	19.995	103.109	18.416	108.843	0.519
785.000	468.845	80.007	19.996	103.109	18.434	107.589	0.504
785.500	469.115	80.006	19.996	103.108	18.453	106.261	0.506
786.000	469.366	80.005	19.996	103.109	18.473	104.849	0.516
786.500	469.669	80.006	19.996	103.109	18.496	103.271	0.538
787.000	469.898	80.007	19.995	103.106	18.513	102.095	0.543
787.500	470.162	80.007	19.996	103.105	18.536	100.502	0.512
788.000	470.411	80.004	19.995	103.105	18.555	99.137	0.503
788.500	470.693	80.008	19.996	103.103	18.573	97.924	0.522
789.000	470.959	80.007	19.995	103.103	18.592	96.530	0.539
789.500	471.207	80.007	19.996	103.103	18.612	95.129	0.531
790.000	471.485	80.006	19.996	103.102	18.632	93.769	0.521
790.500	471.730	80.007	19.996	103.101	18.651	92.450	0.524
791.000	471.985	80.006	19.995	103.100	18.669	91.165	0.511
791.500	472.230	80.007	19.996	103.098	18.685	90.082	0.500
792.000	472.494	80.006	19.996	103.098	18.701	88.917	0.504
792.500	472.755	80.005	19.996	103.098	18.722	87.498	0.517
793.000	473.037	80.007	19.995	103.096	18.738	86.391	0.534
793.500	473.281	80.006	19.996	103.091	18.756	85.099	0.534
794.000	473.569	80.007	19.995	103.086	18.774	83.866	0.529
794.500	473.831	80.007	19.995	103.079	18.792	82.628	0.541
795.000	474.086	80.006	19.996	103.080	18.806	81.595	0.534
795.500	474.377	80.006	19.995	103.081	18.826	80.262	0.531
796.000	474.640	80.007	19.995	103.079	18.839	79.354	0.550
796.500	474.863	80.006	19.996	103.080	18.857	78.074	0.520
797.000	475.136	80.006	19.996	103.080	18.873	76.957	0.491
797.500	475.394	80.006	19.995	103.080	18.888	75.924	0.514
798.000	475.652	80.005	19.996	103.079	18.903	74.870	0.524
798.500	475.922	80.005	19.995	103.080	18.919	73.721	0.522
799.000	476.158	80.006	19.994	103.084	18.937	72.491	0.517
799.500	476.419	80.005	19.996	103.083	18.952	71.465	0.501
800.000	476.653	80.006	19.995	103.076	18.965	70.517	0.496
800.500	476.912	80.006	19.995	103.070	18.977	69.666	0.494
801.000	477.188	80.005	19.996	103.069	18.997	68.285	0.513
801.501	477.434	80.005	19.995	103.065	19.007	67.595	0.528
802.000	477.696	80.004	19.995	103.065	19.023	66.504	0.515
802.500	477.972	80.006	19.996	103.065	19.035	65.632	0.524
803.000	478.223	80.005	19.995	103.065	19.049	64.660	0.533
803.500	478.485	80.006	19.996	103.067	19.063	63.666	0.520
804.000	478.746	80.005	19.996	103.066	19.075	62.836	0.518
804.500	479.060	80.005	19.996	103.066	19.093	61.588	0.549
805.000	479.257	80.004	19.996	103.067	19.104	60.857	0.543
805.500	479.520	80.004	19.996	103.066	19.117	59.916	0.485
806.000	479.751	80.004	19.996	103.066	19.130	59.005	0.477
806.500	480.048	80.004	19.996	103.067	19.138	58.434	0.511
807.000	480.295	80.006	19.996	103.067	19.154	57.350	0.536
807.500	480.555	80.005	19.996	103.067	19.167	56.438	0.526
808.000	480.857	80.006	19.996	103.065	19.176	55.846	0.534
808.501	481.105	80.005	19.996	103.064	19.190	54.870	0.556
809.000	481.343	80.006	19.996	103.063	19.201	54.096	0.518
809.500	481.610	80.005	19.996	103.063	19.212	53.274	0.496
810.000	481.863	80.006	19.996	103.063	19.224	52.475	0.512
810.500	482.106	80.006	19.996	103.064	19.235	51.719	0.508
811.000	482.410	80.007	19.996	103.064	19.246	50.920	0.522
811.500	482.626	80.006	19.995	103.063	19.257	50.197	0.534
812.000	482.892	80.005	19.996	103.062	19.269	49.314	0.501
812.500	483.151	80.005	19.996	103.056	19.281	48.492	0.503
813.000	483.408	80.006	19.996	103.049	19.291	47.811	0.520
813.500	483.627	80.006	19.995	103.046	19.303	46.931	0.496
814.000	483.942	80.005	19.996	103.045	19.312	46.359	0.505
814.500	484.206	80.006	19.995	103.046	19.324	45.518	0.557
815.000	484.474	80.006	19.996	103.054	19.333	44.900	0.555
815.500	484.680	80.005	19.997	103.061	19.343	44.142	0.503
816.000	484.964	80.007	19.995	103.064	19.354	43.403	0.483
816.500	485.254	80.009	19.997	103.067	19.368	42.449	0.532
817.000	485.503	80.007	19.996	103.066	19.377	41.828	0.556
817.500	485.745	80.007	19.996	103.066	19.388	41.066	0.515
818.000	486.015	80.006	19.996	103.066	19.398	40.339	0.501
818.500	486.324	80.006	19.996	103.066	19.410	39.472	0.545
819.000	486.571	80.007	19.996	103.066	19.419	38.888	0.567
819.500	486.809	80.007	19.996	103.067	19.428	38.217	0.521
820.000	487.058	80.007	19.996	103.066	19.438	37.514	0.486
820.500	487.308	80.006	19.996	103.066	19.448	36.812	0.493
821.000	487.576	80.006	19.997	103.067	19.462	35.864	0.509
821.500	487.816	80.007	19.996	103.066	19.471	35.264	0.513
822.000	488.110	80.006	19.995	103.066	19.481	34.564	0.521
822.500	488.360	80.007	19.996	103.066	19.492	33.779	0.539
823.000	488.573	80.007	19.996	103.065	19.502	33.073	0.504
823.500	488.851	80.006	19.994	103.065	19.510	32.537	0.477
824.000	489.093	80.008	19.996	103.062	19.523	31.636	0.505
824.500	489.356	80.007	19.995	103.062	19.529	31.175	0.512
825.000	489.646	80.007	19.994	103.063	19.540	30.420	0.529
825.500	489.882	80.006	19.996	103.063	19.549	29.810	0.539
826.000	490.140	80.006	19.996	103.065	19.560	29.064	0.510
826.500	490.410	80.006	19.995	103.073	19.571	28.277	0.511
827.000	490.658	80.006	19.995	103.073	19.580	27.653	0.523
827.500	490.929	80.005	19.996	103.073	19.586	27.186	0.518
828.000	491.182	80.007	19.995	103.074	19.597	26.435	0.522
828.500	491.451	80.007	19.995	103.073	19.604	25.962	0.523
829.000	491.692	80.007	19.995	103.067	19.618	24.953	0.516
829.500	491.963	80.007	19.995	103.067	19.627	24.391	0.511
830.000	492.216	80.006	19.994	103.067	19.635	23.796	0.518
830.500	492.485	80.006	19.996	103.065	19.642	23.278	0.523
831.000	492.723	80.007	19.995	103.064	19.650	22.724	0.515
831.500	493.011	80.006	19.995	103.062	19.661	21.982	0.516
832.000	493.277	80.007	19.995	103.063	19.668	21.485	0.539
832.500	493.546	80.007	19.995	103.060	19.676	20.943	0.545
833.000	493.798	80.008	19.995	103.055	19.685	20.319	0.528
833.500	494.047	80.007	19.994	103.052	19.694	19.683	0.511
834.000	494.335	80.007	19.995	103.053	19.702	19.148	0.519
834.500	494.608	80.007	19.994	103.053	19.710	18.598	0.549
835.000	494.853	80.006	19.994	103.055	19.716	18.122	0.540
835.500	495.126	80.005	19.995	103.061	19.724	17.571	0.518
836.000	495.395	80.007	19.995	103.062	19.734	16.902	0.530
836.500	495.652	80.007	19.994	103.060	19.738	16.634	0.534
837.000	495.901	80.007	19.994	103.057	19.746	16.089	0.515
837.500	496.143	80.007	19.994	103.057	19.754	15.515	0.498
838.000	496.394	80.007	19.996	103.057	19.764	14.773	0.492
838.500	496.670	80.008	19.994	103.059	19.769	14.463	0.510
839.000	496.906	80.008	19.994	103.062	19.778	13.842	0.520
839.500	497.199	80.008	19.994	103.061	19.785	13.349	0.521
840.000	497.448	80.009	19.995	103.059	19.792	12.820	0.536
840.500	497.691	80.008	19.994	103.061	19.799	12.382	0.517
841.000	497.964	80.008	19.995	103.061	19.804	11.987	0.504
841.500	498.206	80.010	19.995	103.062	19.809	11.638	0.516
842.000	498.471	80.009	19.994	103.066	19.816	11.177	0.511
842.500	498.730	80.009	19.994	103.067	19.823	10.672	0.516
843.000	499.023	80.011	19.995	103.067	19.830	10.187	0.538
843.500	499.285	80.009	19.995	103.067	19.837	9.725	0.553
844.000	499.511	80.007	19.995	103.066	19.840	9.511	0.521
844.500	499.774	80.008	19.994	103.066	19.845	9.122	0.489
845.000	499.994	80.010	19.995	103.064	19.851	8.745	0.487
845.500	500.302	80.009	19.995	103.060	19.857	8.348	0.506
846.000	500.543	80.008	19.995	103.054	19.860	8.079	0.539
846.500	500.765	80.008	19.995	103.055	19.864	7.837	0.506
847.000	501.054	80.008	19.995	103.055	19.869	7.495	0.487
847.500	501.350	80.009	19.995	103.056	19.874	7.126	0.548
848.000	501.567	80.009	19.996	103.059	19.875	7.053	0.549
848.500	501.828	80.009	19.994	103.064	19.882	6.565	0.495
849.000	502.092	80.006	19.995	103.062	19.884	6.433	0.501
849.500	502.319	80.006	19.995	103.062	19.892	5.874	0.508
850.000	502.618	80.007	19.995	103.062	19.892	5.878	0.509
850.500	502.813	80.007	19.994	103.062	19.899	5.364	0.510
851.000	503.073	80.006	19.996	103.064	19.900	5.343	0.475
851.500	503.375	80.006	19.995	103.064	19.904	5.015	0.508
852.000	503.629	80.006	19.996	103.065	19.908	4.767	0.559
852.500	503.862	80.005	19.995	103.065	19.908	4.728	0.522
853.000	504.092	80.005	19.995	103.065	19.912	4.448	0.475
853.500	504.348	80.005	19.995	103.062	19.918	4.084	0.474
854.000	504.630	80.005	19.996	103.061	19.922	3.812	0.512
854.500	504.881	80.006	19.995	103.054	19.923	3.732	0.535
855.000	505.169	80.006	19.995	103.052	19.926	3.483	0.536
855.500	505.401	80.006	19.995	103.051	19.929	3.264	0.530
856.000	505.686	80.007	19.995	103.054	19.932	3.058	0.519
856.500	505.942	80.007	19.996	103.055	19.933	3.049	0.529
857.000	506.191	80.007	19.995	103.062	19.935	2.841	0.523
857.501	506.430	80.006	19.995	103.058	19.936	2.812	0.497
858.000	506.683	80.008	19.995	103.057	19.937	2.769	0.490
858.500	506.938	80.006	19.994	103.057	19.941	2.461	0.500
859.000	507.165	80.005	19.995	103.057	19.944	2.219	0.495
859.500	507.422	80.006	19.995	103.057	19.945	2.166	0.483
860.000	507.690	80.008	19.995	103.059	19.945	2.210	0.504
860.500	507.931	80.006	19.995	103.056	19.946	2.119	0.517
861.000	508.189	80.007	19.995	103.056	19.949	1.911	0.504
861.500	508.453	80.007	19.996	103.057	19.950	1.815	0.510
862.000	508.678	80.009	19.995	103.054	19.954	1.570	0.506
862.500	508.916	80.007	19.995	103.056	19.954	1.517	0.476
863.000	509.162	80.007	19.995	103.060	19.954	1.530	0.473
863.500	509.408	80.007	19.995	103.059	19.957	1.343	0.488
864.000	509.706	80.007	19.995	103.059	19.955	1.451	0.518
864.500	509.923	80.007	19.995	103.061	19.960	1.120	0.530
865.000	510.174	80.007	19.995	103.063	19.960	1.105	0.491
865.500	510.422	80.007	19.995	103.064	19.961	1.037	0.483
866.000	510.676	80.007	19.995	103.066	19.961	1.063	0.501
866.500	510.957	80.007	19.995	103.066	19.962	1.020	0.519
867.000	511.175	80.007	19.996	103.067	19.964	0.852	0.518
867.500	511.437	80.006	19.996	103.066	19.961	1.043	0.489
868.000	511.710	80.007	19.995	103.062	19.968	0.574	0.507
868.500	511.933	80.006	19.995	103.059	19.969	0.533	0.516
869.000	512.193	80.007	19.995	103.058	19.967	0.625	0.490
869.500	512.447	80.006	19.995	103.056	19.970	0.423	0.498
870.000	512.684	80.008	19.995	103.054	19.969	0.485	0.502
870.501	512.928	80.007	19.997	103.055	19.970	0.425	0.486
871.000	513.184	80.007	19.996	103.052	19.970	0.459	0.491
871.500	513.443	80.006	19.996	103.053	19.973	0.238	0.508
872.000	513.666	80.008	19.995	103.053	19.968	0.603	0.498
872.500	513.950	80.006	19.996	103.052	19.970	0.453	0.494
873.000	514.173	80.005	19.997	103.052	19.970	0.416	0.507
873.500	514.404	80.006	19.996	103.058	19.970	0.425	0.481
874.000	514.692	80.008	19.995	103.058	19.972	0.283	0.487
874.500	514.903	80.005	19.996	103.059	19.973	0.223	0.509
875.000	515.166	80.007	19.995	103.061	19.974	0.178	0.486
875.500	515.440	80.006	19.996	103.061	19.973	0.191	0.505
876.000	515.696	80.004	19.995	103.060	19.972	0.291	0.533
876.500	515.934	80.005	19.997	103.060	19.974	0.172	0.512
877.000	516.186	80.006	19.997	103.060	19.972	0.274	0.492
877.500	516.431	80.005	19.996	103.063	19.975	0.076	0.493
878.000	516.693	80.005	19.996	103.065	19.973	0.191	0.502
878.500	516.962	80.003	19.995	103.066	19.975	0.091	0.519
879.000	517.231	80.004	19.996	103.067	19.978	-0.119	0.534
879.500	517.455	80.005	19.996	103.067	19.978	-0.147	0.515
880.000	517.722	80.005	19.995	103.065	19.977	-0.045	0.492
880.500	517.961	80.004	19.997	103.063	19.982	-0.383	0.499
881.000	518.209	80.004	19.995	103.062	19.980	-0.236	0.497
881.500	518.455	80.004	19.996	103.058	19.983	-0.500	0.490
882.000	518.724	80.005	19.997	103.056	19.977	-0.077	0.505
882.500	518.972	80.005	19.995	103.058	19.979	-0.225	0.516
883.000	519.215	80.005	19.995	103.060	19.978	-0.121	0.504
883.500	519.469	80.005	19.996	103.062	19.978	-0.106	0.494
884.000	519.741	80.004	19.996	103.066	19.976	0.026	0.511
884.500	519.967	80.005	19.996	103.068	19.981	-0.312	0.512
885.000	520.210	80.006	19.996	103.067	19.981	-0.308	0.484
885.500	520.504	80.006	19.995	103.066	19.985	-0.580	0.504
886.000	520.733	80.005	19.995	103.064	19.984	-0.574	0.530
886.500	520.978	80.005	19.996	103.061	19.985	-0.604	0.498
887.000	521.220	80.005	19.996	103.056	19.984	-0.535	0.481
887.500	521.462	80.006	19.996	103.051	19.984	-0.508	0.486
888.000	521.724	80.005	19.995	103.048	19.983	-0.487	0.494
888.500	521.977	80.006	19.996	103.046	19.984	-0.510	0.509
889.000	522.228	80.005	19.994	103.046	19.982	-0.423	0.510
889.500	522.531	80.005	19.995	103.050	19.983	-0.499	0.529
890.000	522.733	80.006	19.996	103.057	19.986	-0.680	0.530
890.500	522.947	80.005	19.995	103.059	19.984	-0.553	0.460
891.000	523.216	80.007	19.996	103.055	19.985	-0.633	0.449
891.500	523.486	80.007	19.996	103.052	19.983	-0.506	0.511
892.000	523.738	80.006	19.995	103.049	19.983	-0.450	0.531
892.500	523.991	80.007	19.995	103.049	19.983	-0.474	0.514
893.000	524.239	80.008	19.996	103.046	19.982	-0.393	0.503
893.500	524.517	80.007	19.995	103.049	19.983	-0.491	0.513
894.000	524.769	80.008	19.996	103.051	19.985	-0.623	0.528
894.500	525.029	80.007	19.995	103.050	19.982	-0.414	0.521
895.000	525.251	80.007	19.995	103.044	19.984	-0.567	0.497
895.500	525.491	80.007	19.996	103.041	19.984	-0.527	0.473
896.000	525.813	80.009	19.995	103.044	19.985	-0.635	0.512
896.500	526.029	80.006	19.996	103.047	19.985	-0.627	0.550
897.000	526.266	80.007	19.995	103.052	19.984	-0.508	0.495
897.500	526.519	80.006	19.995	103.058	19.985	-0.644	0.471
898.000	526.768	80.006	19.994	103.065	19.986	-0.714	0.496
898.500	526.995	80.007	19.996	103.064	19.986	-0.678	0.489
899.000	527.290	80.006	19.995	103.063	19.984	-0.525	0.499
899.500	527.532	80.005	19.994	103.060	19.986	-0.712	0.529
900.000	527.799	80.006	19.995	103.055	19.983	-0.491	0.523
900.500	528.064	80.006	19.995	103.048	19.987	-0.780	0.520
901.000	528.325	80.006	19.995	103.044	19.986	-0.657	0.529
901.500	528.519	80.005	19.995	103.047	19.986	-0.693	0.490
902.000	528.805	80.004	19.996	103.050	19.989	-0.861	0.467
902.500	529.079	80.006	19.996	103.056	19.984	-0.559	0.520
903.000	529.327	80.004	19.995	103.063	19.985	-0.621	0.541
903.501	529.571	80.005	19.996	103.067	19.987	-0.757	0.507
904.000	529.820	80.006	19.996	103.065	19.982	-0.436	0.492
904.500	530.070	80.005	19.996	103.061	19.986	-0.648	0.495
905.000	530.293	80.005	19.996	103.060	19.986	-0.691	0.486
905.500	530.558	80.005	19.996	103.054	19.984	-0.544	0.480
906.000	530.785	80.005	19.996	103.054	19.986	-0.716	0.490
906.500	531.060	80.006	19.997	103.054	19.989	-0.899	0.498
907.000	531.305	80.006	19.996	103.052	19.988	-0.835	0.511
907.500	531.579	80.005	19.996	103.049	19.988	-0.801	0.519
908.000	531.838	80.006	19.996	103.048	19.988	-0.810	0.526
908.500	532.055	80.005	19.997	103.042	19.986	-0.695	0.504
909.001	532.329	80.006	19.996	103.042	19.984	-0.574	0.484
909.500	532.565	80.005	19.996	103.046	19.985	-0.644	0.501
910.000	532.859	80.006	19.996	103.050	19.986	-0.703	0.520
910.500	533.076	80.006	19.996	103.055	19.989	-0.908	0.520
911.000	533.362	80.006	19.996	103.060	19.986	-0.697	0.507
911.500	533.592	80.006	19.996	103.059	19.988	-0.844	0.509
912.000	533.882	80.006	19.996	103.054	19.987	-0.755	0.518
912.500	534.168	80.006	19.996	103.050	19.988	-0.791	0.548
913.000	534.392	80.006	19.995	103.049	19.987	-0.738	0.543
913.500	534.628	80.006	19.995	103.050	19.986	-0.665	0.485
914.000	534.880	80.007	19.995	103.052	19.988	-0.829	0.474
914.500	535.168	80.006	19.995	103.055	19.988	-0.788	0.514
915.000	535.416	80.009	19.995	103.059	19.989	-0.872	0.538
915.500	535.692	80.007	19.995	103.053	19.987	-0.782	0.530
916.000	535.935	80.007	19.995	103.050	19.987	-0.786	0.522
916.500	536.189	80.007	19.995	103.045	19.990	-0.929	0.508
917.000	536.449	80.008	19.995	103.042	19.989	-0.859	0.505
917.500	536.681	80.008	19.995	103.044	19.988	-0.795	0.502
918.000	536.925	80.008	19.995	103.049	19.991	-1.061	0.484
918.500	537.235	80.009	19.995	103.051	19.989	-0.873	0.515
919.000	537.479	80.007	19.995	103.052	19.991	-0.997	0.554
919.500	537.734	80.009	19.996	103.056	19.988	-0.793	0.526
920.000	538.001	80.008	19.995	103.056	19.989	-0.893	0.511
920.500	538.245	80.009	19.995	103.053	19.992	-1.101	0.516
921.000	538.511	80.008	19.995	103.053	19.989	-0.861	0.510
921.500	538.783	80.009	19.995	103.056	19.991	-1.001	0.524
922.000	539.018	80.008	19.995	103.054	19.992	-1.099	0.523
922.500	539.246	80.007	19.996	103.053	19.993	-1.139	0.485
923.000	539.496	80.008	19.994	103.053	19.993	-1.169	0.470
923.500	539.774	80.008	19.995	103.053	19.991	-1.039	0.503
924.000	540.071	80.008	19.995	103.049	19.992	-1.116	0.552
924.500	540.284	80.009	19.994	103.046	19.994	-1.243	0.543
925.000	540.586	80.008	19.995	103.044	19.991	-1.011	0.513
925.500	540.833	80.007	19.995	103.043	19.993	-1.139	0.532
926.000	541.092	80.009	19.995	103.042	19.990	-0.944	0.527
926.500	541.350	80.007	19.994	103.040	19.993	-1.196	0.512
927.000	541.601	80.008	19.993	103.039	19.993	-1.169	0.513
927.500	541.828	80.007	19.995	103.041	19.991	-1.022	0.493
928.000	542.116	80.008	19.995	103.046	19.990	-0.969	0.496
928.500	542.375	80.007	19.995	103.050	19.988	-0.808	0.531
929.000	542.612	80.007	19.996	103.052	19.993	-1.141	0.521
929.500	542.906	80.006	19.995	103.051	19.990	-0.994	0.514
930.000	543.176	80.007	19.995	103.046	19.994	-1.214	0.547
930.500	543.435	80.007	19.995	103.046	19.993	-1.141	0.546
931.000	543.675	80.005	19.995	103.043	19.994	-1.239	0.514
931.500	543.935	80.006	19.995	103.045	19.994	-1.250	0.500
932.000	544.147	80.006	19.995	103.051	19.994	-1.235	0.487
932.500	544.432	80.006	19.995	103.057	19.992	-1.093	0.485
933.001	544.672	80.006	19.995	103.055	19.993	-1.196	0.511
933.500	544.957	80.007	19.995	103.053	19.994	-1.209	0.525
934.000	545.214	80.005	19.994	103.055	19.994	-1.207	0.533
934.500	545.486	80.006	19.995	103.055	19.995	-1.301	0.535
935.000	545.740	80.005	19.995	103.056	19.996	-1.349	0.528
935.500	545.981	80.006	19.994	103.058	19.995	-1.330	0.511
936.000	546.272	80.005	19.995	103.059	19.993	-1.171	0.513
936.500	546.518	80.006	19.996	103.056	19.998	-1.499	0.534
937.000	546.761	80.004	19.995	103.055	19.996	-1.384	0.513
937.500	547.011	80.005	19.995	103.055	19.995	-1.329	0.491
938.000	547.265	80.007	19.995	103.056	19.993	-1.184	0.499
938.500	547.566	80.006	19.995	103.060	19.994	-1.263	0.530
939.000	547.836	80.006	19.996	103.064	19.993	-1.196	0.563
939.500	548.119	80.006	19.995	103.067	19.996	-1.364	0.562
940.000	548.334	80.006	19.995	103.065	19.996	-1.360	0.526
940.500	548.595	80.004	19.994	103.060	19.995	-1.283	0.487
941.000	548.865	80.005	19.995	103.057	19.997	-1.426	0.503
941.500	549.131	80.006	19.995	103.052	19.996	-1.360	0.533
942.000	549.356	80.007	19.994	103.049	19.995	-1.284	0.514
942.500	549.620	80.005	19.994	103.049	19.995	-1.303	0.491
943.000	549.862	80.005	19.995	103.050	19.998	-1.518	0.498
943.500	550.124	80.005	19.995	103.047	19.996	-1.352	0.505
944.000	550.398	80.005	19.995	103.051	19.997	-1.435	0.519
944.500	550.669	80.006	19.994	103.054	20.000	-1.654	0.541
945.000	550.933	80.005	19.995	103.053	19.996	-1.358	0.541
945.500	551.182	80.005	19.995	103.053	19.997	-1.462	0.524
946.000	551.428	80.006	19.994	103.054	19.998	-1.539	0.504
946.500	551.713	80.007	19.995	103.049	19.997	-1.456	0.513
947.000	551.940	80.006	19.994	103.043	19.996	-1.354	0.522
947.500	552.211	80.006	19.995	103.038	19.999	-1.562	0.505
948.000	552.460	80.007	19.995	103.034	19.996	-1.390	0.509
948.500	552.757	80.006	19.994	103.033	19.998	-1.513	0.533
949.000	552.974	80.006	19.995	103.038	19.998	-1.498	0.530
949.500	553.227	80.007	19.995	103.045	19.998	-1.509	0.492
950.000	553.486	80.007	19.995	103.053	19.996	-1.409	0.491
950.500	553.739	80.006	19.995	103.059	19.998	-1.490	0.512
951.000	554.017	80.005	19.996	103.062	19.996	-1.354	0.521
951.500	554.299	80.008	19.994	103.061	19.998	-1.516	0.545
952.000	554.513	80.005	19.994	103.059	19.999	-1.569	0.528
952.500	554.769	80.006	19.994	103.053	19.999	-1.577	0.483
953.000	555.051	80.006	19.994	103.048	19.995	-1.296	0.504
953.500	555.286	80.005	19.995	103.049	19.998	-1.499	0.528
954.000	555.537	80.005	19.994	103.043	19.999	-1.556	0.501
954.500	555.804	80.007	19.995	103.039	19.998	-1.488	0.502
955.000	556.062	80.006	19.994	103.041	19.999	-1.569	0.522
955.500	556.325	80.006	19.995	103.044	20.000	-1.639	0.523
956.000	556.589	80.005	19.994	103.040	19.998	-1.484	0.524
956.500	556.817	80.005	19.995	103.039	19.997	-1.458	0.509
957.000	557.108	80.004	19.996	103.039	19.999	-1.601	0.506
957.500	557.335	80.006	19.995	103.038	19.999	-1.588	0.519
958.000	557.632	80.006	19.994	103.034	19.999	-1.556	0.521
958.500	557.827	80.005	19.995	103.034	19.997	-1.441	0.508
959.000	558.168	80.005	19.995	103.034	19.997	-1.481	0.514
959.500	558.376	80.003	19.995	103.035	19.998	-1.496	0.542
960.000	558.678	80.006	19.995	103.036	19.997	-1.414	0.529
960.500	558.911	80.005	19.995	103.038	19.998	-1.490	0.522
961.000	559.146	80.003	19.994	103.038	19.999	-1.594	0.502
961.500	559.409	80.004	19.995	103.040	19.997	-1.430	0.483
962.000	559.615	80.003	19.995	103.041	19.996	-1.381	0.484
962.500	559.954	80.004	19.995	103.042	19.999	-1.596	0.507
963.000	560.146	80.004	19.995	103.043	20.000	-1.634	0.538
963.500	560.404	80.005	19.995	103.043	19.997	-1.441	0.491
964.000	560.671	80.004	19.996	103.043	20.000	-1.673	0.488
964.501	560.915	80.005	19.996	103.043	19.999	-1.622	0.518
965.000	561.177	80.004	19.995	103.038	19.999	-1.571	0.509
965.500	561.488	80.005	19.995	103.036	19.998	-1.484	0.539
966.000	561.686	80.006	19.995	103.036	20.001	-1.711	0.541
966.500	561.954	80.005	19.995	103.035	20.001	-1.698	0.488
967.000	562.194	80.005	19.995	103.032	19.998	-1.539	0.487
967.500	562.484	80.007	19.995	103.034	20.003	-1.836	0.519
968.000	562.775	80.006	19.995	103.035	19.998	-1.518	0.555
968.500	562.966	80.006	19.996	103.037	20.000	-1.679	0.532
969.000	563.239	80.007	19.995	103.039	19.999	-1.584	0.474
969.500	563.477	80.005	19.995	103.041	19.999	-1.577	0.487
970.000	563.737	80.007	19.995	103.038	20.002	-1.830	0.504
970.500	563.994	80.006	19.996	103.038	20.002	-1.766	0.507
971.000	564.258	80.007	19.995	103.042	20.002	-1.811	0.519
971.500	564.506	80.006	19.995	103.044	20.002	-1.804	0.516
972.000	564.747	80.007	19.995	103.043	20.002	-1.809	0.500
972.500	565.031	80.007	19.995	103.048	20.003	-1.866	0.507
973.000	565.270	80.006	19.996	103.053	20.000	-1.675	0.524
973.500	565.544	80.007	19.996	103.054	19.999	-1.609	0.518
974.000	565.760	80.008	19.996	103.051	20.002	-1.813	0.502
974.500	566.050	80.007	19.995	103.050	20.005	-2.032	0.498
975.000	566.331	80.007	19.995	103.044	20.002	-1.784	0.538
975.500	566.539	80.008	19.995	103.036	20.003	-1.860	0.530
976.000	566.818	80.005	19.995	103.030	20.005	-1.973	0.488
976.500	567.039	80.007	19.995	103.031	20.001	-1.713	0.493
977.000	567.306	80.006	19.995	103.031	20.005	-1.989	0.494
977.500	567.567	80.007	19.995	103.033	20.005	-1.989	0.508
978.000	567.828	80.006	19.996	103.037	20.007	-2.138	0.525
978.500	568.054	80.007	19.994	103.037	20.005	-2.026	0.505
979.000	568.334	80.006	19.995	103.034	20.005	-2.034	0.497
979.500	568.576	80.005	19.995	103.034	20.004	-1.956	0.514
980.000	568.830	80.007	19.995	103.031	20.009	-2.300	0.508
980.500	569.090	80.006	19.995	103.032	20.006	-2.066	0.505
981.000	569.314	80.006	19.994	103.034	20.005	-2.024	0.499
981.500	569.615	80.007	19.994	103.039	20.004	-1.958	0.505
982.000	569.857	80.006	19.995	103.046	20.005	-1.981	0.534
982.500	570.116	80.007	19.994	103.050	20.003	-1.862	0.522
983.000	570.385	80.006	19.995	103.049	20.005	-2.024	0.514
983.500	570.641	80.005	19.994	103.049	20.005	-2.037	0.526
984.000	570.894	80.006	19.995	103.045	20.006	-2.105	0.517
984.500	571.134	80.007	19.996	103.038	20.007	-2.121	0.502
985.000	571.407	80.007	19.995	103.034	20.006	-2.060	0.503
985.500	571.654	80.005	19.995	103.031	20.006	-2.062	0.516
986.000	571.899	80.006	19.996	103.031	20.005	-2.026	0.506
986.500	572.182	80.006	19.996	103.032	20.004	-1.954	0.510
987.000	572.445	80.006	19.995	103.033	20.006	-2.105	0.537
987.500	572.712	80.006	19.996	103.034	20.007	-2.179	0.538
988.000	572.967	80.007	19.995	103.038	20.008	-2.206	0.526
988.500	573.248	80.006	19.995	103.041	20.005	-1.994	0.529
989.000	573.498	80.006	19.996	103.043	20.004	-1.934	0.533
989.500	573.726	80.006	19.996	103.043	20.006	-2.060	0.504
990.000	574.000	80.007	19.996	103.041	20.004	-1.949	0.491
990.500	574.252	80.006	19.996	103.039	20.006	-2.068	0.514
991.000	574.529	80.007	19.996	103.033	20.008	-2.238	0.527
991.500	574.777	80.006	19.995	103.031	20.007	-2.115	0.527
992.000	575.080	80.007	19.996	103.031	20.006	-2.104	0.538
992.500	575.359	80.007	19.996	103.032	20.007	-2.172	0.567
993.000	575.607	80.006	19.996	103.030	20.006	-2.081	0.554
993.500	575.865	80.008	19.997	103.030	20.006	-2.096	0.516
994.000	576.113	80.006	19.995	103.029	20.007	-2.122	0.506
994.501	576.356	80.006	19.996	103.029	20.010	-2.368	0.498
995.001	576.603	80.006	19.995	103.029	20.008	-2.211	0.491
995.500	576.848	80.007	19.995	103.029	20.006	-2.043	0.492
996.000	577.113	80.007	19.997	103.030	20.007	-2.138	0.501
996.500	577.368	80.007	19.996	103.030	20.007	-2.149	0.514
997.000	577.644	80.007	19.996	103.031	20.004	-1.909	0.525
997.500	577.862	80.007	19.996	103.031	20.006	-2.047	0.513
998.000	578.125	80.008	19.996	103.029	20.006	-2.109	0.488
998.501	578.364	80.008	19.996	103.030	20.007	-2.130	0.492
999.000	578.661	80.006	19.996	103.032	20.006	-2.072	0.519
999.500	578.877	80.008	19.996	103.032	20.006	-2.075	0.524
1000.000	579.137	80.007	19.995	103.033	20.005	-1.990	0.494
1000.500	579.392	80.007	19.995	103.037	20.009	-2.270	0.496
1001.000	579.631	80.007	19.995	103.040	20.008	-2.183	0.505
1001.500	579.900	80.008	19.995	103.040	20.009	-2.279	0.501
1002.000	580.165	80.007	19.995	103.042	20.006	-2.102	0.521
1002.500	580.404	80.008	19.995	103.041	20.009	-2.287	0.519
1003.000	580.625	80.007	19.995	103.041	20.007	-2.134	0.482
1003.500	580.902	80.008	19.996	103.037	20.009	-2.289	0.479
1004.000	581.172	80.007	19.996	103.035	20.005	-1.977	0.522
1004.500	581.436	80.008	19.995	103.032	20.008	-2.200	0.540
1005.000	581.674	80.007	19.995	103.033	20.007	-2.175	0.518
1005.500	581.919	80.009	19.995	103.030	20.008	-2.215	0.492
1006.000	582.180	80.005	19.994	103.030	20.009	-2.262	0.494
1006.500	582.464	80.006	19.994	103.031	20.009	-2.300	0.526
1007.000	582.688	80.006	19.995	103.032	20.006	-2.068	0.526
1007.500	582.954	80.004	19.995	103.029	20.009	-2.268	0.499
1008.000	583.217	80.005	19.995	103.030	20.006	-2.106	0.510
1008.500	583.444	80.006	19.995	103.032	20.010	-2.372	0.510
1009.000	583.712	80.006	19.994	103.038	20.010	-2.357	0.493
1009.500	583.953	80.005	19.994	103.039	20.010	-2.323	0.502
1010.000	584.198	80.005	19.994	103.039	20.009	-2.308	0.497
1010.500	584.449	80.006	19.995	103.039	20.011	-2.402	0.491
1011.000	584.706	80.004	19.995	103.037	20.010	-2.359	0.502
1011.500	584.914	80.006	19.995	103.032	20.011	-2.425	0.486
1012.000	585.233	80.005	19.995	103.033	20.008	-2.232	0.496
1012.500	585.458	80.005	19.995	103.036	20.011	-2.455	0.535
1013.000	585.700	80.006	19.994	103.036	20.011	-2.412	0.506
1013.500	585.958	80.005	19.995	103.036	20.012	-2.519	0.484
1014.000	586.215	80.004	19.995	103.035	20.009	-2.309	0.508
1014.500	586.460	80.005	19.995	103.033	20.008	-2.249	0.508
1015.000	586.719	80.005	19.995	103.029	20.011	-2.396	0.503
1015.500	586.978	80.005	19.995	103.029	20.012	-2.510	0.511
1016.000	587.229	80.006	19.995	103.030	20.010	-2.360	0.514
1016.500	587.483	80.006	19.995	103.031	20.010	-2.326	0.508
1017.000	587.696	80.005	19.995	103.035	20.007	-2.181	0.486
1017.500	587.958	80.006	19.995	103.039	20.008	-2.234	0.471
1018.000	588.264	80.006	19.995	103.046	20.010	-2.372	0.521
1018.500	588.485	80.005	19.994	103.051	20.011	-2.411	0.547
1019.000	588.748	80.004	19.994	103.056	20.013	-2.534	0.505
1019.500	589.004	80.006	19.995	103.053	20.012	-2.487	0.502
1020.000	589.261	80.006	19.995	103.050	20.013	-2.599	0.517
1020.500	589.527	80.006	19.996	103.044	20.013	-2.548	0.518
1021.000	589.743	80.007	19.994	103.038	20.013	-2.544	0.502
1021.500	589.989	80.006	19.994	103.032	20.013	-2.583	0.472
1022.000	590.279	80.005	19.995	103.034	20.013	-2.553	0.499
1022.500	590.538	80.005	19.994	103.039	20.012	-2.512	0.543
1023.000	590.774	80.004	19.995	103.040	20.012	-2.483	0.522
1023.500	591.046	80.006	19.994	103.040	20.010	-2.362	0.501
1024.000	591.306	80.005	19.994	103.039	20.010	-2.334	0.520
1024.500	591.553	80.007	19.994	103.038	20.012	-2.515	0.519
1025.001	591.811	80.006	19.995	103.036	20.012	-2.525	0.506
1025.501	592.041	80.006	19.995	103.034	20.011	-2.430	0.497
1026.000	592.314	80.006	19.995	103.034	20.013	-2.532	0.495
1026.500	592.560	80.005	19.994	103.035	20.012	-2.494	0.511
1027.000	592.816	80.007	19.994	103.035	20.015	-2.672	0.511
1027.500	593.082	80.007	19.995	103.032	20.013	-2.596	0.512
1028.000	593.332	80.004	19.994	103.032	20.013	-2.566	0.519
1028.500	593.576	80.006	19.994	103.032	20.013	-2.570	0.505
1029.000	593.831	80.005	19.995	103.032	20.012	-2.462	0.496
1029.500	594.105	80.005	19.995	103.034	20.014	-2.617	0.514
1030.000	594.367	80.005	19.995	103.036	20.015	-2.704	0.533
1030.500	594.657	80.005	19.995	103.040	20.017	-2.872	0.544
1031.000	594.872	80.005	19.994	103.041	20.013	-2.559	0.528
1031.500	595.122	80.005	19.995	103.044	20.013	-2.574	0.485
1032.000	595.407	80.006	19.995	103.042	20.012	-2.515	0.500
1032.500	595.661	80.007	19.994	103.040	20.013	-2.589	0.537
1033.000	595.936	80.006	19.994	103.036	20.011	-2.415	0.534
1033.500	596.157	80.005	19.995	103.034	20.013	-2.597	0.513
1034.000	596.444	80.005	19.995	103.032	20.012	-2.470	0.503
1034.500	596.679	80.007	19.996	103.033	20.010	-2.372	0.515
1035.000	596.926	80.006	19.995	103.034	20.009	-2.278	0.502
1035.500	597.204	80.005	19.995	103.034	20.013	-2.564	0.503
1036.000	597.469	80.005	19.995	103.034	20.013	-2.542	0.534
1036.500	597.664	80.006	19.995	103.032	20.011	-2.449	0.502
1037.000	597.942	80.005	19.994	103.029	20.017	-2.857	0.467
1037.500	598.242	80.005	19.994	103.028	20.013	-2.570	0.525
1038.000	598.445	80.005	19.995	103.027	20.013	-2.564	0.540
1038.500	598.684	80.006	19.995	103.027	20.013	-2.555	0.472
1039.001	598.959	80.005	19.994	103.027	20.015	-2.721	0.478
1039.501	599.231	80.006	19.994	103.027	20.012	-2.466	0.531
1040.000	599.493	80.006	19.994	103.029	20.011	-2.432	0.540
1040.501	599.737	80.006	19.994	103.035	20.012	-2.492	0.520
1041.001	600.009	80.005	19.994	103.037	20.010	-2.355	0.511
1041.500	600.174	80.005	19.995	103.037	20.011	-2.447	0.477
1042.000	600.516	80.005	19.994	103.038	20.014	-2.623	0.472
1042.500	600.765	80.006	19.995	103.037	20.014	-2.644	0.549
1043.000	601.025	80.006	19.994	103.031	20.015	-2.683	0.550
1043.500	601.243	80.006	19.994	103.033	20.016	-2.791	0.493
1044.000	601.524	80.005	19.994	103.039	20.018	-2.925	0.489
1044.500	601.779	80.005	19.995	103.045	20.016	-2.757	0.518
1045.000	602.047	80.006	19.995	103.047	20.015	-2.679	0.529
1045.500	602.289	80.006	19.994	103.048	20.013	-2.530	0.517
1046.000	602.554	80.006	19.995	103.045	20.015	-2.687	0.509
1046.500	602.801	80.006	19.994	103.038	20.011	-2.459	0.510
1047.001	603.053	80.005	19.995	103.032	20.017	-2.821	0.505
1047.501	603.288	80.006	19.994	103.029	20.015	-2.672	0.492
1048.000	603.568	80.007	19.996	103.027	20.015	-2.710	0.501
1048.500	603.789	80.006	19.995	103.029	20.016	-2.802	0.508
1049.000	604.035	80.007	19.995	103.034	20.017	-2.829	0.484
1049.501	604.353	80.007	19.994	103.035	20.016	-2.746	0.515
1050.001	604.573	80.008	19.995	103.035	20.017	-2.842	0.550
1050.500	604.864	80.008	19.996	103.036	20.016	-2.793	0.524
1051.000	605.090	80.008	19.995	103.032	20.014	-2.604	0.514
1051.500	605.364	80.008	19.994	103.028	20.014	-2.662	0.509
1052.000	605.592	80.008	19.994	103.028	20.016	-2.747	0.501
1052.500	605.836	80.007	19.995	103.031	20.015	-2.694	0.487
1053.000	606.142	80.007	19.995	103.033	20.016	-2.778	0.511
1053.500	606.403	80.008	19.996	103.035	20.011	-2.430	0.559
1054.000	606.665	80.007	19.995	103.034	20.013	-2.570	0.545
1054.500	606.908	80.007	19.995	103.033	20.015	-2.683	0.514
1055.001	607.101	80.007	19.994	103.030	20.019	-2.993	0.470
1055.501	607.399	80.007	19.996	103.028	20.015	-2.685	0.464
1056.000	607.624	80.009	19.995	103.031	20.017	-2.812	0.507
1056.500	607.944	80.007	19.996	103.035	20.014	-2.625	0.534
1057.000	608.211	80.007	19.996	103.036	20.016	-2.747	0.566
1057.500	608.428	80.008	19.996	103.036	20.016	-2.761	0.536
1058.000	608.670	80.007	19.996	103.035	20.016	-2.763	0.471
1058.500	608.928	80.007	19.995	103.032	20.015	-2.738	0.480
1059.000	609.216	80.006	19.996	103.029	20.015	-2.700	0.523
1059.500	609.462	80.007	19.996	103.028	20.011	-2.413	0.540
1060.000	609.712	80.006	19.996	103.030	20.013	-2.538	0.515
1060.501	609.956	80.007	19.995	103.032	20.012	-2.517	0.495
1061.001	610.245	80.008	19.995	103.032	20.015	-2.719	0.513
1061.500	610.473	80.008	19.996	103.031	20.014	-2.655	0.525
1062.001	610.703	80.005	19.996	103.031	20.014	-2.612	0.488
1062.501	610.976	80.007	19.996	103.029	20.013	-2.563	0.481
1063.000	611.253	80.006	19.996	103.027	20.014	-2.642	0.526
1063.500	611.513	80.006	19.996	103.026	20.015	-2.731	0.543
1064.000	611.774	80.007	19.996	103.027	20.013	-2.555	0.529
1064.500	612.023	80.006	19.996	103.027	20.014	-2.650	0.516
1065.000	612.273	80.005	19.995	103.028	20.012	-2.504	0.505
1065.500	612.534	80.006	19.995	103.029	20.014	-2.606	0.505
1066.001	612.814	80.006	19.995	103.029	20.011	-2.443	0.526
1066.501	613.006	80.006	19.995	103.029	20.014	-2.642	0.507
1067.000	613.284	80.007	19.995	103.029	20.016	-2.804	0.471
1067.500	613.535	80.008	19.995	103.029	20.013	-2.544	0.499
1068.000	613.822	80.007	19.995	103.031	20.013	-2.591	0.533
1068.500	614.013	80.005	19.995	103.031	20.014	-2.668	0.508
1069.000	614.305	80.008	19.995	103.031	20.013	-2.532	0.480
1069.500	614.585	80.008	19.995	103.032	20.016	-2.785	0.527
1070.000	614.917	80.006	19.995	103.031	20.013	-2.591	0.592
1070.500	615.174	80.007	19.995	103.029	20.017	-2.814	0.601
1071.000	615.393	80.008	19.996	103.029	20.016	-2.753	0.533
1071.500	615.652	80.008	19.994	103.029	20.017	-2.865	0.477
1072.000	615.889	80.007	19.994	103.029	20.014	-2.623	0.487
1072.500	616.157	80.007	19.995	103.033	20.017	-2.846	0.501
1073.000	616.434	80.008	19.995	103.036	20.016	-2.744	0.525
1073.500	616.662	80.008	19.995	103.043	20.016	-2.759	0.525
1074.000	616.932	80.007	19.995	103.050	20.018	-2.893	0.501
1074.500	617.173	80.007	19.994	103.053	20.015	-2.715	0.504
1075.000	617.451	80.008	19.995	103.049	20.015	-2.721	0.515
1075.500	617.727	80.010	19.995	103.045	20.013	-2.564	0.537
1076.000	617.964	80.008	19.995	103.039	20.016	-2.774	0.533
1076.500	618.238	80.008	19.994	103.033	20.016	-2.780	0.512
1077.001	618.491	80.008	19.995	103.030	20.018	-2.916	0.519
1077.501	618.745	80.009	19.995	103.033	20.019	-2.993	0.517
1078.000	619.000	80.009	19.995	103.038	20.019	-2.950	0.508
1078.501	619.281	80.010	19.994	103.042	20.018	-2.905	0.522
1079.001	619.533	80.007	19.995	103.040	20.017	-2.831	0.535
1079.500	619.785	80.007	19.995	103.040	20.017	-2.844	0.519
1080.000	620.061	80.008	19.995	103.040	20.017	-2.825	0.516
1080.500	620.325	80.007	19.995	103.036	20.016	-2.776	0.534
1081.000	620.623	80.008	19.996	103.032	20.018	-2.903	0.552
1081.500	620.843	80.009	19.995	103.032	20.018	-2.924	0.541
1082.000	621.077	80.007	19.996	103.036	20.017	-2.833	0.486
1082.500	621.336	80.007	19.995	103.038	20.017	-2.812	0.473
1083.000	621.622	80.007	19.996	103.042	20.021	-3.103	0.519
1083.500	621.874	80.005	19.996	103.042	20.016	-2.769	0.541
1084.000	622.133	80.007	19.996	103.042	20.019	-3.012	0.524
1084.500	622.367	80.006	19.996	103.040	20.015	-2.714	0.502
1085.001	622.629	80.005	19.995	103.035	20.017	-2.865	0.494
1085.501	622.927	80.005	19.996	103.032	20.015	-2.693	0.528
1086.000	623.181	80.005	19.996	103.034	20.016	-2.791	0.557
1086.500	623.414	80.005	19.996	103.037	20.017	-2.831	0.519
1087.000	623.670	80.004	19.996	103.038	20.018	-2.903	0.488
1087.500	623.995	80.005	19.995	103.040	20.017	-2.874	0.535
1088.000	624.200	80.005	19.996	103.042	20.018	-2.925	0.555
1088.500	624.494	80.005	19.995	103.044	20.019	-3.016	0.514
1089.000	624.745	80.003	19.995	103.045	20.020	-3.038	0.522
1089.500	624.968	80.004	19.996	103.048	20.018	-2.927	0.510
1090.000	625.286	80.004	19.995	103.048	20.017	-2.859	0.508
1090.500	625.515	80.004	19.996	103.047	20.017	-2.855	0.545
1091.000	625.779	80.004	19.995	103.050	20.018	-2.925	0.520
1091.500	626.066	80.005	19.995	103.049	20.021	-3.140	0.522
1092.000	626.301	80.004	19.996	103.048	20.017	-2.823	0.536
1092.500	626.582	80.003	19.995	103.048	20.021	-3.091	0.519
1093.000	626.854	80.005	19.995	103.045	20.019	-3.014	0.534
1093.500	627.110	80.004	19.997	103.042	20.022	-3.212	0.541
1094.000	627.372	80.005	19.995	103.045	20.018	-2.946	0.523
1094.500	627.596	80.005	19.995	103.049	20.020	-3.021	0.502
1095.000	627.897	80.005	19.995	103.053	20.021	-3.142	0.506
1095.500	628.121	80.005	19.995	103.055	20.020	-3.061	0.525
1096.000	628.405	80.006	19.995	103.053	20.021	-3.099	0.516
1096.500	628.662	80.006	19.995	103.046	20.018	-2.899	0.525
1097.000	628.923	80.006	19.995	103.040	20.018	-2.946	0.530
1097.500	629.194	80.006	19.995	103.036	20.020	-3.055	0.525
1098.000	629.450	80.006	19.995	103.039	20.021	-3.148	0.530
1098.500	629.693	80.006	19.995	103.038	20.020	-3.023	0.513
1099.000	629.954	80.005	19.995	103.039	20.022	-3.168	0.502
1099.500	630.204	80.006	19.995	103.041	20.021	-3.102	0.507
1100.000	630.450	80.007	19.995	103.038	20.021	-3.091	0.503
1100.500	630.729	80.008	19.994	103.034	20.020	-3.070	0.510
1101.000	631.014	80.007	19.996	103.034	20.022	-3.167	0.545
1101.500	631.271	80.006	19.996	103.033	20.022	-3.208	0.553
1102.001	631.520	80.006	19.995	103.029	20.023	-3.289	0.524
1102.501	631.808	80.007	19.994	103.033	20.024	-3.304	0.521
1103.001	632.074	80.008	19.995	103.036	20.023	-3.261	0.546
1103.501	632.349	80.006	19.995	103.036	20.022	-3.165	0.548
1104.001	632.580	80.005	19.995	103.036	20.019	-2.991	0.523
1104.500	632.843	80.007	19.994	103.035	20.022	-3.169	0.500
1105.001	633.098	80.005	19.994	103.033	20.019	-2.987	0.506
1105.501	633.379	80.006	19.995	103.032	20.019	-2.982	0.527
1106.000	633.628	80.008	19.995	103.035	20.023	-3.259	0.533
1106.500	633.882	80.006	19.995	103.036	20.025	-3.376	0.517
1107.000	634.148	80.006	19.995	103.036	20.024	-3.359	0.512
1107.500	634.439	80.007	19.995	103.033	20.025	-3.395	0.538
1108.000	634.704	80.005	19.995	103.030	20.024	-3.329	0.556
1108.500	634.953	80.006	19.995	103.027	20.023	-3.267	0.535
1109.000	635.240	80.006	19.995	103.026	20.025	-3.405	0.526
1109.500	635.525	80.005	19.995	103.026	20.026	-3.472	0.554
1110.000	635.772	80.006	19.994	103.027	20.021	-3.112	0.551
1110.500	636.023	80.006	19.994	103.026	20.023	-3.253	0.515
1111.000	636.287	80.005	19.995	103.027	20.021	-3.150	0.507
1111.500	636.549	80.006	19.995	103.027	20.022	-3.163	0.520
1112.000	636.817	80.005	19.995	103.027	20.024	-3.306	0.528
1112.500	637.066	80.006	19.994	103.027	20.022	-3.170	0.523
1113.001	637.328	80.005	19.996	103.028	20.023	-3.295	0.514
1113.501	637.564	80.007	19.995	103.029	20.023	-3.231	0.505
1114.000	637.840	80.006	19.995	103.028	20.026	-3.459	0.506
1114.500	638.128	80.004	19.995	103.029	20.021	-3.148	0.538
1115.000	638.364	80.005	19.995	103.031	20.023	-3.293	0.543
1115.501	638.655	80.005	19.997	103.029	20.025	-3.382	0.525
1116.001	638.871	80.006	19.994	103.029	20.026	-3.448	0.517
1116.500	639.177	80.005	19.996	103.028	20.024	-3.297	0.515
1117.001	639.429	80.006	19.995	103.028	20.026	-3.456	0.540
1117.501	639.687	80.006	19.996	103.027	20.025	-3.373	0.534
1118.000	639.929	80.006	19.995	103.031	20.023	-3.235	0.505
1118.501	640.214	80.005	19.995	103.032	20.023	-3.265	0.514
1119.001	640.443	80.007	19.995	103.033	20.025	-3.393	0.521
1119.500	640.712	80.004	19.995	103.032	20.023	-3.269	0.506
1120.000	640.963	80.006	19.996	103.030	20.025	-3.384	0.509
1120.500	641.224	80.005	19.995	103.026	20.024	-3.299	0.516
1121.001	641.496	80.006	19.995	103.025	20.024	-3.359	0.523
1121.501	641.760	80.005	19.996	103.027	20.023	-3.278	0.534
1122.001	642.001	80.005	19.995	103.028	20.024	-3.340	0.520
1122.500	642.275	80.006	19.995	103.030	20.024	-3.303	0.510
1123.000	642.522	80.007	19.995	103.030	20.026	-3.469	0.518
1123.500	642.825	80.006	19.995	103.031	20.025	-3.367	0.535
1124.000	643.058	80.006	19.995	103.030	20.020	-3.068	0.543
1124.500	643.268	80.005	19.995	103.029	20.025	-3.367	0.490
1125.000	643.513	80.007	19.995	103.029	20.024	-3.346	0.449
1125.500	643.817	80.007	19.995	103.028	20.024	-3.365	0.502
1126.000	644.019	80.007	19.995	103.027	20.025	-3.373	0.527
1126.500	644.283	80.006	19.994	103.027	20.026	-3.476	0.486
1127.000	644.540	80.007	19.995	103.031	20.025	-3.391	0.493
1127.500	644.802	80.007	19.995	103.031	20.026	-3.463	0.519
1128.000	645.024	80.007	19.995	103.031	20.024	-3.320	0.502
1128.500	645.315	80.007	19.995	103.032	20.028	-3.614	0.499
1129.000	645.529	80.006	19.995	103.031	20.025	-3.416	0.509
1129.500	645.769	80.006	19.995	103.028	20.023	-3.278	0.480
1130.000	646.079	80.007	19.995	103.028	20.023	-3.289	0.503
1130.500	646.294	80.008	19.994	103.029	20.023	-3.253	0.538
1131.000	646.582	80.007	19.994	103.031	20.026	-3.482	0.514
1131.500	646.837	80.007	19.995	103.032	20.024	-3.329	0.523
1132.000	647.073	80.008	19.994	103.034	20.026	-3.446	0.517
1132.501	647.332	80.006	19.995	103.034	20.022	-3.218	0.493
1133.001	647.601	80.008	19.993	103.034	20.023	-3.286	0.512
1133.501	647.864	80.007	19.995	103.032	20.024	-3.352	0.530
1134.001	648.059	80.007	19.995	103.032	20.021	-3.110	0.495
1134.500	648.346	80.008	19.995	103.031	20.025	-3.408	0.470
1135.000	648.585	80.007	19.995	103.030	20.026	-3.454	0.504
1135.500	648.869	80.007	19.994	103.031	20.024	-3.363	0.525
1136.001	649.090	80.008	19.994	103.034	20.026	-3.493	0.514
1136.501	649.358	80.007	19.995	103.034	20.025	-3.429	0.497
1137.001	649.619	80.008	19.994	103.034	20.027	-3.510	0.509
1137.500	649.847	80.007	19.995	103.034	20.025	-3.395	0.509
1138.000	650.078	80.006	19.994	103.034	20.026	-3.491	0.474
1138.500	650.350	80.008	19.994	103.031	20.023	-3.293	0.481
1139.001	650.606	80.006	19.995	103.031	20.026	-3.469	0.515
1139.501	650.838	80.007	19.995	103.031	20.024	-3.339	0.508
1140.001	651.135	80.005	19.995	103.031	20.025	-3.378	0.509
1140.500	651.431	80.006	19.994	103.029	20.027	-3.571	0.561
1141.001	651.632	80.007	19.995	103.029	20.022	-3.201	0.545
1141.501	651.910	80.006	19.995	103.029	20.027	-3.560	0.488
1142.000	652.145	80.007	19.994	103.029	20.025	-3.405	0.496
1142.500	652.397	80.006	19.995	103.031	20.025	-3.367	0.500
1143.000	652.657	80.006	19.996	103.031	20.030	-3.726	0.500
1143.501	652.884	80.007	19.995	103.031	20.023	-3.293	0.499
1144.001	653.133	80.006	19.995	103.032	20.035	-4.116	0.481
1144.500	653.390	80.007	19.995	103.035	20.025	-3.431	0.491
1145.000	653.594	80.006	19.996	103.034	20.046	-4.855	0.484
1145.501	653.870	80.006	19.996	103.034	20.041	-4.498	0.471
1146.001	654.133	80.005	19.995	103.034	20.035	-4.065	0.510
1146.501	654.370	80.007	19.995	103.033	20.028	-3.610	0.519
1147.000	654.647	80.006	19.994	103.030	20.031	-3.803	0.507
1147.500	654.887	80.006	19.995	103.029	20.032	-3.870	0.515
1148.000	655.165	80.005	19.995	103.029	20.032	-3.882	0.517
1148.500	655.422	80.006	19.994	103.030	20.033	-3.968	0.527
1149.000	655.692	80.006	19.995	103.030	20.033	-3.969	0.532
1149.500	655.934	80.007	19.995	103.029	20.031	-3.793	0.519
1150.001	656.181	80.007	19.996	103.029	20.029	-3.714	0.500
1150.501	656.426	80.006	19.995	103.031	20.029	-3.695	0.490
1151.000	656.672	80.006	19.995	103.032	20.030	-3.718	0.492
1151.500	656.950	80.007	19.995	103.033	20.035	-4.092	0.508
1152.000	657.214	80.007	19.995	103.037	20.031	-3.805	0.534
1152.500	657.411	80.006	19.995	103.042	20.032	-3.909	0.502
1153.000	657.704	80.008	19.995	103.041	20.031	-3.794	0.475
1153.501	657.942	80.008	19.995	103.041	20.030	-3.784	0.510
1154.001	658.225	80.007	19.995	103.040	20.030	-3.756	0.526
1154.500	658.450	80.008	19.994	103.036	20.032	-3.877	0.515
1155.001	658.652	80.008	19.995	103.031	20.032	-3.858	0.468
1155.501	658.931	80.007	19.995	103.030	20.030	-3.733	0.454
1156.000	659.175	80.008	19.994	103.030	20.032	-3.922	0.502
1156.500	659.452	80.009	19.994	103.030	20.028	-3.590	0.522
1157.000	659.687	80.007	19.994	103.030	20.031	-3.852	0.517
1157.500	659.935	80.006	19.994	103.025	20.030	-3.759	0.498
1158.000	660.164	80.007	19.994	103.018	20.029	-3.695	0.480
1158.500	660.478	80.007	19.994	103.015	20.032	-3.873	0.509
1159.000	660.673	80.008	19.994	103.012	20.030	-3.761	0.526
1159.500	660.914	80.008	19.994	103.012	20.031	-3.799	0.473
1160.000	661.169	80.008	19.994	103.016	20.031	-3.852	0.466
1160.500	661.492	80.006	19.995	103.019	20.031	-3.808	0.537
1161.001	661.688	80.006	19.995	103.022	20.032	-3.888	0.549
1161.501	661.958	80.007	19.995	103.024	20.029	-3.691	0.493
1162.000	662.199	80.006	19.995	103.025	20.030	-3.761	0.488
1162.500	662.523	80.006	19.995	103.028	20.029	-3.652	0.538
1163.000	662.735	80.005	19.995	103.030	20.030	-3.725	0.551
1163.500	662.988	80.006	19.994	103.029	20.030	-3.750	0.501
1164.000	663.228	80.006	19.995	103.029	20.029	-3.695	0.479
1164.500	663.478	80.007	19.996	103.028	20.029	-3.693	0.491
1165.000	663.702	80.006	19.995	103.025	20.031	-3.795	0.482
1165.500	663.999	80.005	19.995	103.027	20.031	-3.841	0.498
1166.000	664.255	80.005	19.996	103.029	20.032	-3.876	0.537
1166.500	664.475	80.006	19.995	103.028	20.029	-3.669	0.515
1167.000	664.759	80.005	19.996	103.027	20.034	-4.022	0.490
1167.500	664.991	80.005	19.996	103.027	20.031	-3.852	0.510
1168.000	665.222	80.006	19.996	103.026	20.031	-3.852	0.490
1168.500	665.474	80.006	19.996	103.024	20.034	-4.039	0.473
1169.000	665.713	80.005	19.995	103.025	20.030	-3.746	0.487
1169.500	665.983	80.004	19.997	103.025	20.030	-3.765	0.500
1170.000	666.218	80.006	19.996	103.024	20.032	-3.895	0.507
1170.500	666.496	80.006	19.996	103.023	20.032	-3.912	0.509
1171.000	666.706	80.005	19.996	103.024	20.032	-3.916	0.501
1171.500	666.971	80.004	19.996	103.023	20.036	-4.167	0.482
1172.001	667.210	80.003	19.995	103.023	20.031	-3.818	0.490
1172.501	667.433	80.004	19.997	103.019	20.034	-4.011	0.483
1173.000	667.689	80.005	19.996	103.019	20.034	-4.056	0.470
1173.500	667.940	80.005	19.996	103.018	20.033	-3.933	0.493
1174.000	668.197	80.005	19.996	103.018	20.034	-4.041	0.507
1174.500	668.444	80.005	19.996	103.018	20.032	-3.867	0.506
1175.000	668.647	80.004	19.996	103.024	20.036	-4.196	0.477
1175.500	668.920	80.005	19.995	103.024	20.034	-4.033	0.463
1176.000	669.218	80.004	19.997	103.025	20.034	-4.011	0.523
1176.500	669.453	80.006	19.996	103.026	20.034	-4.041	0.552
1177.000	669.670	80.006	19.996	103.026	20.034	-4.003	0.493
1177.500	669.913	80.004	19.996	103.027	20.032	-3.897	0.456
1178.000	670.171	80.006	19.996	103.031	20.032	-3.922	0.481
1178.501	670.425	80.003	19.997	103.033	20.037	-4.230	0.506
1179.001	670.663	80.004	19.996	103.032	20.035	-4.111	0.501
1179.500	670.959	80.005	19.996	103.032	20.034	-4.026	0.513
1180.000	671.182	80.005	19.997	103.025	20.033	-3.975	0.527
1180.500	671.400	80.005	19.997	103.019	20.036	-4.181	0.480
1181.000	671.665	80.005	19.996	103.017	20.034	-4.052	0.462
1181.500	671.889	80.005	19.996	103.017	20.036	-4.188	0.486
1182.000	672.170	80.006	19.996	103.017	20.035	-4.130	0.497
1182.500	672.435	80.005	19.995	103.024	20.036	-4.175	0.526
1183.000	672.674	80.005	19.995	103.025	20.038	-4.277	0.525
1183.500	672.923	80.005	19.995	103.026	20.038	-4.284	0.496
1184.000	673.177	80.006	19.996	103.025	20.037	-4.216	0.495
1184.500	673.438	80.005	19.995	103.026	20.037	-4.228	0.509
1185.000	673.717	80.007	19.995	103.026	20.034	-4.020	0.528
1185.500	674.002	80.006	19.995	103.026	20.038	-4.311	0.552
1186.000	674.155	80.007	19.995	103.026	20.037	-4.226	0.501
1186.501	674.448	80.007	19.995	103.026	20.034	-4.039	0.442
1187.001	674.724	80.005	19.995	103.026	20.033	-3.990	0.508
1187.501	674.979	80.007	19.995	103.026	20.035	-4.111	0.550
1188.001	675.224	80.004	19.995	103.027	20.033	-3.965	0.515
1188.500	675.450	80.006	19.994	103.028	20.033	-3.950	0.486
1189.000	675.725	80.005	19.995	103.029	20.032	-3.890	0.487
1189.500	675.975	80.005	19.994	103.029	20.031	-3.843	0.513
1190.000	676.245	80.005	19.994	103.029	20.034	-4.017	0.522
1190.501	676.472	80.004	19.995	103.028	20.034	-4.013	0.508
1191.001	676.715	80.006	19.995	103.028	20.034	-4.017	0.484
1191.500	676.993	80.004	19.996	103.028	20.034	-4.039	0.496
1192.000	677.265	80.005	19.994	103.027	20.029	-3.695	0.535
1192.500	677.494	80.005	19.996	103.027	20.030	-3.784	0.525
1193.000	677.726	80.005	19.995	103.028	20.034	-4.063	0.481
1193.500	677.971	80.004	19.995	103.028	20.033	-3.990	0.469
1194.000	678.231	80.005	19.995	103.027	20.034	-4.037	0.491
1194.500	678.494	80.005	19.995	103.024	20.032	-3.910	0.514
1195.000	678.745	80.005	19.995	103.024	20.034	-4.012	0.518
1195.500	679.001	80.005	19.995	103.024	20.032	-3.865	0.510
1196.001	679.293	80.003	19.995	103.024	20.029	-3.714	0.528
1196.501	679.517	80.005	19.995	103.029	20.030	-3.738	0.532
1197.000	679.754	80.005	19.996	103.034	20.031	-3.831	0.488
1197.500	679.987	80.006	19.996	103.034	20.028	-3.633	0.466
1198.000	680.276	80.006	19.996	103.034	20.029	-3.695	0.496
1198.501	680.544	80.006	19.995	103.033	20.030	-3.765	0.539
1199.001	680.747	80.005	19.994	103.030	20.029	-3.652	0.514
1199.501	680.995	80.006	19.995	103.033	20.031	-3.816	0.461
1200.000	681.228	80.005	19.995	103.036	20.030	-3.761	0.466
1200.500	681.487	80.006	19.995	103.042	20.030	-3.724	0.487
1201.000	681.754	80.006	19.995	103.042	20.027	-3.556	0.510
1201.500	681.993	80.004	19.995	103.039	20.032	-3.920	0.516
1202.000	682.236	80.005	19.995	103.033	20.034	-4.035	0.494
1202.501	682.463	80.006	19.995	103.025	20.032	-3.867	0.476
1203.001	682.725	80.006	19.995	103.020	20.035	-4.105	0.480
1203.501	682.956	80.006	19.995	103.020	20.036	-4.137	0.491
1204.001	683.218	80.006	19.995	103.022	20.032	-3.912	0.493
1204.500	683.461	80.007	19.995	103.022	20.030	-3.773	0.499
1205.000	683.723	80.007	19.995	103.024	20.032	-3.867	0.505
1205.500	683.975	80.007	19.995	103.017	20.030	-3.720	0.510
1206.000	684.174	80.007	19.994	103.012	20.033	-3.950	0.482
1206.501	684.473	80.005	19.996	103.010	20.034	-4.032	0.474
1207.001	684.694	80.008	19.994	103.012	20.036	-4.166	0.509
1207.501	684.964	80.007	19.994	103.014	20.037	-4.215	0.505
1208.000	685.211	80.007	19.994	103.021	20.036	-4.141	0.504
1208.500	685.417	80.005	19.994	103.026	20.034	-4.054	0.485
1209.000	685.723	80.006	19.995	103.029	20.038	-4.305	0.483
1209.500	685.930	80.006	19.995	103.028	20.036	-4.171	0.513
1210.001	686.180	80.005	19.995	103.028	20.033	-3.964	0.485
1210.501	686.425	80.006	19.995	103.028	20.034	-3.997	0.476
1211.000	686.653	80.006	19.994	103.029	20.033	-3.973	0.485
1211.500	686.947	80.007	19.994	103.028	20.038	-4.320	0.498
1212.001	687.179	80.006	19.995	103.029	20.036	-4.201	0.523
1212.501	687.440	80.006	19.994	103.027	20.037	-4.211	0.509
1213.000	687.665	80.005	19.994	103.024	20.036	-4.139	0.490
1213.501	687.901	80.006	19.995	103.024	20.036	-4.160	0.474
1214.001	688.170	80.006	19.994	103.024	20.037	-4.268	0.483
1214.500	688.433	80.006	19.995	103.022	20.041	-4.536	0.518
1215.000	688.657	80.005	19.994	103.021	20.038	-4.326	0.509
1215.500	688.929	80.005	19.995	103.024	20.038	-4.288	0.492
1216.000	689.153	80.006	19.994	103.024	20.040	-4.420	0.496
1216.500	689.458	80.006	19.994	103.027	20.037	-4.271	0.512
1217.000	689.748	80.006	19.994	103.030	20.035	-4.130	0.562
1217.500	689.969	80.005	19.994	103.034	20.037	-4.256	0.553
1218.000	690.196	80.004	19.995	103.035	20.035	-4.126	0.479
1218.500	690.434	80.005	19.994	103.036	20.039	-4.377	0.456
1219.000	690.690	80.006	19.995	103.037	20.036	-4.190	0.479
1219.501	690.916	80.006	19.995	103.036	20.038	-4.292	0.488
1220.001	691.167	80.005	19.995	103.035	20.039	-4.353	0.480
1220.500	691.427	80.006	19.994	103.035	20.035	-4.118	0.494
1221.000	691.686	80.007	19.994	103.032	20.036	-4.154	0.515
1221.501	691.926	80.006	19.995	103.028	20.038	-4.339	0.509
1222.001	692.158	80.005	19.995	103.028	20.038	-4.339	0.486
1222.500	692.431	80.005	19.995	103.026	20.039	-4.362	0.489
1223.000	692.700	80.006	19.995	103.023	20.037	-4.228	0.524
1223.500	692.968	80.006	19.995	103.026	20.038	-4.328	0.540
1224.000	693.150	80.005	19.996	103.031	20.039	-4.343	0.493
1224.500	693.402	80.006	19.995	103.034	20.038	-4.337	0.442
1225.000	693.691	80.006	19.995	103.035	20.037	-4.256	0.488
1225.500	693.971	80.006	19.995	103.037	20.037	-4.264	0.555
1226.000	694.201	80.006	19.994	103.034	20.039	-4.357	0.540
1226.500	694.475	80.006	19.995	103.029	20.039	-4.410	0.507
1227.000	694.691	80.008	19.995	103.027	20.039	-4.395	0.497
1227.500	694.959	80.008	19.995	103.029	20.039	-4.345	0.487
1228.000	695.216	80.008	19.994	103.031	20.040	-4.459	0.504
1228.501	695.531	80.008	19.995	103.030	20.040	-4.458	0.548
1229.001	695.720	80.008	19.995	103.030	20.040	-4.461	0.538
1229.501	695.992	80.007	19.995	103.030	20.039	-4.404	0.483
1230.000	696.253	80.007	19.994	103.029	20.042	-4.582	0.497
1230.500	696.488	80.007	19.996	103.031	20.041	-4.551	0.514
1231.000	696.772	80.007	19.996	103.032	20.040	-4.474	0.507
1231.500	697.007	80.008	19.995	103.032	20.042	-4.608	0.519
1232.000	697.240	80.007	19.995	103.032	20.043	-4.659	0.493
1232.500	697.488	80.007	19.996	103.030	20.042	-4.606	0.474
1233.000	697.749	80.009	19.995	103.028	20.041	-4.509	0.495
1233.500	697.988	80.008	19.995	103.025	20.040	-4.421	0.505
1234.000	698.247	80.008	19.994	103.024	20.044	-4.710	0.499
1234.500	698.485	80.007	19.996	103.024	20.042	-4.567	0.498
1235.000	698.744	80.006	19.994	103.027	20.041	-4.516	0.497
1235.500	699.015	80.007	19.994	103.028	20.041	-4.542	0.513
1236.000	699.285	80.008	19.995	103.032	20.040	-4.442	0.535
1236.500	699.531	80.007	19.995	103.038	20.042	-4.560	0.528
1237.001	699.761	80.005	19.996	103.041	20.045	-4.817	0.496
1237.501	700.006	80.007	19.995	103.040	20.042	-4.579	0.476
1238.001	700.234	80.008	19.995	103.043	20.043	-4.626	0.474
1238.500	700.548	80.006	19.995	103.043	20.044	-4.759	0.508
1239.000	700.776	80.006	19.995	103.038	20.043	-4.640	0.542
1239.500	701.043	80.006	19.996	103.036	20.044	-4.694	0.518
1240.000	701.305	80.007	19.995	103.039	20.046	-4.853	0.512
1240.500	701.537	80.006	19.996	103.040	20.042	-4.617	0.511
1241.000	701.788	80.005	19.995	103.043	20.046	-4.859	0.489
1241.500	702.017	80.005	19.995	103.043	20.046	-4.836	0.481
1242.000	702.330	80.006	19.995	103.044	20.042	-4.596	0.511
1242.500	702.571	80.006	19.995	103.039	20.044	-4.738	0.548
1243.000	702.814	80.006	19.994	103.033	20.046	-4.879	0.519
1243.501	703.068	80.005	19.995	103.030	20.048	-5.011	0.490
1244.001	703.322	80.007	19.996	103.035	20.046	-4.853	0.503
1244.500	703.581	80.005	19.996	103.038	20.044	-4.711	0.511
1245.000	703.832	80.006	19.995	103.046	20.046	-4.838	0.511
1245.500	704.095	80.005	19.996	103.048	20.043	-4.687	0.512
1246.000	704.354	80.005	19.996	103.046	20.045	-4.785	0.518
1246.500	704.612	80.005	19.996	103.042	20.043	-4.675	0.520
1247.000	704.859	80.005	19.996	103.037	20.045	-4.809	0.511
1247.500	705.101	80.004	19.995	103.030	20.044	-4.751	0.497
1248.000	705.359	80.006	19.995	103.034	20.043	-4.649	0.495
1248.500	705.604	80.005	19.995	103.034	20.042	-4.555	0.501
1249.001	705.877	80.005	19.995	103.033	20.042	-4.609	0.510
1249.501	706.105	80.004	19.996	103.033	20.043	-4.675	0.510
1250.000	706.361	80.005	19.995	103.032	20.044	-4.705	0.492
1250.500	706.620	80.005	19.996	103.026	20.043	-4.651	0.499
1251.001	706.894	80.004	19.996	103.026	20.043	-4.639	0.524
1251.501	707.144	80.005	19.995	103.028	20.043	-4.690	0.528
1252.001	707.414	80.005	19.995	103.030	20.042	-4.586	0.522
1252.500	707.664	80.004	19.995	103.030	20.044	-4.719	0.520
1253.000	707.945	80.005	19.996	103.030	20.043	-4.683	0.525
1253.500	708.169	80.005	19.995	103.030	20.047	-4.962	0.518
1254.000	708.418	80.005	19.995	103.028	20.047	-4.915	0.489
1254.500	708.690	80.004	19.995	103.026	20.047	-4.911	0.497
1255.000	708.925	80.005	19.996	103.027	20.048	-5.015	0.514
1255.500	709.205	80.004	19.995	103.028	20.045	-4.804	0.511
1256.000	709.474	80.005	19.996	103.028	20.046	-4.898	0.532
1256.500	709.724	80.006	19.996	103.029	20.046	-4.894	0.533
1257.000	709.946	80.005	19.996	103.029	20.047	-4.968	0.495
1257.501	710.210	80.005	19.996	103.029	20.048	-5.023	0.479
1258.001	710.475	80.005	19.995	103.030	20.045	-4.789	0.508
1258.500	710.737	80.004	19.996	103.030	20.048	-4.991	0.528
1259.000	710.992	80.004	19.996	103.030	20.045	-4.811	0.522
1259.500	711.242	80.005	19.995	103.030	20.048	-4.996	0.511
1260.000	711.495	80.005	19.996	103.030	20.045	-4.806	0.504
1260.500	711.743	80.005	19.996	103.026	20.046	-4.858	0.502
1261.000	711.994	80.005	19.996	103.025	20.046	-4.862	0.501
1261.500	712.262	80.006	19.996	103.025	20.046	-4.892	0.510
1262.000	712.468	80.004	19.997	103.024	20.047	-4.902	0.496
1262.500	712.691	80.004	19.997	103.024	20.047	-4.953	0.451
1263.001	712.983	80.004	19.996	103.027	20.047	-4.957	0.472
1263.501	713.220	80.005	19.996	103.028	20.048	-5.015	0.522
1264.000	713.488	80.005	19.996	103.028	20.046	-4.855	0.517
1264.500	713.749	80.006	19.995	103.028	20.048	-4.987	0.517
1265.000	713.984	80.005	19.996	103.028	20.049	-5.044	0.512
1265.500	714.236	80.005	19.996	103.028	20.046	-4.859	0.492
1266.000	714.465	80.005	19.996	103.028	20.046	-4.873	0.484
1266.500	714.715	80.003	19.996	103.028	20.047	-4.966	0.480
1267.000	715.010	80.003	19.996	103.029	20.049	-5.077	0.512
1267.500	715.239	80.004	19.996	103.030	20.045	-4.828	0.535
1268.001	715.533	80.004	19.996	103.031	20.047	-4.942	0.524
1268.501	715.779	80.002	19.996	103.031	20.050	-5.165	0.531
1269.001	716.024	80.005	19.996	103.031	20.048	-5.012	0.515
1269.501	716.277	80.005	19.994	103.031	20.047	-4.944	0.495
1270.000	716.516	80.005	19.995	103.030	20.050	-5.157	0.495
1270.500	716.776	80.004	19.995	103.029	20.049	-5.044	0.495
1271.000	717.027	80.004	19.996	103.028	20.045	-4.792	0.505
1271.500	717.272	80.005	19.995	103.023	20.050	-5.155	0.504
1272.000	717.526	80.004	19.996	103.023	20.046	-4.896	0.498
1272.500	717.783	80.004	19.995	103.023	20.047	-4.915	0.505
1273.000	718.050	80.004	19.994	103.024	20.050	-5.129	0.517
1273.500	718.284	80.004	19.996	103.026	20.050	-5.140	0.512
1274.000	718.531	80.004	19.995	103.031	20.050	-5.132	0.491
1274.500	718.761	80.005	19.995	103.032	20.049	-5.100	0.479
1275.000	719.008	80.004	19.994	103.031	20.049	-5.064	0.476
1275.500	719.259	80.003	19.994	103.030	20.053	-5.338	0.487
1276.001	719.519	80.005	19.995	103.030	20.050	-5.140	0.505
1276.501	719.778	80.004	19.995	103.030	20.050	-5.174	0.515
1277.000	720.003	80.005	19.994	103.027	20.051	-5.232	0.502
1277.500	720.278	80.004	19.995	103.027	20.051	-5.228	0.492
1278.000	720.541	80.005	19.995	103.028	20.050	-5.113	0.519
1278.500	720.770	80.005	19.993	103.028	20.051	-5.245	0.515
1279.000	721.015	80.004	19.995	103.029	20.053	-5.355	0.483
1279.500	721.300	80.006	19.995	103.032	20.055	-5.464	0.503
1280.000	721.489	80.006	19.996	103.033	20.049	-5.096	0.502
1280.500	721.748	80.004	19.995	103.030	20.052	-5.306	0.460
1281.000	721.993	80.005	19.995	103.030	20.054	-5.413	0.476
1281.500	722.268	80.006	19.994	103.028	20.051	-5.232	0.512
1282.000	722.503	80.006	19.995	103.028	20.052	-5.308	0.515
1282.500	722.744	80.005	19.995	103.028	20.052	-5.262	0.493
1283.000	723.008	80.007	19.995	103.030	20.055	-5.462	0.491
1283.500	723.269	80.007	19.995	103.029	20.052	-5.298	0.515
1284.000	723.548	80.006	19.995	103.029	20.053	-5.357	0.532
1284.500	723.786	80.007	19.995	103.029	20.052	-5.294	0.528
1285.000	724.030	80.007	19.994	103.027	20.054	-5.434	0.500
1285.501	724.286	80.007	19.994	103.026	20.053	-5.370	0.491
1286.001	724.530	80.006	19.995	103.025	20.052	-5.300	0.500
1286.500	724.777	80.007	19.995	103.025	20.053	-5.342	0.495
1287.000	725.024	80.007	19.995	103.025	20.057	-5.636	0.493
1287.500	725.226	80.007	19.995	103.025	20.052	-5.274	0.472
1288.000	725.527	80.007	19.995	103.026	20.056	-5.531	0.476
1288.500	725.747	80.007	19.995	103.026	20.053	-5.364	0.512
1289.000	726.020	80.007	19.995	103.025	20.054	-5.402	0.507
1289.500	726.314	80.007	19.995	103.022	20.054	-5.436	0.531
1290.001	726.545	80.007	19.996	103.022	20.053	-5.381	0.546
1290.501	726.769	80.007	19.995	103.022	20.056	-5.548	0.490
1291.000	727.039	80.008	19.995	103.022	20.055	-5.521	0.474
1291.500	727.277	80.006	19.995	103.023	20.053	-5.356	0.501
1292.000	727.537	80.007	19.994	103.025	20.054	-5.432	0.503
1292.500	727.795	80.006	19.995	103.026	20.055	-5.488	0.508
1293.000	728.053	80.006	19.995	103.026	20.052	-5.249	0.517
1293.500	728.363	80.007	19.995	103.024	20.052	-5.294	0.542
1294.000	728.610	80.007	19.995	103.024	20.052	-5.302	0.562
1294.500	728.837	80.006	19.995	103.024	20.052	-5.258	0.516
1295.000	729.105	80.005	19.995	103.024	20.055	-5.475	0.485
1295.501	729.340	80.006	19.995	103.024	20.057	-5.602	0.499
1296.001	729.586	80.006	19.995	103.025	20.054	-5.440	0.492
1296.500	729.860	80.006	19.995	103.025	20.055	-5.487	0.500
1297.001	730.121	80.007	19.996	103.024	20.054	-5.419	0.527
1297.501	730.358	80.005	19.995	103.023	20.053	-5.323	0.516
1298.001	730.620	80.006	19.995	103.024	20.057	-5.602	0.499
1298.500	730.891	80.006	19.995	103.024	20.054	-5.404	0.516
1299.000	731.128	80.006	19.995	103.025	20.055	-5.487	0.521
1299.500	731.437	80.006	19.995	103.026	20.053	-5.347	0.527
1300.000	731.636	80.005	19.995	103.026	20.056	-5.581	0.526
1300.500	731.905	80.006	19.995	103.025	20.055	-5.489	0.488
1301.000	732.147	80.007	19.995	103.026	20.056	-5.538	0.489
1301.500	732.396	80.006	19.995	103.026	20.056	-5.596	0.501
1302.000	732.644	80.007	19.996	103.025	20.056	-5.551	0.494
1302.501	732.937	80.006	19.995	103.019	20.055	-5.513	0.519
1303.001	733.190	80.007	19.995	103.017	20.055	-5.496	0.543
1303.500	733.447	80.007	19.994	103.015	20.058	-5.715	0.528
1304.000	733.714	80.007	19.995	103.015	20.057	-5.662	0.517
1304.500	733.982	80.008	19.994	103.013	20.057	-5.642	0.530
1305.000	734.202	80.008	19.994	103.015	20.055	-5.483	0.511
1305.500	734.446	80.009	19.995	103.017	20.055	-5.525	0.476
1306.000	734.728	80.009	19.994	103.018	20.054	-5.424	0.495
1306.500	734.964	80.009	19.995	103.018	20.055	-5.523	0.522
1307.000	735.207	80.007	19.995	103.021	20.051	-5.247	0.498
1307.500	735.462	80.007	19.995	103.025	20.053	-5.349	0.489
1308.001	735.727	80.007	19.994	103.026	20.055	-5.470	0.509
1308.501	735.974	80.008	19.994	103.026	20.054	-5.455	0.516
1309.000	736.241	80.007	19.994	103.026	20.054	-5.456	0.513
1309.500	736.486	80.007	19.994	103.026	20.054	-5.446	0.513
1310.000	736.757	80.009	19.995	103.024	20.054	-5.450	0.514
1310.501	736.994	80.008	19.994	103.024	20.054	-5.424	0.512
1311.001	737.247	80.008	19.993	103.024	20.055	-5.483	0.498
1311.501	737.515	80.009	19.994	103.023	20.053	-5.353	0.505
1312.001	737.782	80.008	19.994	103.022	20.055	-5.472	0.528
1312.500	738.016	80.008	19.994	103.022	20.058	-5.719	0.518
1313.000	738.218	80.009	19.994	103.018	20.053	-5.345	0.468
1313.500	738.497	80.008	19.995	103.017	20.055	-5.466	0.458
1314.000	738.786	80.009	19.995	103.016	20.058	-5.721	0.525
1314.500	739.031	80.007	19.994	103.015	20.059	-5.753	0.551
1315.000	739.286	80.006	19.995	103.015	20.059	-5.789	0.517
1315.500	739.557	80.008	19.995	103.019	20.057	-5.640	0.513
1316.000	739.833	80.008	19.995	103.019	20.058	-5.715	0.537
1316.500	740.054	80.006	19.995	103.019	20.063	-6.051	0.522
1317.000	740.305	80.006	19.996	103.019	20.057	-5.662	0.484
1317.500	740.545	80.006	19.995	103.021	20.057	-5.657	0.481
1318.000	740.859	80.005	19.995	103.020	20.058	-5.689	0.523
1318.500	741.030	80.005	19.995	103.020	20.056	-5.551	0.520
1319.000	741.302	80.004	19.995	103.021	20.060	-5.876	0.464
1319.500	741.536	80.006	19.995	103.017	20.058	-5.697	0.474
1320.000	741.807	80.005	19.995	103.009	20.060	-5.827	0.505
1320.500	742.059	80.005	19.997	103.007	20.059	-5.738	0.514
1321.000	742.273	80.005	19.995	103.004	20.058	-5.683	0.494
1321.500	742.530	80.005	19.996	103.004	20.056	-5.588	0.469
1322.001	742.769	80.004	19.996	103.010	20.059	-5.777	0.483
1322.501	743.026	80.006	19.995	103.018	20.059	-5.794	0.496
1323.000	743.340	80.005	19.995	103.022	20.058	-5.718	0.534
1323.500	743.533	80.006	19.996	103.024	20.058	-5.733	0.539
1324.000	743.787	80.004	19.996	103.024	20.059	-5.743	0.477
1324.501	744.026	80.005	19.996	103.024	20.059	-5.804	0.470
1325.001	744.261	80.005	19.995	103.023	20.058	-5.668	0.484
1325.500	744.510	80.005	19.995	103.023	20.059	-5.766	0.479
1326.000	744.794	80.005	19.995	103.022	20.061	-5.934	0.508
1326.500	745.042	80.005	19.995	103.018	20.061	-5.935	0.533
