Sample ID:	C:\MCC\MCC Cal\Test\PlasticA_MCC_30K_min_211018_R1.txt
Sample Weight (mg):	4.78
Heating Rate (C/s):	0.5
Combustor Temp (C):	900
N2 Flow Rate (cc/min):	80
O2 Flow Rate (cc/min):	20
Calibration File:	C:\MCC\MCC Cal\Coeff1 JN10440_30_210304.txt.txt
T Correction Coefficients:	0	1.024463	0
Time Shift (s):	14
*
Time (s)	Temperature (C)	N2 flow rate (cc/min)	O2 flow rate (cc/min)	Flow Rate (cc/min)	Oxygen (%)	HRR (W/g)	Heating rate (C/s)
0.000	106.377	80.000	19.995	102.962	20.135	-0.225	-0.026
0.500	106.403	80.002	19.994	102.963	20.133	-0.090	-0.035
1.000	106.401	80.000	19.995	102.963	20.132	-0.017	-0.001
1.500	106.416	80.001	19.994	102.963	20.133	-0.133	0.019
2.001	106.417	80.000	19.994	102.963	20.131	0.004	0.015
2.500	106.385	80.001	19.993	102.962	20.132	-0.074	-0.008
3.000	106.397	80.002	19.994	102.962	20.133	-0.083	-0.025
3.500	106.404	80.002	19.994	102.961	20.130	0.072	-0.000
4.000	106.424	80.002	19.995	102.960	20.132	-0.037	0.023
4.500	106.431	80.004	19.994	102.960	20.127	0.285	0.027
5.000	106.447	80.002	19.994	102.961	20.132	-0.053	0.025
5.500	106.441	80.002	19.993	102.960	20.129	0.140	0.016
6.000	106.418	80.000	19.995	102.961	20.132	-0.018	-0.010
6.500	106.426	80.001	19.993	102.961	20.128	0.247	-0.021
7.000	106.414	80.001	19.992	102.961	20.127	0.298	-0.009
7.500	106.453	80.001	19.994	102.962	20.130	0.066	0.011
8.000	106.427	80.000	19.995	102.962	20.129	0.147	0.019
8.500	106.409	80.004	19.994	102.964	20.134	-0.192	-0.015
9.001	106.454	80.002	19.994	102.966	20.132	-0.053	-0.008
9.501	106.448	80.002	19.994	102.968	20.130	0.083	0.033
10.000	106.427	80.004	19.994	102.972	20.130	0.092	0.006
10.500	106.427	80.003	19.994	102.973	20.125	0.396	-0.024
11.000	106.419	80.001	19.992	102.973	20.128	0.197	-0.014
11.501	106.378	80.003	19.994	102.971	20.131	0.037	-0.029
12.001	106.397	80.002	19.992	102.970	20.131	0.026	-0.036
12.501	106.429	80.002	19.993	102.965	20.126	0.363	0.014
13.001	106.416	80.004	19.994	102.964	20.130	0.107	0.035
13.500	106.391	80.001	19.993	102.963	20.128	0.240	-0.009
14.000	106.418	80.001	19.995	102.965	20.125	0.415	-0.018
14.500	106.351	80.002	19.994	102.966	20.125	0.407	-0.019
15.000	106.389	80.002	19.993	102.968	20.126	0.358	-0.035
15.501	106.425	80.002	19.995	102.971	20.120	0.754	0.022
16.001	106.419	80.001	19.994	102.975	20.122	0.643	0.052
16.500	106.412	80.000	19.994	102.982	20.125	0.426	0.008
17.000	106.434	80.002	19.994	102.990	20.122	0.599	0.001
17.500	106.399	80.002	19.994	103.002	20.123	0.571	0.002
18.000	106.440	80.001	19.994	103.011	20.120	0.758	-0.003
18.500	106.450	80.001	19.994	103.020	20.119	0.846	0.028
19.000	106.478	80.002	19.994	103.028	20.116	1.053	0.044
19.500	106.454	80.001	19.994	103.035	20.115	1.082	0.021
20.000	106.478	80.001	19.993	103.044	20.117	0.959	0.002
20.500	106.478	80.001	19.994	103.052	20.114	1.147	0.012
21.000	106.490	79.999	19.994	103.055	20.110	1.431	0.018
21.500	106.534	80.001	19.995	103.057	20.113	1.200	0.034
22.000	106.547	80.001	19.995	103.061	20.112	1.311	0.057
22.501	106.614	80.000	19.994	103.063	20.110	1.436	0.068
23.001	106.592	80.001	19.993	103.068	20.113	1.258	0.062
23.500	106.632	80.000	19.994	103.075	20.107	1.649	0.032
24.000	106.656	80.001	19.995	103.081	20.109	1.474	0.041
24.500	106.673	80.001	19.995	103.081	20.115	1.123	0.052
25.001	106.652	80.001	19.995	103.080	20.109	1.533	0.018
25.501	106.727	80.000	19.993	103.078	20.110	1.461	0.025
26.001	106.746	79.999	19.994	103.076	20.107	1.642	0.074
26.501	106.788	79.999	19.994	103.076	20.103	1.887	0.077
27.001	106.827	80.000	19.994	103.076	20.108	1.588	0.071
27.501	106.898	80.000	19.994	103.079	20.110	1.457	0.095
28.000	106.908	79.999	19.994	103.082	20.101	2.049	0.096
28.500	106.963	80.001	19.993	103.086	20.104	1.822	0.073
29.000	106.962	80.000	19.996	103.090	20.103	1.892	0.059
29.501	107.007	80.002	19.994	103.092	20.102	1.957	0.049
30.001	107.058	80.001	19.995	103.092	20.099	2.147	0.070
30.500	107.103	80.002	19.995	103.094	20.100	2.114	0.096
31.001	107.153	80.001	19.996	103.097	20.102	2.003	0.095
31.501	107.219	80.001	19.994	103.101	20.097	2.287	0.106
32.000	107.224	80.000	19.993	103.108	20.097	2.278	0.093
32.501	107.295	80.001	19.997	103.115	20.102	1.950	0.073
33.001	107.301	79.999	19.994	103.120	20.098	2.247	0.077
33.501	107.399	80.001	19.994	103.122	20.097	2.300	0.090
34.000	107.445	80.001	19.995	103.126	20.098	2.228	0.124
34.500	107.511	80.001	19.995	103.133	20.095	2.446	0.128
35.000	107.559	80.001	19.994	103.139	20.098	2.212	0.113
35.500	107.624	80.000	19.993	103.146	20.099	2.192	0.113
36.000	107.647	79.997	19.994	103.151	20.100	2.100	0.101
36.500	107.756	80.001	19.994	103.151	20.097	2.314	0.110
37.000	107.799	80.001	19.994	103.151	20.097	2.280	0.142
37.500	107.880	80.000	19.995	103.148	20.099	2.151	0.138
38.000	107.973	80.000	19.994	103.145	20.099	2.149	0.149
38.500	108.031	80.002	19.995	103.143	20.096	2.346	0.163
39.000	108.053	80.000	19.995	103.146	20.097	2.334	0.116
39.500	108.205	80.001	19.995	103.145	20.094	2.513	0.127
40.000	108.255	80.001	19.995	103.148	20.095	2.452	0.188
40.500	108.361	80.000	19.994	103.150	20.092	2.629	0.179
41.000	108.430	80.000	19.994	103.150	20.092	2.681	0.166
41.500	108.506	80.001	19.994	103.149	20.095	2.437	0.160
42.001	108.597	79.999	19.994	103.151	20.091	2.723	0.156
42.501	108.754	80.000	19.994	103.151	20.097	2.306	0.207
43.001	108.829	80.001	19.995	103.152	20.092	2.626	0.239
43.500	108.869	80.002	19.996	103.154	20.094	2.485	0.173
44.000	108.940	80.000	19.994	103.157	20.094	2.495	0.113
44.500	109.016	80.001	19.994	103.159	20.089	2.869	0.129
45.000	109.128	80.002	19.995	103.158	20.091	2.744	0.167
45.500	109.216	79.999	19.994	103.162	20.093	2.577	0.194
46.000	109.331	80.000	19.994	103.168	20.095	2.461	0.201
46.501	109.439	80.000	19.996	103.174	20.092	2.638	0.213
47.001	109.512	80.001	19.994	103.179	20.092	2.653	0.202
47.501	109.642	79.999	19.995	103.181	20.090	2.789	0.192
48.000	109.728	79.999	19.994	103.180	20.091	2.697	0.210
48.500	109.832	80.000	19.995	103.173	20.093	2.595	0.203
49.000	109.964	80.000	19.994	103.172	20.093	2.561	0.213
49.501	110.065	79.999	19.995	103.167	20.094	2.533	0.234
50.001	110.149	80.000	19.996	103.169	20.092	2.677	0.209
50.500	110.239	80.000	19.996	103.173	20.090	2.790	0.180
51.000	110.354	80.000	19.995	103.177	20.091	2.685	0.190
51.500	110.477	80.000	19.996	103.175	20.090	2.801	0.222
52.000	110.642	80.002	19.996	103.176	20.093	2.558	0.263
52.500	110.727	79.999	19.995	103.180	20.090	2.777	0.269
53.000	110.841	79.999	19.995	103.181	20.092	2.652	0.224
53.500	110.955	80.000	19.996	103.185	20.090	2.764	0.214
54.000	111.054	80.001	19.995	103.191	20.091	2.685	0.220
54.500	111.187	79.999	19.995	103.192	20.095	2.458	0.223
55.001	111.319	79.999	19.994	103.187	20.094	2.500	0.249
55.501	111.455	80.001	19.996	103.188	20.090	2.759	0.266
56.001	111.549	80.000	19.995	103.187	20.090	2.809	0.249
56.500	111.685	80.000	19.995	103.180	20.089	2.844	0.230
57.000	111.819	80.001	19.994	103.178	20.093	2.613	0.250
57.500	111.969	80.000	19.994	103.176	20.091	2.696	0.277
58.000	112.099	80.001	19.994	103.169	20.095	2.426	0.282
58.500	112.203	80.000	19.994	103.161	20.095	2.445	0.257
59.000	112.354	79.999	19.994	103.161	20.087	2.970	0.244
59.500	112.491	80.001	19.995	103.166	20.090	2.780	0.272
60.000	112.600	80.002	19.995	103.180	20.097	2.278	0.267
60.501	112.705	80.001	19.994	103.190	20.095	2.421	0.231
61.001	112.877	80.000	19.994	103.199	20.095	2.465	0.246
61.500	112.981	80.001	19.994	103.207	20.089	2.819	0.276
62.000	113.107	80.001	19.997	103.208	20.090	2.760	0.252
62.500	113.275	80.002	19.994	103.201	20.090	2.750	0.262
63.000	113.427	80.001	19.992	103.200	20.091	2.732	0.307
63.501	113.532	80.003	19.995	103.198	20.095	2.431	0.289
64.001	113.715	80.002	19.996	103.197	20.094	2.489	0.272
64.500	113.833	80.002	19.995	103.198	20.096	2.358	0.294
65.000	113.972	80.003	19.996	103.198	20.094	2.517	0.279
65.500	114.132	80.002	19.994	103.199	20.095	2.417	0.279
66.000	114.254	80.002	19.995	103.200	20.094	2.499	0.290
66.500	114.414	80.001	19.994	103.201	20.091	2.700	0.282
67.000	114.568	80.001	19.994	103.199	20.094	2.541	0.298
67.500	114.740	80.000	19.995	103.199	20.091	2.737	0.320
68.000	114.884	80.002	19.994	103.197	20.091	2.719	0.321
68.500	115.014	80.001	19.995	103.195	20.093	2.570	0.295
69.001	115.160	80.000	19.996	103.193	20.091	2.728	0.275
69.501	115.312	80.000	19.994	103.192	20.096	2.379	0.287
70.000	115.467	80.000	19.994	103.185	20.094	2.499	0.302
70.500	115.591	80.001	19.995	103.180	20.092	2.644	0.293
71.000	115.801	80.001	19.995	103.179	20.088	2.901	0.306
71.500	115.952	80.001	19.994	103.182	20.094	2.515	0.348
72.000	116.123	80.000	19.995	103.177	20.091	2.697	0.342
72.500	116.286	80.002	19.995	103.176	20.093	2.565	0.328
73.000	116.427	80.002	19.995	103.174	20.087	2.993	0.319
73.500	116.597	80.002	19.995	103.168	20.094	2.517	0.307
74.001	116.722	80.001	19.995	103.162	20.086	3.023	0.303
74.501	116.890	80.000	19.997	103.164	20.092	2.664	0.294
75.000	117.072	80.002	19.996	103.168	20.088	2.889	0.321
75.500	117.256	80.003	19.997	103.176	20.087	2.987	0.358
76.000	117.422	79.999	19.995	103.184	20.089	2.830	0.359
76.500	117.537	80.001	19.996	103.195	20.087	2.984	0.315
77.000	117.679	80.000	19.995	103.200	20.094	2.490	0.269
77.501	117.903	80.000	19.996	103.207	20.088	2.899	0.311
78.001	118.072	80.002	19.994	103.211	20.092	2.672	0.379
78.500	118.246	80.001	19.996	103.220	20.089	2.880	0.368
79.000	118.379	80.001	19.996	103.230	20.089	2.871	0.325
79.500	118.556	80.001	19.995	103.239	20.087	3.002	0.309
80.000	118.757	80.000	19.997	103.240	20.088	2.899	0.344
80.500	118.917	80.002	19.995	103.234	20.093	2.582	0.369
81.000	119.077	80.000	19.995	103.224	20.089	2.842	0.341
81.500	119.287	80.001	19.994	103.207	20.087	2.959	0.345
82.000	119.459	80.001	19.995	103.193	20.092	2.677	0.376
82.500	119.604	80.002	19.996	103.182	20.089	2.825	0.350
83.000	119.779	80.001	19.995	103.180	20.090	2.794	0.319
83.500	119.987	80.001	19.995	103.183	20.086	3.058	0.352
84.001	120.122	80.001	19.996	103.194	20.089	2.843	0.363
84.501	120.346	80.001	19.994	103.205	20.089	2.865	0.351
85.001	120.503	80.002	19.996	103.221	20.085	3.145	0.370
85.501	120.701	80.002	19.995	103.231	20.085	3.099	0.368
86.000	120.897	80.002	19.994	103.236	20.090	2.776	0.374
86.500	121.072	80.002	19.993	103.234	20.086	3.053	0.382
87.000	121.269	80.002	19.994	103.228	20.090	2.793	0.371
87.500	121.428	80.003	19.995	103.220	20.088	2.940	0.364
88.000	121.628	80.001	19.993	103.213	20.086	3.038	0.358
88.500	121.819	80.003	19.995	103.208	20.089	2.883	0.375
89.000	121.971	80.002	19.994	103.200	20.090	2.777	0.367
89.500	122.184	80.003	19.994	103.196	20.084	3.172	0.354
90.000	122.382	80.003	19.993	103.195	20.086	3.034	0.388
90.501	122.567	80.002	19.994	103.199	20.089	2.836	0.397
91.001	122.755	80.004	19.994	103.204	20.083	3.227	0.378
91.500	122.955	80.003	19.994	103.213	20.087	2.958	0.381
92.001	123.174	80.003	19.994	103.227	20.084	3.190	0.404
92.501	123.354	80.005	19.994	103.244	20.087	2.964	0.409
93.000	123.555	80.004	19.994	103.253	20.084	3.189	0.390
93.501	123.720	80.003	19.993	103.260	20.085	3.100	0.373
94.001	123.972	80.004	19.994	103.263	20.086	3.034	0.391
94.500	124.143	80.005	19.994	103.262	20.086	3.019	0.420
95.000	124.339	80.004	19.994	103.252	20.086	3.038	0.395
95.500	124.544	80.003	19.993	103.243	20.087	2.955	0.385
96.000	124.727	80.005	19.995	103.236	20.088	2.900	0.394
96.500	124.941	80.004	19.993	103.230	20.085	3.138	0.392
97.000	125.131	80.004	19.994	103.227	20.087	2.981	0.400
97.500	125.335	80.004	19.994	103.228	20.083	3.241	0.399
98.000	125.550	80.004	19.994	103.223	20.087	2.964	0.407
98.500	125.756	80.005	19.995	103.216	20.086	3.047	0.420
99.000	125.945	80.003	19.993	103.214	20.086	3.049	0.408
99.501	126.147	80.003	19.995	103.214	20.084	3.211	0.393
100.001	126.341	80.003	19.994	103.212	20.083	3.248	0.394
100.500	126.568	80.002	19.994	103.212	20.086	3.027	0.409
101.001	126.761	80.002	19.995	103.211	20.082	3.313	0.420
101.501	126.963	80.001	19.994	103.207	20.082	3.308	0.407
102.000	127.171	80.003	19.993	103.203	20.083	3.245	0.402
102.500	127.417	80.000	19.994	103.198	20.082	3.328	0.432
103.000	127.606	80.001	19.994	103.198	20.084	3.216	0.444
103.500	127.819	80.001	19.994	103.200	20.081	3.391	0.418
104.000	128.028	80.000	19.994	103.208	20.079	3.535	0.412
104.500	128.247	80.001	19.996	103.210	20.080	3.440	0.425
105.001	128.439	80.002	19.994	103.215	20.086	3.021	0.420
105.501	128.635	80.001	19.996	103.219	20.082	3.328	0.400
106.000	128.851	80.001	19.994	103.221	20.084	3.200	0.400
106.500	129.055	80.001	19.993	103.219	20.085	3.147	0.416
107.001	129.280	80.000	19.995	103.222	20.083	3.226	0.425
107.501	129.478	80.000	19.994	103.219	20.083	3.251	0.426
108.000	129.721	80.001	19.994	103.214	20.082	3.337	0.432
108.500	129.947	80.001	19.993	103.211	20.086	3.070	0.455
109.000	130.114	80.001	19.995	103.206	20.083	3.236	0.431
109.500	130.355	80.000	19.995	103.199	20.083	3.223	0.400
110.000	130.616	80.001	19.995	103.204	20.085	3.099	0.455
110.500	130.808	80.000	19.994	103.214	20.085	3.132	0.477
111.000	131.033	80.002	19.996	103.222	20.082	3.313	0.435
111.501	131.233	80.001	19.993	103.229	20.083	3.250	0.422
112.001	131.469	80.002	19.994	103.235	20.083	3.266	0.430
112.500	131.715	80.002	19.994	103.238	20.084	3.174	0.459
113.000	131.902	80.001	19.994	103.238	20.085	3.141	0.457
113.500	132.120	80.000	19.994	103.238	20.085	3.124	0.419
114.000	132.373	80.000	19.994	103.234	20.084	3.172	0.438
114.500	132.576	80.002	19.994	103.234	20.086	3.067	0.463
115.000	132.835	80.002	19.995	103.230	20.079	3.492	0.459
115.500	133.016	80.000	19.993	103.222	20.079	3.492	0.451
116.000	133.258	80.001	19.994	103.218	20.082	3.298	0.432
116.500	133.497	80.002	19.994	103.221	20.081	3.385	0.452
117.000	133.735	80.000	19.993	103.222	20.082	3.306	0.479
117.500	133.954	80.000	19.994	103.224	20.082	3.349	0.467
118.000	134.205	80.002	19.995	103.229	20.083	3.225	0.464
118.500	134.411	80.000	19.994	103.230	20.084	3.199	0.464
119.000	134.601	80.002	19.995	103.232	20.081	3.363	0.426
119.500	134.835	80.001	19.995	103.232	20.085	3.126	0.410
120.001	135.056	80.002	19.996	103.232	20.087	2.968	0.440
120.501	135.308	80.001	19.993	103.228	20.087	2.999	0.464
121.000	135.544	80.002	19.995	103.222	20.085	3.130	0.480
121.500	135.764	80.003	19.993	103.214	20.080	3.479	0.472
122.000	135.994	80.001	19.993	103.211	20.081	3.409	0.453
122.501	136.238	80.002	19.994	103.209	20.083	3.232	0.462
123.001	136.473	80.002	19.995	103.207	20.085	3.123	0.477
123.500	136.700	80.003	19.994	103.207	20.086	3.077	0.471
124.000	136.927	80.001	19.994	103.207	20.082	3.336	0.458
124.500	137.145	80.001	19.993	103.205	20.079	3.509	0.450
125.000	137.400	80.001	19.994	103.205	20.082	3.330	0.459
125.500	137.610	80.001	19.994	103.212	20.079	3.500	0.469
126.000	137.835	80.000	19.994	103.216	20.080	3.490	0.450
126.500	138.092	80.001	19.994	103.223	20.080	3.446	0.459
127.000	138.305	80.001	19.994	103.228	20.079	3.525	0.476
127.500	138.544	80.002	19.993	103.231	20.082	3.294	0.461
128.000	138.771	80.001	19.994	103.232	20.076	3.718	0.459
128.500	138.981	80.002	19.993	103.236	20.085	3.128	0.451
129.000	139.246	80.003	19.994	103.237	20.076	3.719	0.456
129.500	139.488	80.001	19.992	103.233	20.080	3.475	0.491
130.000	139.732	80.002	19.993	103.226	20.079	3.509	0.496
130.500	139.974	80.001	19.996	103.218	20.083	3.230	0.486
131.000	140.191	80.001	19.995	103.210	20.080	3.443	0.472
131.500	140.411	80.001	19.994	103.207	20.075	3.814	0.448
132.000	140.681	80.001	19.991	103.207	20.078	3.598	0.464
132.500	140.929	80.000	19.996	103.212	20.077	3.646	0.504
133.000	141.191	80.000	19.994	103.217	20.081	3.422	0.514
133.500	141.409	80.000	19.995	103.225	20.079	3.553	0.495
134.000	141.649	80.002	19.996	103.228	20.082	3.348	0.469
134.500	141.909	80.001	19.997	103.232	20.080	3.443	0.479
135.000	142.130	80.001	19.994	103.235	20.076	3.710	0.491
135.500	142.378	79.999	19.994	103.237	20.081	3.405	0.475
136.000	142.580	80.000	19.995	103.234	20.079	3.496	0.459
136.500	142.855	80.000	19.995	103.231	20.079	3.554	0.463
137.000	143.080	80.001	19.994	103.224	20.081	3.394	0.488
137.500	143.315	80.000	19.997	103.215	20.085	3.148	0.480
138.000	143.558	80.002	19.995	103.208	20.081	3.421	0.469
138.500	143.853	80.000	19.995	103.204	20.086	3.041	0.509
139.000	144.086	80.000	19.994	103.203	20.079	3.519	0.533
139.500	144.314	79.999	19.996	103.202	20.083	3.267	0.494
140.000	144.583	80.000	19.994	103.209	20.081	3.399	0.479
140.500	144.849	79.999	19.995	103.214	20.083	3.281	0.516
141.000	145.074	80.000	19.995	103.221	20.083	3.224	0.513
141.500	145.317	80.001	19.995	103.225	20.082	3.301	0.479
142.000	145.557	79.999	19.994	103.232	20.084	3.176	0.476
142.500	145.818	80.001	19.995	103.233	20.084	3.155	0.492
143.000	146.080	80.000	19.996	103.236	20.081	3.358	0.512
143.500	146.296	80.000	19.995	103.236	20.088	2.947	0.500
144.000	146.529	80.001	19.995	103.235	20.084	3.170	0.464
144.500	146.741	80.001	19.994	103.235	20.085	3.152	0.447
145.000	147.021	80.000	19.994	103.235	20.080	3.445	0.468
145.500	147.282	80.001	19.994	103.235	20.085	3.117	0.516
146.000	147.497	80.002	19.996	103.229	20.082	3.294	0.509
146.500	147.757	80.001	19.995	103.223	20.083	3.284	0.476
147.000	148.004	80.003	19.994	103.216	20.078	3.581	0.491
147.500	148.265	80.003	19.996	103.210	20.082	3.290	0.507
148.000	148.509	80.003	19.996	103.202	20.081	3.389	0.506
148.500	148.774	80.002	19.994	103.201	20.084	3.157	0.507
149.000	148.996	80.003	19.995	103.206	20.083	3.262	0.498
149.500	149.270	80.003	19.995	103.207	20.086	3.024	0.491
150.000	149.495	80.002	19.996	103.207	20.086	3.071	0.497
150.500	149.750	80.004	19.995	103.212	20.083	3.264	0.490
151.000	150.017	80.003	19.995	103.214	20.074	3.862	0.501
151.500	150.228	80.003	19.996	103.210	20.078	3.576	0.500
152.000	150.507	80.003	19.994	103.209	20.079	3.537	0.485
152.500	150.769	80.004	19.994	103.208	20.086	3.028	0.516
153.000	150.999	80.003	19.993	103.202	20.088	2.949	0.516
153.500	151.237	80.003	19.997	103.197	20.085	3.100	0.480
154.000	151.505	80.002	19.994	103.198	20.087	3.008	0.487
154.500	151.750	80.002	19.994	103.198	20.079	3.530	0.510
155.000	152.018	80.004	19.995	103.197	20.081	3.373	0.513
155.500	152.262	80.002	19.994	103.199	20.085	3.096	0.513
156.000	152.474	80.002	19.995	103.200	20.082	3.297	0.484
156.500	152.736	80.003	19.996	103.199	20.088	2.919	0.465
157.001	153.003	80.003	19.994	103.200	20.082	3.316	0.501
157.500	153.211	80.003	19.996	103.196	20.080	3.478	0.502
158.000	153.505	80.002	19.995	103.189	20.086	3.081	0.488
158.500	153.748	80.002	19.995	103.187	20.082	3.327	0.519
159.000	153.982	80.002	19.993	103.186	20.078	3.569	0.507
159.500	154.250	80.002	19.996	103.185	20.081	3.369	0.490
160.000	154.459	80.000	19.997	103.189	20.085	3.117	0.490
160.500	154.733	80.001	19.995	103.197	20.084	3.196	0.480
161.000	154.954	80.002	19.994	103.201	20.082	3.301	0.489
161.500	155.197	80.000	19.995	103.201	20.084	3.207	0.480
162.001	155.447	80.003	19.995	103.202	20.080	3.489	0.479
162.501	155.728	80.002	19.995	103.203	20.083	3.277	0.512
163.000	155.975	80.002	19.996	103.199	20.082	3.323	0.530
163.500	156.204	80.001	19.996	103.196	20.078	3.593	0.502
164.000	156.426	80.003	19.999	103.196	20.084	3.159	0.463
164.500	156.684	80.001	19.994	103.195	20.080	3.452	0.466
165.000	156.965	80.001	19.995	103.193	20.087	3.011	0.510
165.500	157.244	80.001	19.996	103.192	20.083	3.242	0.549
166.000	157.438	80.000	19.994	103.192	20.085	3.091	0.516
166.500	157.705	80.003	19.995	103.192	20.086	3.047	0.467
167.000	157.917	80.002	19.995	103.193	20.083	3.279	0.470
167.500	158.186	80.004	19.995	103.193	20.081	3.399	0.480
168.000	158.430	80.001	19.996	103.194	20.082	3.304	0.497
168.500	158.707	80.002	19.993	103.194	20.083	3.263	0.517
169.000	158.931	80.002	19.994	103.195	20.083	3.274	0.511
169.500	159.217	80.004	19.996	103.194	20.083	3.278	0.506
170.000	159.481	80.003	19.996	103.194	20.080	3.450	0.530
170.500	159.711	80.004	19.997	103.194	20.080	3.463	0.522
171.000	159.971	80.004	19.996	103.195	20.080	3.471	0.492
171.500	160.217	80.003	19.995	103.195	20.074	3.867	0.498
172.000	160.482	80.003	19.996	103.195	20.081	3.402	0.509
172.500	160.722	80.003	19.996	103.195	20.088	2.890	0.509
173.000	160.963	80.004	19.995	103.195	20.079	3.493	0.493
173.500	161.207	80.004	19.996	103.194	20.086	3.054	0.483
174.000	161.469	80.003	19.996	103.193	20.084	3.207	0.496
174.500	161.730	80.004	19.996	103.193	20.081	3.400	0.514
175.000	161.960	80.002	19.995	103.194	20.078	3.568	0.507
175.500	162.195	80.004	19.995	103.193	20.084	3.190	0.478
176.000	162.467	80.004	19.995	103.194	20.078	3.590	0.486
176.500	162.704	80.004	19.995	103.198	20.087	2.959	0.508
177.000	162.960	80.002	19.994	103.201	20.084	3.212	0.501
177.500	163.188	80.004	19.994	103.200	20.086	3.059	0.488
178.001	163.451	80.005	19.994	103.197	20.089	2.832	0.487
178.501	163.706	80.005	19.996	103.189	20.079	3.543	0.505
179.000	163.982	80.004	19.995	103.180	20.078	3.589	0.524
179.500	164.239	80.004	19.994	103.174	20.078	3.600	0.532
180.000	164.510	80.004	19.994	103.171	20.082	3.354	0.530
180.500	164.747	80.002	19.994	103.172	20.082	3.330	0.518
181.000	164.970	80.004	19.994	103.179	20.083	3.247	0.484
181.500	165.287	80.003	19.994	103.184	20.084	3.199	0.499
182.000	165.490	80.003	19.995	103.187	20.084	3.162	0.530
182.500	165.778	80.003	19.994	103.190	20.085	3.118	0.506
183.000	166.053	80.003	19.995	103.193	20.085	3.123	0.527
183.500	166.288	80.003	19.995	103.193	20.081	3.389	0.537
184.000	166.501	80.002	19.995	103.193	20.083	3.247	0.479
184.500	166.766	80.002	19.994	103.192	20.085	3.118	0.463
185.000	166.998	80.001	19.994	103.191	20.082	3.330	0.488
185.500	167.253	80.002	19.994	103.186	20.079	3.516	0.492
186.000	167.503	80.001	19.995	103.181	20.082	3.311	0.496
186.500	167.773	80.002	19.995	103.178	20.081	3.403	0.513
187.000	167.999	80.001	19.994	103.175	20.086	3.077	0.508
187.500	168.260	80.002	19.994	103.173	20.084	3.173	0.491
188.000	168.518	80.001	19.995	103.179	20.089	2.820	0.503
188.500	168.721	80.002	19.995	103.184	20.080	3.424	0.490
189.000	169.007	79.999	19.993	103.188	20.083	3.276	0.475
189.500	169.258	80.001	19.995	103.191	20.084	3.191	0.513
190.000	169.547	80.001	19.994	103.191	20.076	3.722	0.538
190.500	169.777	80.001	19.994	103.184	20.084	3.176	0.529
191.000	170.018	80.002	19.996	103.183	20.091	2.728	0.495
191.500	170.272	80.002	19.995	103.181	20.086	3.055	0.483
192.000	170.535	80.000	19.994	103.179	20.082	3.341	0.506
192.501	170.754	80.002	19.994	103.182	20.088	2.935	0.500
193.000	171.012	80.001	19.993	103.185	20.086	3.048	0.480
193.500	171.260	80.001	19.994	103.181	20.082	3.319	0.492
194.000	171.505	80.002	19.996	103.177	20.084	3.175	0.500
194.500	171.781	80.001	19.993	103.177	20.089	2.867	0.506
195.000	172.069	79.999	19.993	103.175	20.080	3.456	0.542
195.500	172.261	80.000	19.993	103.175	20.079	3.491	0.522
196.000	172.512	80.000	19.995	103.175	20.087	2.995	0.462
196.500	172.779	80.000	19.995	103.176	20.081	3.421	0.481
197.000	173.033	80.001	19.995	103.172	20.084	3.208	0.519
197.500	173.297	80.000	19.994	103.165	20.081	3.380	0.519
198.000	173.567	80.000	19.994	103.162	20.081	3.393	0.526
198.500	173.814	80.001	19.993	103.161	20.082	3.327	0.526
199.000	174.032	80.002	19.993	103.159	20.081	3.388	0.491
199.500	174.295	80.001	19.993	103.159	20.078	3.566	0.473
200.000	174.564	80.002	19.994	103.159	20.075	3.790	0.506
200.500	174.775	80.000	19.995	103.159	20.079	3.517	0.506
201.000	175.058	80.002	19.995	103.159	20.080	3.485	0.487
201.500	175.328	80.000	19.993	103.161	20.083	3.246	0.524
202.000	175.528	80.002	19.996	103.162	20.083	3.231	0.511
202.500	175.806	80.000	19.994	103.166	20.084	3.200	0.474
203.000	176.045	80.002	19.994	103.166	20.086	3.045	0.498
203.500	176.317	80.001	19.995	103.169	20.087	2.980	0.514
204.000	176.574	80.002	19.994	103.175	20.086	3.061	0.520
204.500	176.795	80.002	19.995	103.181	20.083	3.246	0.504
205.000	177.048	80.001	19.995	103.185	20.079	3.526	0.476
205.500	177.320	80.002	19.995	103.193	20.083	3.253	0.499
206.000	177.524	80.000	19.994	103.198	20.082	3.302	0.500
206.500	177.833	80.000	19.995	103.196	20.084	3.208	0.494
207.000	178.100	80.002	19.994	103.194	20.077	3.636	0.544
207.500	178.306	80.000	19.994	103.187	20.082	3.353	0.525
208.000	178.579	80.002	19.995	103.184	20.081	3.418	0.476
208.500	178.806	80.002	19.995	103.183	20.083	3.270	0.490
209.000	179.083	80.002	19.993	103.184	20.083	3.235	0.502
209.500	179.315	80.001	19.994	103.187	20.085	3.138	0.507
210.000	179.602	80.002	19.995	103.190	20.081	3.363	0.514
210.500	179.851	80.000	19.993	103.186	20.081	3.364	0.527
211.000	180.026	80.002	19.995	103.185	20.083	3.224	0.480
211.500	180.307	80.001	19.994	103.186	20.086	3.031	0.440
212.000	180.565	80.002	19.994	103.187	20.080	3.423	0.497
212.500	180.790	80.000	19.994	103.191	20.078	3.613	0.511
213.000	181.037	80.001	19.995	103.197	20.087	3.003	0.477
213.500	181.312	80.001	19.993	103.200	20.080	3.429	0.497
214.000	181.523	80.000	19.992	103.198	20.087	2.983	0.504
214.500	181.791	80.001	19.994	103.197	20.079	3.549	0.483
215.000	182.029	80.001	19.995	103.197	20.079	3.532	0.493
215.500	182.322	80.001	19.995	103.191	20.079	3.503	0.518
216.000	182.542	80.001	19.994	103.185	20.082	3.331	0.522
216.500	182.825	80.000	19.994	103.179	20.082	3.313	0.508
217.000	183.068	80.001	19.995	103.172	20.078	3.586	0.514
217.500	183.293	80.000	19.995	103.164	20.083	3.261	0.498
218.000	183.560	80.002	19.995	103.163	20.085	3.117	0.480
218.500	183.789	80.001	19.996	103.162	20.081	3.418	0.494
219.000	184.012	80.002	19.995	103.161	20.083	3.241	0.474
219.500	184.256	80.002	19.993	103.160	20.080	3.448	0.460
220.000	184.536	80.002	19.995	103.160	20.085	3.099	0.495
220.500	184.791	80.002	19.994	103.159	20.083	3.278	0.529
221.000	185.004	80.003	19.994	103.158	20.081	3.407	0.502
221.500	185.259	80.000	19.994	103.158	20.080	3.483	0.468
222.000	185.557	80.000	19.994	103.157	20.082	3.315	0.510
222.500	185.790	80.002	19.996	103.156	20.081	3.357	0.542
223.000	186.067	80.001	19.994	103.156	20.086	3.045	0.521
223.500	186.286	80.001	19.994	103.156	20.083	3.254	0.503
224.000	186.575	80.001	19.995	103.157	20.082	3.337	0.502
224.500	186.831	80.001	19.995	103.158	20.081	3.399	0.527
225.000	187.017	80.003	19.994	103.159	20.085	3.146	0.493
225.500	187.260	80.002	19.995	103.159	20.085	3.106	0.435
226.000	187.564	80.002	19.995	103.157	20.083	3.240	0.488
226.500	187.781	80.001	19.995	103.157	20.082	3.292	0.534
227.000	188.040	80.002	19.995	103.156	20.085	3.137	0.498
227.500	188.274	80.000	19.994	103.156	20.077	3.633	0.485
228.000	188.552	80.004	19.995	103.156	20.084	3.209	0.502
228.500	188.790	80.002	19.995	103.157	20.081	3.355	0.514
229.000	189.045	80.001	19.995	103.158	20.081	3.392	0.505
229.500	189.290	80.001	19.993	103.161	20.084	3.215	0.496
230.000	189.582	80.003	19.994	103.163	20.084	3.158	0.518
230.500	189.802	80.002	19.994	103.163	20.086	3.053	0.525
231.000	190.054	80.001	19.993	103.165	20.083	3.226	0.492
231.500	190.325	80.004	19.995	103.167	20.084	3.160	0.497
232.000	190.527	80.002	19.995	103.166	20.084	3.206	0.498
232.500	190.799	80.003	19.994	103.164	20.079	3.505	0.474
233.000	191.019	80.001	19.993	103.164	20.085	3.137	0.483
233.500	191.283	80.001	19.994	103.160	20.086	3.049	0.488
234.000	191.532	80.002	19.995	103.156	20.089	2.827	0.499
234.500	191.767	80.002	19.995	103.153	20.090	2.803	0.499
235.000	192.053	80.003	19.995	103.151	20.084	3.218	0.502
235.500	192.312	80.002	19.995	103.147	20.083	3.281	0.533
236.000	192.550	80.003	19.995	103.147	20.091	2.695	0.520
236.501	192.814	80.003	19.996	103.142	20.085	3.136	0.499
237.001	193.055	80.002	19.995	103.139	20.086	3.080	0.504
237.500	193.259	80.003	19.994	103.141	20.084	3.165	0.476
238.000	193.508	80.003	19.995	103.142	20.084	3.191	0.449
238.500	193.781	80.003	19.995	103.142	20.085	3.126	0.487
239.000	194.047	80.001	19.995	103.148	20.083	3.245	0.530
239.500	194.302	80.002	19.995	103.149	20.086	3.025	0.530
240.000	194.535	80.002	19.995	103.150	20.079	3.527	0.504
240.500	194.776	80.001	19.994	103.154	20.087	2.999	0.481
241.000	195.050	80.002	19.995	103.155	20.085	3.139	0.494
241.500	195.274	80.002	19.996	103.155	20.081	3.407	0.506
242.000	195.545	80.002	19.994	103.155	20.079	3.499	0.496
242.500	195.775	80.002	19.995	103.157	20.080	3.455	0.498
243.000	196.016	80.002	19.995	103.156	20.084	3.215	0.486
243.500	196.251	80.003	19.994	103.155	20.086	3.053	0.473
244.000	196.503	80.003	19.997	103.155	20.087	3.012	0.481
244.500	196.758	80.002	19.995	103.152	20.087	2.975	0.497
245.000	197.004	80.003	19.994	103.149	20.083	3.283	0.504
245.500	197.227	80.002	19.996	103.150	20.079	3.510	0.485
246.000	197.499	80.002	19.995	103.151	20.078	3.612	0.482
246.500	197.751	80.001	19.995	103.152	20.081	3.405	0.510
247.000	197.992	80.001	19.995	103.154	20.086	3.066	0.509
247.500	198.271	80.002	19.995	103.155	20.080	3.435	0.506
248.000	198.500	80.002	19.995	103.156	20.082	3.328	0.514
248.500	198.768	80.002	19.995	103.156	20.076	3.745	0.503
249.000	198.994	80.002	19.994	103.156	20.083	3.243	0.495
249.500	199.267	80.003	19.995	103.156	20.077	3.626	0.496
250.000	199.506	80.003	19.995	103.157	20.080	3.484	0.506
250.500	199.727	80.002	19.995	103.158	20.081	3.407	0.486
251.000	199.959	80.003	19.996	103.158	20.081	3.368	0.456
251.500	200.220	80.001	19.995	103.158	20.085	3.113	0.473
252.000	200.483	80.003	19.996	103.159	20.080	3.455	0.508
252.500	200.705	80.003	19.994	103.158	20.080	3.484	0.505
253.000	201.005	80.003	19.994	103.158	20.083	3.248	0.503
253.500	201.218	80.003	19.996	103.159	20.081	3.363	0.517
254.000	201.489	80.003	19.994	103.159	20.076	3.718	0.499
254.500	201.688	80.003	19.994	103.158	20.081	3.374	0.477
255.000	201.952	80.002	19.995	103.158	20.075	3.772	0.466
255.500	202.169	80.003	19.995	103.157	20.086	3.038	0.472
256.000	202.449	80.002	19.995	103.155	20.078	3.606	0.489
256.500	202.685	80.003	19.997	103.154	20.083	3.221	0.507
257.000	202.947	80.002	19.994	103.155	20.079	3.497	0.507
257.501	203.210	80.004	19.995	103.155	20.083	3.245	0.512
258.001	203.409	80.003	19.995	103.157	20.080	3.423	0.493
258.500	203.718	80.003	19.994	103.162	20.080	3.436	0.485
259.000	203.929	80.002	19.994	103.163	20.078	3.591	0.514
259.500	204.197	80.002	19.994	103.163	20.077	3.672	0.500
260.000	204.431	80.002	19.994	103.162	20.080	3.479	0.490
260.500	204.660	80.004	19.994	103.160	20.085	3.137	0.482
261.000	204.884	80.002	19.995	103.155	20.073	3.954	0.458
261.500	205.109	80.002	19.995	103.154	20.074	3.867	0.451
262.000	205.361	80.002	19.995	103.154	20.079	3.523	0.464
262.500	205.653	80.002	19.994	103.155	20.080	3.441	0.510
263.000	205.892	80.003	19.995	103.155	20.077	3.650	0.537
263.500	206.128	80.002	19.994	103.156	20.079	3.514	0.503
264.000	206.319	80.002	19.995	103.157	20.081	3.396	0.451
264.500	206.584	80.002	19.997	103.156	20.079	3.528	0.441
265.000	206.928	80.001	19.995	103.155	20.081	3.416	0.533
265.500	207.106	80.002	19.994	103.156	20.075	3.809	0.565
266.000	207.402	80.004	19.996	103.156	20.080	3.440	0.498
266.500	207.583	80.002	19.995	103.156	20.079	3.541	0.475
267.000	207.858	80.002	19.996	103.156	20.080	3.436	0.467
267.500	208.187	80.002	19.995	103.158	20.078	3.593	0.530
268.000	208.245	80.001	19.995	103.158	20.074	3.872	0.495
268.500	208.763	80.002	19.995	103.158	20.076	3.713	0.482
269.000	208.944	79.999	19.996	103.156	20.078	3.580	0.637
269.500	209.307	80.001	19.997	103.156	20.079	3.545	0.621
270.001	209.213	80.001	19.996	103.155	20.075	3.776	0.407
270.500	209.548	80.000	19.995	103.154	20.079	3.517	0.255
271.000	209.863	79.999	19.994	103.151	20.072	3.980	0.446
271.500	210.084	80.001	19.995	103.147	20.083	3.235	0.593
272.001	210.339	80.000	19.995	103.146	20.080	3.488	0.506
272.500	210.571	80.001	19.996	103.143	20.081	3.375	0.481
273.000	210.846	80.001	19.996	103.142	20.077	3.663	0.497
273.500	211.044	80.000	19.994	103.145	20.079	3.506	0.490
274.000	211.324	80.000	19.995	103.151	20.079	3.548	0.476
274.500	211.589	80.001	19.995	103.152	20.084	3.159	0.511
275.000	211.735	80.000	19.995	103.156	20.077	3.672	0.478
275.500	212.070	79.999	19.993	103.154	20.076	3.729	0.446
276.000	212.238	80.001	19.994	103.151	20.076	3.742	0.492
276.500	212.574	80.001	19.995	103.152	20.079	3.530	0.503
277.000	212.813	80.000	19.995	103.153	20.080	3.438	0.540
277.500	213.006	80.001	19.994	103.153	20.077	3.674	0.504
278.000	213.287	80.000	19.994	103.157	20.080	3.462	0.453
278.500	213.546	79.999	19.994	103.161	20.077	3.667	0.507
279.000	213.751	80.000	19.995	103.162	20.078	3.623	0.502
279.500	214.061	80.001	19.994	103.161	20.078	3.569	0.489
280.000	214.281	80.001	19.994	103.160	20.077	3.628	0.523
280.500	214.548	80.001	19.993	103.160	20.075	3.776	0.509
281.000	214.777	80.002	19.994	103.159	20.071	4.091	0.491
281.500	215.036	80.001	19.995	103.157	20.079	3.547	0.492
282.000	215.249	80.000	19.994	103.152	20.074	3.825	0.479
282.500	215.490	80.001	19.994	103.149	20.070	4.152	0.463
283.000	215.768	80.002	19.994	103.145	20.076	3.702	0.487
283.500	216.005	80.001	19.995	103.145	20.072	4.009	0.517
284.000	216.219	80.002	19.994	103.142	20.074	3.858	0.482
284.500	216.514	80.002	19.995	103.145	20.074	3.885	0.480
285.000	216.771	80.003	19.995	103.141	20.071	4.085	0.531
285.500	217.030	80.001	19.994	103.142	20.072	3.972	0.534
286.000	217.264	80.001	19.995	103.139	20.072	3.967	0.504
286.500	217.503	80.001	19.994	103.142	20.071	4.038	0.483
287.000	217.735	80.001	19.994	103.144	20.075	3.815	0.472
287.500	218.030	80.002	19.994	103.149	20.071	4.081	0.499
288.000	218.299	80.001	19.995	103.153	20.073	3.926	0.545
288.500	218.517	80.002	19.995	103.155	20.075	3.786	0.525
289.000	218.770	80.000	19.994	103.156	20.071	4.074	0.479
289.500	218.968	80.001	19.995	103.155	20.070	4.131	0.461
290.000	219.257	80.001	19.994	103.156	20.072	3.980	0.469
290.500	219.494	80.002	19.995	103.155	20.072	3.989	0.507
291.000	219.711	80.002	19.995	103.155	20.072	3.972	0.490
291.500	220.015	80.001	19.995	103.154	20.074	3.859	0.487
292.000	220.211	80.002	19.995	103.155	20.075	3.795	0.511
292.500	220.510	80.002	19.994	103.153	20.073	3.907	0.498
293.000	220.733	80.002	19.994	103.153	20.075	3.810	0.508
293.500	221.008	80.001	19.995	103.148	20.077	3.677	0.509
294.000	221.237	80.000	19.994	103.145	20.077	3.688	0.501
294.501	221.452	80.001	19.994	103.141	20.075	3.777	0.474
295.001	221.714	80.003	19.995	103.139	20.077	3.686	0.460
295.501	221.981	80.001	19.995	103.132	20.078	3.611	0.503
296.001	222.194	80.001	19.996	103.130	20.074	3.882	0.505
296.501	222.460	80.001	19.994	103.131	20.075	3.790	0.480
297.000	222.725	80.001	19.995	103.130	20.071	4.046	0.505
297.500	222.955	80.002	19.996	103.128	20.078	3.571	0.513
298.000	223.220	80.002	19.995	103.130	20.074	3.844	0.495
298.500	223.489	79.999	19.993	103.129	20.071	4.060	0.515
299.001	223.732	79.999	19.995	103.128	20.077	3.650	0.523
299.500	223.957	80.002	19.995	103.131	20.073	3.958	0.490
300.000	224.185	80.001	19.995	103.135	20.070	4.146	0.461
300.500	224.453	80.000	19.995	103.136	20.075	3.761	0.474
301.000	224.734	80.000	19.994	103.139	20.073	3.951	0.523
301.500	224.940	80.000	19.994	103.136	20.072	3.964	0.518
302.000	225.162	80.001	19.993	103.130	20.070	4.111	0.457
302.500	225.407	80.000	19.995	103.126	20.073	3.906	0.448
303.000	225.696	80.000	19.994	103.125	20.070	4.144	0.501
303.500	225.928	80.002	19.995	103.123	20.070	4.133	0.527
304.000	226.166	80.001	19.995	103.131	20.072	3.984	0.495
304.500	226.439	80.001	19.995	103.132	20.070	4.135	0.490
305.000	226.675	80.000	19.996	103.137	20.070	4.158	0.510
305.500	226.967	80.000	19.994	103.135	20.074	3.880	0.518
306.000	227.222	80.001	19.995	103.134	20.065	4.465	0.538
306.500	227.432	80.000	19.995	103.131	20.070	4.094	0.506
307.000	227.722	80.001	19.995	103.135	20.075	3.805	0.482
307.500	227.967	80.001	19.995	103.137	20.071	4.043	0.518
308.000	228.192	80.003	19.995	103.143	20.071	4.046	0.503
308.500	228.462	80.002	19.995	103.148	20.071	4.076	0.482
309.000	228.727	80.002	19.995	103.151	20.068	4.249	0.515
309.500	228.988	80.002	19.995	103.153	20.070	4.106	0.530
310.000	229.237	80.001	19.995	103.153	20.067	4.333	0.518
310.500	229.470	80.003	19.996	103.152	20.070	4.127	0.496
311.000	229.748	80.001	19.994	103.153	20.069	4.180	0.497
311.500	230.022	80.003	19.995	103.153	20.069	4.162	0.532
312.000	230.279	80.002	19.994	103.149	20.071	4.053	0.541
312.500	230.524	80.003	19.994	103.148	20.072	3.981	0.516
313.000	230.765	80.003	19.995	103.149	20.074	3.837	0.494
313.500	231.005	80.002	19.994	103.149	20.069	4.165	0.483
314.000	231.306	80.001	19.994	103.149	20.072	4.022	0.511
314.500	231.523	80.002	19.995	103.147	20.073	3.940	0.530
315.000	231.750	80.004	19.995	103.141	20.069	4.191	0.482
315.500	231.993	80.002	19.995	103.136	20.073	3.916	0.457
316.000	232.275	80.004	19.994	103.133	20.072	4.025	0.497
316.500	232.551	80.003	19.994	103.130	20.071	4.069	0.542
317.000	232.765	80.003	19.994	103.135	20.066	4.374	0.524
317.500	233.039	80.004	19.994	103.139	20.067	4.298	0.489
318.000	233.289	80.003	19.994	103.143	20.070	4.119	0.506
318.500	233.552	80.003	19.994	103.143	20.069	4.217	0.519
319.000	233.739	80.003	19.994	103.141	20.070	4.144	0.482
319.500	233.991	80.003	19.994	103.136	20.068	4.277	0.444
320.000	234.254	80.004	19.993	103.130	20.072	3.983	0.477
320.500	234.496	80.003	19.994	103.122	20.068	4.245	0.511
321.000	234.794	80.003	19.994	103.118	20.064	4.557	0.523
321.500	235.035	80.001	19.994	103.119	20.066	4.429	0.539
322.000	235.259	80.003	19.994	103.120	20.066	4.385	0.502
322.500	235.527	80.002	19.995	103.122	20.066	4.368	0.478
323.000	235.772	80.003	19.994	103.124	20.066	4.407	0.503
323.500	235.969	80.002	19.994	103.125	20.065	4.458	0.478
324.000	236.238	80.001	19.995	103.124	20.068	4.256	0.454
324.500	236.497	80.002	19.994	103.123	20.066	4.394	0.497
325.000	236.770	80.002	19.994	103.122	20.065	4.470	0.530
325.500	237.025	80.002	19.995	103.121	20.061	4.711	0.530
326.000	237.289	80.001	19.994	103.117	20.065	4.468	0.524
326.500	237.515	80.002	19.995	103.117	20.068	4.274	0.505
327.000	237.743	80.002	19.995	103.117	20.066	4.398	0.472
327.500	238.046	80.002	19.994	103.118	20.062	4.681	0.492
328.000	238.263	80.000	19.994	103.121	20.059	4.869	0.525
328.500	238.535	80.002	19.994	103.124	20.064	4.498	0.504
329.000	238.747	80.002	19.995	103.124	20.061	4.718	0.487
329.500	239.025	80.001	19.995	103.127	20.064	4.507	0.488
330.000	239.254	80.000	19.995	103.134	20.063	4.571	0.499
330.500	239.529	80.001	19.995	103.138	20.066	4.383	0.506
331.000	239.740	80.001	19.994	103.137	20.063	4.567	0.495
331.500	239.965	80.002	19.996	103.138	20.062	4.678	0.461
332.000	240.260	80.002	19.995	103.134	20.062	4.696	0.478
332.500	240.500	80.001	19.995	103.127	20.065	4.462	0.528
333.000	240.711	80.002	19.995	103.120	20.060	4.768	0.493
333.500	240.969	80.002	19.996	103.121	20.062	4.684	0.460
334.000	241.215	80.002	19.996	103.120	20.065	4.481	0.486
334.500	241.461	80.001	19.994	103.121	20.068	4.245	0.498
335.000	241.728	80.002	19.995	103.121	20.072	3.990	0.502
335.500	241.976	80.001	19.995	103.121	20.062	4.693	0.514
336.000	242.215	80.002	19.994	103.120	20.066	4.395	0.501
336.500	242.461	80.002	19.995	103.120	20.069	4.225	0.486
337.000	242.733	80.003	19.995	103.121	20.066	4.417	0.501
337.500	242.988	80.004	19.995	103.129	20.068	4.256	0.522
338.000	243.259	80.002	19.994	103.136	20.059	4.865	0.527
338.500	243.493	80.002	19.995	103.142	20.060	4.811	0.515
339.001	243.744	80.005	19.995	103.149	20.065	4.434	0.495
339.500	243.985	80.002	19.993	103.148	20.059	4.851	0.489
340.000	244.266	80.003	19.994	103.141	20.061	4.718	0.507
340.500	244.481	80.005	19.995	103.135	20.063	4.616	0.509
341.000	244.734	80.003	19.995	103.128	20.057	5.022	0.482
341.501	244.981	80.004	19.995	103.122	20.062	4.672	0.484
342.000	245.228	80.004	19.994	103.120	20.059	4.889	0.497
342.500	245.421	80.003	19.995	103.120	20.058	4.951	0.467
343.000	245.728	80.003	19.994	103.120	20.059	4.842	0.470
343.500	245.955	80.004	19.994	103.120	20.063	4.565	0.517
344.000	246.209	80.004	19.995	103.120	20.058	4.938	0.508
344.500	246.468	80.004	19.994	103.122	20.055	5.156	0.497
345.001	246.749	80.004	19.994	103.124	20.058	4.937	0.526
345.500	246.973	80.004	19.995	103.124	20.062	4.650	0.523
346.000	247.267	80.002	19.995	103.127	20.058	4.958	0.512
346.500	247.479	80.003	19.994	103.133	20.058	4.932	0.512
347.000	247.737	80.003	19.994	103.136	20.060	4.794	0.488
347.500	247.993	80.003	19.995	103.136	20.051	5.394	0.492
348.000	248.212	80.004	19.995	103.138	20.057	4.972	0.495
348.500	248.458	80.003	19.996	103.138	20.057	4.998	0.470
349.000	248.788	80.001	19.994	103.136	20.056	5.054	0.521
349.500	249.000	80.002	19.994	103.135	20.060	4.825	0.559
350.000	249.274	80.003	19.994	103.141	20.056	5.077	0.514
350.500	249.530	80.001	19.996	103.145	20.059	4.898	0.508
351.000	249.765	80.000	19.995	103.146	20.055	5.151	0.511
351.500	250.070	80.000	19.996	103.149	20.062	4.673	0.515
352.000	250.304	80.001	19.994	103.152	20.057	5.000	0.539
352.500	250.546	80.000	19.994	103.151	20.054	5.176	0.507
353.000	250.757	80.002	19.995	103.141	20.061	4.728	0.464
353.500	251.038	80.000	19.996	103.131	20.052	5.305	0.472
354.000	251.284	80.000	19.995	103.116	20.054	5.237	0.510
354.500	251.499	80.001	19.995	103.104	20.060	4.801	0.494
355.001	251.766	79.999	19.994	103.095	20.060	4.811	0.471
355.501	252.015	80.001	19.996	103.097	20.054	5.203	0.499
356.000	252.245	80.001	19.996	103.103	20.057	5.019	0.497
356.500	252.513	80.001	19.995	103.114	20.057	5.006	0.488
357.000	252.788	80.000	19.995	103.118	20.057	5.034	0.521
357.500	253.019	80.000	19.995	103.122	20.055	5.104	0.525
358.000	253.275	80.000	19.995	103.126	20.055	5.168	0.497
358.500	253.575	80.000	19.996	103.132	20.060	4.809	0.521
359.000	253.817	79.999	19.994	103.136	20.056	5.036	0.549
359.500	254.010	80.001	19.996	103.142	20.055	5.108	0.488
360.000	254.307	80.000	19.995	103.148	20.057	5.008	0.463
360.500	254.479	80.001	19.995	103.148	20.057	4.991	0.480
361.000	254.742	80.002	19.996	103.146	20.056	5.102	0.452
361.500	255.010	80.000	19.995	103.145	20.058	4.935	0.483
362.000	255.245	80.000	19.996	103.141	20.056	5.079	0.517
362.500	255.546	79.999	19.996	103.139	20.051	5.421	0.519
363.000	255.774	80.000	19.995	103.141	20.060	4.816	0.533
363.500	256.040	80.001	19.997	103.134	20.056	5.095	0.512
364.000	256.259	80.001	19.995	103.129	20.056	5.098	0.490
364.500	256.510	80.001	19.996	103.125	20.060	4.803	0.478
365.000	256.761	80.001	19.996	103.122	20.054	5.189	0.486
365.500	257.010	80.001	19.996	103.119	20.058	4.910	0.501
366.000	257.279	80.000	19.995	103.119	20.065	4.488	0.509
366.500	257.543	80.002	19.996	103.120	20.059	4.870	0.526
367.000	257.742	80.002	19.997	103.121	20.059	4.877	0.498
367.500	258.000	80.000	19.996	103.121	20.070	4.106	0.460
368.000	258.275	80.002	19.994	103.120	20.056	5.048	0.495
368.500	258.562	80.001	19.996	103.119	20.059	4.855	0.548
369.000	258.788	80.001	19.996	103.121	20.057	5.028	0.538
369.500	259.014	80.001	19.995	103.120	20.058	4.925	0.483
370.000	259.293	80.001	19.994	103.120	20.055	5.135	0.478
370.500	259.534	80.003	19.994	103.120	20.060	4.810	0.512
371.000	259.778	80.003	19.994	103.120	20.060	4.805	0.502
371.500	260.007	80.001	19.994	103.123	20.063	4.613	0.479
372.000	260.250	80.000	19.995	103.126	20.059	4.844	0.473
372.500	260.493	80.001	19.995	103.129	20.057	5.030	0.480
373.000	260.752	80.002	19.994	103.130	20.060	4.805	0.494
373.500	261.013	80.002	19.995	103.130	20.056	5.052	0.511
374.000	261.246	80.001	19.993	103.124	20.056	5.056	0.507
374.500	261.475	80.002	19.994	103.121	20.058	4.903	0.478
375.000	261.760	80.001	19.992	103.118	20.054	5.226	0.488
375.500	262.008	80.001	19.994	103.117	20.059	4.876	0.523
376.000	262.273	80.002	19.995	103.118	20.058	4.938	0.523
376.500	262.494	80.001	19.993	103.119	20.061	4.759	0.500
377.000	262.757	80.002	19.997	103.118	20.055	5.116	0.485
377.500	263.012	80.002	19.995	103.118	20.056	5.085	0.501
378.000	263.222	80.001	19.995	103.117	20.058	4.915	0.491
378.500	263.519	80.001	19.994	103.116	20.056	5.041	0.486
379.000	263.778	80.000	19.994	103.115	20.061	4.763	0.532
379.500	264.060	80.000	19.996	103.114	20.055	5.106	0.548
380.000	264.325	80.000	19.994	103.114	20.060	4.807	0.544
380.500	264.540	80.002	19.994	103.114	20.055	5.143	0.513
381.000	264.800	80.001	19.995	103.115	20.054	5.184	0.478
381.500	265.084	80.001	19.995	103.115	20.058	4.963	0.510
382.000	265.282	79.998	19.994	103.118	20.059	4.845	0.513
382.500	265.513	80.001	19.995	103.119	20.062	4.640	0.456
383.000	265.797	80.000	19.994	103.120	20.056	5.062	0.473
383.500	266.030	80.001	19.995	103.121	20.061	4.704	0.516
384.000	266.285	80.001	19.994	103.121	20.054	5.215	0.502
384.500	266.512	80.002	19.995	103.123	20.056	5.089	0.485
385.000	266.801	80.000	19.995	103.126	20.055	5.143	0.499
385.500	267.047	80.000	19.995	103.130	20.056	5.069	0.525
386.000	267.288	80.001	19.995	103.133	20.057	5.028	0.511
386.500	267.554	80.001	19.994	103.133	20.056	5.076	0.498
387.000	267.859	80.000	19.995	103.130	20.060	4.803	0.539
387.500	268.006	80.001	19.994	103.120	20.058	4.921	0.511
388.000	268.255	80.001	19.993	103.113	20.057	5.006	0.424
388.500	268.530	80.000	19.995	103.110	20.058	4.901	0.460
389.000	268.822	80.000	19.994	103.111	20.057	5.028	0.545
389.500	269.042	79.999	19.994	103.111	20.064	4.560	0.539
390.000	269.312	80.002	19.995	103.118	20.055	5.144	0.501
390.500	269.548	80.000	19.994	103.121	20.056	5.039	0.498
391.000	269.818	80.001	19.994	103.123	20.057	4.991	0.507
391.500	270.023	80.001	19.994	103.128	20.057	4.994	0.491
392.000	270.347	80.002	19.994	103.136	20.059	4.896	0.502
392.500	270.581	80.002	19.995	103.141	20.057	4.999	0.544
393.000	270.856	80.001	19.994	103.140	20.062	4.682	0.534
393.500	271.101	80.002	19.994	103.138	20.061	4.734	0.514
394.000	271.334	80.001	19.996	103.136	20.062	4.683	0.499
394.500	271.583	80.001	19.993	103.129	20.059	4.879	0.480
395.000	271.852	80.002	19.994	103.124	20.058	4.932	0.499
395.500	272.097	80.002	19.994	103.121	20.060	4.785	0.516
396.000	272.348	80.001	19.995	103.120	20.061	4.757	0.506
396.501	272.630	80.003	19.994	103.117	20.062	4.632	0.515
397.000	272.892	80.002	19.995	103.116	20.058	4.906	0.538
397.500	273.121	80.001	19.994	103.116	20.064	4.527	0.518
398.000	273.375	80.003	19.994	103.116	20.062	4.685	0.487
398.500	273.580	80.004	19.995	103.118	20.059	4.888	0.470
399.000	273.816	80.003	19.995	103.117	20.067	4.328	0.450
399.500	274.126	80.002	19.995	103.116	20.065	4.459	0.494
400.000	274.354	80.002	19.995	103.115	20.063	4.592	0.542
400.500	274.584	80.003	19.994	103.116	20.066	4.381	0.498
401.000	274.832	80.004	19.994	103.117	20.059	4.890	0.468
401.500	275.093	80.003	19.994	103.116	20.061	4.718	0.493
402.000	275.346	80.003	19.993	103.112	20.064	4.558	0.511
402.500	275.584	80.002	19.992	103.108	20.058	4.929	0.502
403.000	275.873	80.002	19.994	103.101	20.058	4.951	0.509
403.500	276.100	80.003	19.994	103.098	20.057	5.025	0.522
404.000	276.408	80.003	19.993	103.099	20.059	4.861	0.526
404.500	276.583	80.003	19.994	103.104	20.062	4.658	0.509
405.000	276.853	80.001	19.995	103.109	20.065	4.483	0.463
405.500	277.124	80.001	19.995	103.116	20.061	4.730	0.493
406.000	277.347	80.001	19.994	103.118	20.062	4.693	0.518
406.500	277.610	80.001	19.994	103.118	20.067	4.355	0.490
407.000	277.871	80.001	19.994	103.118	20.062	4.685	0.505
407.500	278.098	80.002	19.994	103.118	20.064	4.536	0.506
408.000	278.340	80.003	19.993	103.118	20.060	4.809	0.478
408.500	278.614	80.001	19.993	103.118	20.068	4.274	0.492
409.000	278.898	80.002	19.993	103.121	20.064	4.502	0.537
409.500	279.148	80.001	19.994	103.125	20.068	4.285	0.546
410.000	279.389	80.003	19.993	103.127	20.065	4.451	0.513
410.500	279.630	80.002	19.995	103.128	20.065	4.464	0.487
411.000	279.898	80.001	19.995	103.127	20.064	4.537	0.495
411.500	280.158	80.002	19.993	103.125	20.065	4.482	0.519
412.000	280.420	80.001	19.994	103.121	20.064	4.506	0.526
412.500	280.664	80.003	19.994	103.120	20.064	4.510	0.514
413.000	280.925	80.001	19.994	103.122	20.068	4.279	0.505
413.500	281.115	80.002	19.994	103.122	20.063	4.565	0.478
414.000	281.410	80.001	19.994	103.122	20.070	4.120	0.468
414.500	281.670	80.002	19.995	103.124	20.069	4.220	0.520
415.000	281.913	80.002	19.995	103.127	20.069	4.188	0.529
415.500	282.178	80.002	19.994	103.124	20.069	4.166	0.506
416.000	282.393	80.001	19.995	103.124	20.068	4.277	0.494
416.500	282.644	80.001	19.994	103.124	20.068	4.277	0.473
417.000	282.859	80.002	19.994	103.122	20.064	4.510	0.466
417.500	283.145	80.003	19.994	103.119	20.068	4.235	0.484
418.000	283.389	80.002	19.994	103.117	20.067	4.300	0.516
418.500	283.635	80.002	19.994	103.116	20.070	4.148	0.510
419.000	283.872	80.003	19.994	103.116	20.071	4.075	0.486
419.500	284.152	80.003	19.994	103.116	20.074	3.853	0.499
420.000	284.399	80.001	19.994	103.115	20.071	4.049	0.522
420.500	284.632	80.003	19.994	103.115	20.073	3.944	0.504
421.000	284.903	80.003	19.994	103.114	20.072	3.979	0.492
421.500	285.138	80.003	19.994	103.114	20.067	4.301	0.505
422.000	285.394	80.003	19.994	103.114	20.075	3.774	0.498
422.500	285.635	80.003	19.995	103.113	20.072	3.973	0.494
423.000	285.931	80.002	19.994	103.112	20.067	4.310	0.517
423.500	286.183	80.002	19.995	103.111	20.068	4.288	0.543
424.000	286.443	80.004	19.995	103.108	20.068	4.235	0.531
424.500	286.660	80.003	19.994	103.101	20.072	4.016	0.495
425.000	286.902	80.003	19.994	103.099	20.067	4.312	0.468
425.500	287.169	80.004	19.994	103.098	20.071	4.089	0.484
426.000	287.433	80.004	19.995	103.099	20.070	4.124	0.520
426.500	287.661	80.003	19.996	103.102	20.072	3.995	0.512
427.000	287.928	80.004	19.994	103.109	20.072	3.973	0.493
427.500	288.154	80.002	19.995	103.112	20.071	4.074	0.494
428.000	288.443	80.002	19.995	103.114	20.071	4.084	0.504
428.500	288.684	80.003	19.995	103.114	20.069	4.189	0.523
429.000	288.962	80.004	19.995	103.114	20.070	4.124	0.525
429.500	289.155	80.003	19.995	103.112	20.069	4.194	0.495
430.000	289.439	80.002	19.994	103.113	20.069	4.163	0.474
430.500	289.653	80.001	19.995	103.112	20.073	3.900	0.488
431.000	289.920	80.003	19.995	103.112	20.074	3.874	0.490
431.500	290.195	80.002	19.995	103.111	20.070	4.126	0.511
432.000	290.446	80.003	19.995	103.111	20.071	4.034	0.534
432.500	290.700	80.003	19.995	103.109	20.069	4.168	0.516
433.000	290.936	80.002	19.996	103.108	20.071	4.069	0.497
433.500	291.181	80.001	19.995	103.108	20.070	4.128	0.485
434.000	291.505	79.999	19.995	103.108	20.069	4.224	0.525
434.500	291.671	80.000	19.994	103.109	20.071	4.040	0.530
435.000	291.968	80.000	19.994	103.111	20.071	4.066	0.476
435.500	292.197	80.001	19.996	103.111	20.072	3.977	0.494
436.000	292.426	80.000	19.994	103.110	20.070	4.126	0.492
436.500	292.713	80.002	19.996	103.110	20.067	4.316	0.487
437.000	292.946	80.000	19.995	103.109	20.067	4.298	0.518
437.500	293.229	80.001	19.995	103.105	20.071	4.086	0.518
438.000	293.480	80.002	19.994	103.105	20.070	4.119	0.525
438.500	293.741	80.001	19.995	103.105	20.071	4.058	0.523
439.000	293.966	80.002	19.995	103.104	20.070	4.150	0.499
439.500	294.223	80.001	19.994	103.106	20.073	3.949	0.484
440.000	294.485	80.001	19.995	103.110	20.073	3.922	0.500
440.500	294.748	80.001	19.995	103.111	20.069	4.217	0.522
441.000	294.947	80.001	19.995	103.113	20.069	4.220	0.494
441.500	295.205	80.002	19.995	103.114	20.070	4.123	0.460
442.000	295.456	80.000	19.995	103.112	20.071	4.067	0.483
442.500	295.723	80.002	19.996	103.111	20.074	3.866	0.514
443.000	295.977	79.999	19.994	103.112	20.070	4.106	0.520
443.500	296.191	80.002	19.995	103.108	20.072	3.995	0.495
444.000	296.470	80.000	19.994	103.109	20.068	4.246	0.480
444.500	296.732	80.001	19.996	103.111	20.074	3.836	0.517
445.000	296.948	80.000	19.994	103.112	20.070	4.104	0.510
445.500	297.244	80.000	19.995	103.112	20.073	3.943	0.495
446.000	297.455	80.001	19.997	103.115	20.069	4.183	0.509
446.500	297.732	80.000	19.994	103.115	20.073	3.947	0.497
447.000	297.949	80.000	19.996	103.115	20.072	3.987	0.491
447.500	298.225	80.001	19.995	103.114	20.070	4.100	0.494
448.000	298.452	80.000	19.995	103.111	20.070	4.104	0.498
448.500	298.726	80.000	19.996	103.110	20.075	3.796	0.502
449.000	298.985	80.000	19.995	103.109	20.071	4.051	0.517
449.500	299.261	80.000	19.995	103.110	20.075	3.798	0.534
450.000	299.447	79.999	19.995	103.111	20.074	3.829	0.498
450.500	299.725	80.001	19.995	103.113	20.070	4.098	0.463
451.000	299.960	80.001	19.996	103.114	20.074	3.885	0.489
451.500	300.193	79.999	19.995	103.114	20.070	4.144	0.490
452.000	300.479	80.000	19.996	103.113	20.073	3.930	0.493
452.500	300.701	80.000	19.995	103.113	20.075	3.797	0.514
453.000	300.959	80.001	19.996	103.113	20.072	4.020	0.494
453.500	301.218	80.000	19.995	103.113	20.073	3.954	0.498
454.000	301.431	79.999	19.996	103.112	20.072	3.989	0.494
454.500	301.708	80.000	19.996	103.110	20.075	3.772	0.481
455.000	302.005	79.999	19.995	103.104	20.069	4.216	0.532
455.500	302.223	80.000	19.995	103.102	20.071	4.076	0.545
456.000	302.464	79.999	19.996	103.099	20.070	4.157	0.487
456.500	302.731	80.001	19.996	103.097	20.071	4.081	0.484
457.000	302.942	80.000	19.996	103.095	20.074	3.841	0.493
457.500	303.228	80.001	19.996	103.096	20.072	3.967	0.488
458.000	303.464	80.001	19.996	103.099	20.072	4.024	0.510
458.500	303.727	80.000	19.997	103.103	20.070	4.139	0.510
459.000	303.960	80.001	19.996	103.107	20.073	3.894	0.497
459.500	304.220	80.001	19.998	103.110	20.068	4.250	0.495
460.000	304.478	80.000	19.995	103.109	20.071	4.052	0.506
460.500	304.687	80.000	19.996	103.105	20.070	4.122	0.492
461.000	304.983	80.000	19.995	103.098	20.071	4.040	0.486
461.500	305.221	80.002	19.994	103.090	20.071	4.062	0.519
462.000	305.439	80.001	19.995	103.084	20.068	4.285	0.495
462.500	305.712	80.000	19.995	103.084	20.074	3.863	0.474
463.000	305.969	80.000	19.995	103.086	20.067	4.346	0.510
463.500	306.230	80.000	19.995	103.089	20.069	4.219	0.524
464.000	306.457	80.000	19.996	103.093	20.073	3.929	0.503
464.500	306.736	80.001	19.995	103.097	20.072	3.977	0.497
465.000	306.993	80.000	19.995	103.098	20.070	4.111	0.521
465.500	307.236	80.000	19.995	103.096	20.070	4.106	0.518
466.000	307.460	80.001	19.995	103.094	20.068	4.238	0.483
466.500	307.770	80.000	19.995	103.092	20.072	4.021	0.501
467.000	307.996	80.000	19.994	103.088	20.070	4.122	0.535
467.500	308.243	80.000	19.994	103.086	20.072	4.015	0.505
468.000	308.478	80.000	19.993	103.088	20.066	4.382	0.477
468.500	308.733	79.999	19.995	103.094	20.069	4.220	0.486
469.000	308.952	80.000	19.995	103.101	20.068	4.277	0.482
469.500	309.247	79.998	19.995	103.104	20.070	4.133	0.494
470.001	309.523	80.000	19.993	103.108	20.067	4.338	0.543
470.501	309.757	80.000	19.995	103.111	20.070	4.157	0.540
471.000	310.001	80.000	19.995	103.111	20.068	4.233	0.494
471.500	310.235	79.999	19.995	103.111	20.065	4.458	0.478
472.000	310.475	80.001	19.995	103.112	20.066	4.386	0.476
472.500	310.751	80.001	19.995	103.114	20.068	4.285	0.495
473.000	310.996	80.001	19.994	103.116	20.068	4.227	0.519
473.500	311.264	79.999	19.993	103.115	20.066	4.397	0.517
474.000	311.485	80.001	19.994	103.115	20.065	4.452	0.501
474.500	311.753	80.000	19.995	103.116	20.063	4.574	0.489
475.000	312.022	80.001	19.993	103.114	20.064	4.559	0.513
475.500	312.282	80.001	19.995	103.112	20.061	4.701	0.533
476.000	312.528	80.002	19.994	103.111	20.066	4.412	0.517
476.500	312.799	80.002	19.994	103.106	20.062	4.661	0.511
477.000	313.054	80.001	19.995	103.106	20.065	4.489	0.521
477.500	313.315	80.001	19.995	103.108	20.062	4.690	0.521
478.000	313.517	80.001	19.993	103.105	20.061	4.746	0.489
478.500	313.812	80.002	19.995	103.103	20.064	4.502	0.480
479.000	314.098	80.002	19.994	103.107	20.069	4.214	0.539
479.500	314.328	80.002	19.995	103.103	20.063	4.605	0.548
480.000	314.578	80.000	19.993	103.102	20.064	4.512	0.498
480.500	314.834	80.001	19.994	103.105	20.067	4.359	0.493
481.000	315.074	80.003	19.995	103.107	20.061	4.725	0.501
481.500	315.333	80.001	19.995	103.109	20.061	4.726	0.498
482.000	315.580	80.003	19.995	103.112	20.059	4.882	0.502
482.500	315.822	80.002	19.994	103.109	20.062	4.649	0.498
483.000	316.084	80.001	19.994	103.107	20.061	4.721	0.497
483.500	316.330	80.002	19.995	103.108	20.061	4.747	0.506
484.000	316.587	80.002	19.995	103.107	20.064	4.537	0.505
484.500	316.816	80.002	19.994	103.107	20.059	4.892	0.495
485.000	317.079	80.002	19.995	103.108	20.062	4.691	0.489
485.500	317.329	80.002	19.996	103.108	20.059	4.870	0.502
486.000	317.552	80.002	19.995	103.105	20.064	4.538	0.493
486.500	317.809	80.002	19.994	103.107	20.059	4.861	0.476
487.000	318.061	80.003	19.995	103.108	20.062	4.686	0.494
487.500	318.326	80.003	19.995	103.110	20.065	4.476	0.513
488.000	318.580	80.002	19.997	103.111	20.057	5.003	0.518
488.500	318.780	80.003	19.994	103.112	20.059	4.891	0.487
489.000	319.035	80.001	19.995	103.110	20.057	4.988	0.455
489.500	319.280	80.003	19.994	103.104	20.058	4.911	0.478
490.000	319.531	80.001	19.994	103.096	20.060	4.781	0.498
490.500	319.790	80.002	19.994	103.091	20.057	4.977	0.503
491.000	320.036	80.003	19.994	103.090	20.057	5.015	0.507
491.500	320.311	80.002	19.995	103.089	20.056	5.050	0.513
492.000	320.561	80.002	19.995	103.092	20.060	4.805	0.524
492.500	320.835	80.001	19.995	103.094	20.058	4.964	0.525
493.000	321.087	80.002	19.994	103.099	20.059	4.883	0.525
493.500	321.348	80.002	19.996	103.103	20.051	5.434	0.519
494.000	321.554	80.003	19.995	103.099	20.050	5.466	0.490
494.500	321.826	80.001	19.994	103.096	20.054	5.206	0.473
495.000	322.100	80.000	19.995	103.096	20.058	4.960	0.512
495.500	322.359	80.003	19.995	103.091	20.055	5.132	0.540
496.000	322.553	80.001	19.994	103.084	20.054	5.189	0.493
496.500	322.838	80.003	19.994	103.083	20.054	5.211	0.466
497.000	323.090	80.002	19.995	103.085	20.054	5.222	0.508
497.500	323.328	80.001	19.994	103.089	20.051	5.405	0.513
498.001	323.590	80.002	19.994	103.093	20.051	5.373	0.495
498.500	323.857	80.003	19.995	103.098	20.052	5.318	0.515
499.000	324.113	80.003	19.995	103.102	20.050	5.443	0.526
499.500	324.304	80.003	19.994	103.104	20.048	5.593	0.485
500.001	324.609	80.004	19.995	103.098	20.049	5.510	0.471
500.500	324.838	80.002	19.994	103.095	20.048	5.639	0.515
501.000	325.116	80.002	19.993	103.088	20.046	5.709	0.520
501.500	325.382	80.002	19.994	103.085	20.049	5.566	0.526
502.000	325.638	80.003	19.994	103.082	20.048	5.603	0.533
502.500	325.886	80.004	19.994	103.083	20.046	5.726	0.513
503.000	326.139	80.003	19.994	103.085	20.048	5.614	0.502
503.500	326.359	80.003	19.995	103.091	20.046	5.713	0.487
504.000	326.620	80.004	19.994	103.091	20.046	5.774	0.477
504.500	326.848	80.003	19.993	103.090	20.042	6.033	0.485
505.000	327.135	80.004	19.994	103.093	20.046	5.727	0.502
505.500	327.374	80.003	19.994	103.095	20.049	5.567	0.520
506.000	327.637	80.004	19.996	103.092	20.045	5.777	0.513
506.500	327.886	80.004	19.995	103.096	20.042	5.980	0.507
507.000	328.112	80.003	19.993	103.099	20.041	6.044	0.494
507.501	328.344	80.004	19.994	103.096	20.044	5.875	0.466
508.000	328.624	80.004	19.994	103.092	20.046	5.740	0.485
508.500	328.859	80.002	19.994	103.090	20.040	6.129	0.514
509.000	329.101	80.003	19.995	103.089	20.044	5.884	0.496
509.500	329.345	80.003	19.994	103.089	20.042	6.009	0.481
510.001	329.663	80.004	19.995	103.089	20.037	6.332	0.524
510.500	329.889	80.002	19.993	103.095	20.038	6.299	0.553
511.000	330.110	80.002	19.993	103.100	20.037	6.326	0.495
511.500	330.374	80.003	19.993	103.098	20.040	6.162	0.466
512.000	330.625	80.002	19.994	103.099	20.037	6.360	0.500
512.500	330.887	80.002	19.995	103.105	20.034	6.542	0.514
513.000	331.131	80.002	19.995	103.106	20.038	6.249	0.510
513.500	331.365	80.002	19.994	103.106	20.032	6.649	0.492
514.000	331.629	80.002	19.995	103.109	20.033	6.582	0.488
514.500	331.905	80.001	19.993	103.104	20.033	6.596	0.519
515.000	332.135	80.000	19.995	103.100	20.035	6.467	0.523
515.500	332.372	79.999	19.995	103.095	20.035	6.483	0.487
516.000	332.646	80.001	19.994	103.092	20.027	7.034	0.489
516.500	332.913	80.000	19.995	103.092	20.025	7.129	0.526
517.000	333.181	80.001	19.994	103.094	20.025	7.160	0.538
517.500	333.402	80.000	19.996	103.092	20.028	6.935	0.511
518.000	333.694	80.001	19.995	103.094	20.023	7.256	0.501
518.500	333.933	80.001	19.995	103.092	20.027	7.008	0.522
519.000	334.233	80.001	19.995	103.088	20.026	7.067	0.535
519.500	334.488	80.000	19.996	103.087	20.021	7.404	0.547
520.000	334.699	80.001	19.996	103.089	20.023	7.307	0.511
520.500	334.940	80.001	19.995	103.087	20.022	7.386	0.459
521.000	335.160	80.001	19.994	103.089	20.019	7.572	0.456
521.500	335.462	80.000	19.994	103.089	20.021	7.397	0.491
522.000	335.760	80.000	19.995	103.093	20.021	7.427	0.561
522.500	335.959	80.000	19.995	103.094	20.016	7.749	0.549
523.000	336.198	80.001	19.995	103.093	20.020	7.488	0.468
523.500	336.465	80.001	19.995	103.092	20.019	7.543	0.472
524.000	336.714	80.001	19.995	103.095	20.017	7.720	0.511
524.500	336.965	80.000	19.995	103.093	20.023	7.295	0.508
525.000	337.198	80.001	19.995	103.089	20.020	7.495	0.492
525.500	337.442	80.000	19.996	103.091	20.015	7.839	0.481
526.000	337.728	80.000	19.995	103.092	20.016	7.756	0.503
526.500	337.958	80.001	19.995	103.091	20.014	7.918	0.523
527.000	338.213	80.001	19.996	103.092	20.012	8.042	0.501
527.500	338.463	80.001	19.994	103.098	20.011	8.119	0.495
528.000	338.710	80.000	19.994	103.096	20.011	8.082	0.501
528.500	338.987	80.002	19.995	103.095	20.007	8.392	0.511
529.000	339.193	79.999	19.994	103.094	20.010	8.184	0.503
529.500	339.424	80.001	19.995	103.091	20.013	7.992	0.460
530.000	339.739	80.000	19.995	103.086	20.011	8.090	0.492
530.500	339.943	80.001	19.994	103.084	20.007	8.377	0.533
531.000	340.177	80.001	19.995	103.085	20.011	8.119	0.479
531.500	340.454	80.000	19.995	103.084	20.008	8.274	0.474
532.000	340.699	80.002	19.994	103.083	20.009	8.261	0.517
532.500	340.969	80.001	19.995	103.086	20.001	8.742	0.519
533.000	341.260	80.001	19.994	103.092	20.009	8.247	0.538
533.500	341.440	80.000	19.993	103.091	20.006	8.411	0.516
534.000	341.750	80.000	19.995	103.094	20.004	8.589	0.480
534.500	341.969	80.001	19.993	103.094	19.999	8.886	0.510
535.000	342.232	80.000	19.995	103.091	20.001	8.770	0.506
535.500	342.433	80.001	19.995	103.085	20.001	8.763	0.473
536.000	342.745	80.001	19.994	103.086	20.000	8.816	0.488
536.500	342.987	80.001	19.995	103.084	19.996	9.126	0.534
537.000	343.252	80.002	19.996	103.083	19.997	9.069	0.531
537.500	343.474	79.999	19.994	103.084	19.998	8.947	0.497
538.000	343.739	80.001	19.996	103.084	19.998	8.959	0.487
538.500	344.018	80.001	19.994	103.083	19.995	9.186	0.515
539.000	344.208	80.000	19.994	103.082	19.991	9.446	0.506
539.500	344.465	80.000	19.995	103.082	19.991	9.413	0.458
540.000	344.738	80.002	19.995	103.082	19.990	9.518	0.489
540.500	344.974	80.000	19.994	103.083	19.990	9.502	0.520
541.000	345.244	80.000	19.994	103.082	19.992	9.378	0.508
541.500	345.484	79.999	19.996	103.082	19.989	9.583	0.508
542.000	345.740	80.001	19.995	103.084	19.987	9.741	0.503
542.500	346.006	80.002	19.994	103.086	19.986	9.806	0.509
543.000	346.256	80.001	19.995	103.085	19.984	9.902	0.518
543.500	346.527	80.000	19.995	103.085	19.980	10.178	0.518
544.000	346.750	80.001	19.995	103.085	19.979	10.265	0.508
544.500	346.999	79.999	19.995	103.083	19.980	10.182	0.483
545.000	347.281	80.002	19.995	103.081	19.974	10.559	0.501
545.500	347.483	80.001	19.996	103.083	19.981	10.112	0.507
546.000	347.792	80.000	19.994	103.086	19.978	10.341	0.498
546.500	348.062	80.000	19.997	103.087	19.973	10.627	0.545
547.000	348.264	80.000	19.996	103.087	19.975	10.505	0.525
547.500	348.538	80.000	19.995	103.087	19.972	10.747	0.474
548.000	348.797	80.000	19.996	103.084	19.969	10.904	0.504
548.500	349.061	80.001	19.996	103.081	19.967	11.074	0.528
549.000	349.292	80.000	19.996	103.079	19.971	10.799	0.509
549.500	349.568	79.999	19.996	103.080	19.967	11.088	0.501
550.000	349.821	80.001	19.995	103.081	19.961	11.472	0.519
550.500	350.105	79.999	19.997	103.083	19.958	11.672	0.533
551.000	350.345	80.001	19.995	103.084	19.965	11.214	0.530
551.500	350.555	80.000	19.996	103.084	19.957	11.706	0.487
552.000	350.846	79.999	19.997	103.084	19.953	11.979	0.476
552.500	351.102	80.000	19.995	103.083	19.952	12.088	0.524
553.000	351.351	80.000	19.996	103.081	19.950	12.184	0.526
553.500	351.566	79.999	19.996	103.082	19.952	12.053	0.484
554.000	351.834	79.999	19.996	103.082	19.948	12.340	0.474
554.500	352.091	80.001	19.996	103.082	19.946	12.441	0.505
555.000	352.368	80.001	19.995	103.085	19.947	12.378	0.530
555.500	352.640	80.001	19.997	103.086	19.941	12.786	0.541
556.000	352.871	80.000	19.996	103.090	19.941	12.771	0.526
556.500	353.157	80.001	19.996	103.089	19.940	12.841	0.510
557.000	353.394	80.001	19.995	103.088	19.940	12.895	0.520
557.500	353.656	80.002	19.994	103.088	19.936	13.165	0.511
558.000	353.908	80.002	19.995	103.086	19.932	13.412	0.507
558.500	354.179	80.002	19.995	103.081	19.930	13.571	0.518
559.000	354.422	80.004	19.996	103.081	19.925	13.851	0.518
559.500	354.700	80.001	19.995	103.081	19.930	13.560	0.517
560.000	354.965	80.002	19.995	103.079	19.924	13.931	0.532
560.500	355.169	80.002	19.995	103.078	19.923	14.007	0.506
561.000	355.445	80.003	19.994	103.078	19.921	14.134	0.475
561.500	355.693	80.002	19.995	103.079	19.921	14.161	0.502
562.000	355.946	80.001	19.995	103.082	19.917	14.434	0.512
562.500	356.205	80.003	19.994	103.083	19.915	14.583	0.507
563.000	356.456	80.002	19.995	103.084	19.912	14.738	0.511
563.500	356.684	80.002	19.994	103.086	19.909	14.985	0.495
564.000	356.955	80.002	19.994	103.086	19.907	15.067	0.489
564.500	357.170	80.002	19.995	103.083	19.907	15.065	0.493
565.000	357.437	80.001	19.994	103.082	19.900	15.587	0.484
565.500	357.746	80.002	19.994	103.080	19.901	15.482	0.529
566.000	357.945	80.002	19.994	103.079	19.901	15.493	0.541
566.500	358.227	80.002	19.993	103.079	19.898	15.723	0.495
567.000	358.486	80.001	19.995	103.078	19.894	15.950	0.511
567.500	358.721	80.002	19.995	103.079	19.892	16.089	0.517
568.000	359.008	80.001	19.995	103.080	19.890	16.209	0.508
568.500	359.256	80.003	19.995	103.079	19.888	16.356	0.529
569.000	359.489	80.002	19.995	103.079	19.886	16.536	0.508
569.500	359.736	80.004	19.994	103.081	19.881	16.847	0.480
570.000	359.960	80.001	19.994	103.082	19.880	16.886	0.476
570.500	360.271	80.001	19.995	103.083	19.879	16.963	0.503
571.000	360.494	80.002	19.995	103.085	19.876	17.179	0.534
571.500	360.778	80.001	19.993	103.086	19.874	17.287	0.520
572.000	361.014	80.003	19.995	103.084	19.873	17.397	0.513
572.500	361.237	80.003	19.993	103.084	19.867	17.798	0.489
573.000	361.524	80.004	19.994	103.084	19.867	17.789	0.485
573.500	361.810	80.002	19.995	103.083	19.867	17.802	0.541
574.000	362.032	80.003	19.995	103.081	19.863	18.046	0.540
574.500	362.307	80.002	19.995	103.083	19.855	18.590	0.503
575.000	362.557	80.002	19.996	103.087	19.855	18.575	0.511
575.500	362.788	80.002	19.994	103.088	19.852	18.814	0.503
576.000	363.084	80.001	19.994	103.087	19.847	19.113	0.504
576.500	363.315	80.002	19.994	103.088	19.844	19.311	0.527
577.000	363.554	80.001	19.995	103.089	19.843	19.380	0.499
577.500	363.832	80.001	19.994	103.087	19.839	19.688	0.493
578.000	364.064	80.003	19.995	103.090	19.837	19.814	0.513
578.500	364.340	80.002	19.995	103.093	19.836	19.855	0.509
579.000	364.604	80.003	19.996	103.095	19.828	20.425	0.524
579.500	364.845	80.001	19.994	103.094	19.830	20.288	0.523
580.001	365.110	80.003	19.994	103.097	19.823	20.772	0.506
580.500	365.352	80.002	19.995	103.097	19.822	20.814	0.507
581.000	365.603	80.003	19.995	103.099	19.823	20.714	0.500
581.500	365.865	80.003	19.995	103.104	19.819	21.041	0.503
582.000	366.120	80.002	19.995	103.106	19.813	21.396	0.515
582.500	366.349	80.002	19.995	103.103	19.809	21.711	0.500
583.000	366.629	80.003	19.995	103.100	19.812	21.478	0.496
583.500	366.907	80.002	19.995	103.097	19.805	21.969	0.534
584.000	367.168	80.004	19.995	103.095	19.802	22.170	0.549
584.500	367.397	80.003	19.994	103.098	19.797	22.513	0.515
585.000	367.661	80.003	19.993	103.102	19.793	22.732	0.491
585.500	367.917	80.002	19.994	103.109	19.791	22.928	0.506
586.000	368.137	80.004	19.994	103.110	19.786	23.237	0.498
586.500	368.417	80.005	19.995	103.104	19.782	23.521	0.488
587.000	368.687	80.004	19.994	103.097	19.777	23.847	0.525
587.501	368.926	80.004	19.994	103.090	19.779	23.731	0.530
588.001	369.182	80.003	19.995	103.089	19.771	24.228	0.502
588.500	369.463	80.004	19.994	103.088	19.764	24.691	0.516
589.000	369.671	80.004	19.994	103.090	19.766	24.588	0.513
589.500	369.974	80.004	19.995	103.093	19.759	25.054	0.500
590.000	370.176	80.004	19.994	103.096	19.757	25.173	0.508
590.500	370.448	80.004	19.994	103.094	19.753	25.480	0.489
591.000	370.683	80.003	19.994	103.096	19.744	26.057	0.491
591.500	370.950	80.005	19.994	103.095	19.744	26.060	0.504
592.000	371.206	80.004	19.993	103.092	19.741	26.280	0.512
592.500	371.425	80.004	19.995	103.089	19.737	26.543	0.499
593.000	371.713	80.003	19.994	103.086	19.733	26.802	0.491
593.500	371.966	80.004	19.993	103.082	19.729	27.066	0.524
594.000	372.220	80.003	19.995	103.081	19.725	27.333	0.524
594.500	372.476	80.003	19.994	103.081	19.719	27.734	0.509
595.000	372.756	80.002	19.995	103.082	19.714	28.088	0.523
595.500	373.038	80.003	19.994	103.086	19.709	28.390	0.549
596.000	373.270	80.002	19.993	103.089	19.703	28.851	0.538
596.500	373.526	80.003	19.992	103.094	19.702	28.857	0.501
597.000	373.807	80.003	19.993	103.097	19.694	29.412	0.513
597.500	374.026	80.003	19.994	103.099	19.691	29.625	0.519
598.000	374.288	80.001	19.993	103.099	19.687	29.873	0.490
598.500	374.533	80.002	19.993	103.097	19.683	30.185	0.494
599.000	374.810	80.001	19.994	103.095	19.678	30.493	0.515
599.500	375.067	80.000	19.994	103.094	19.676	30.655	0.528
600.000	375.325	80.002	19.995	103.096	19.669	31.108	0.524
600.500	375.539	80.000	19.994	103.097	19.665	31.364	0.494
601.000	375.831	80.001	19.995	103.098	19.661	31.663	0.490
601.500	376.098	80.000	19.994	103.102	19.649	32.440	0.533
602.000	376.343	80.000	19.994	103.104	19.649	32.452	0.535
602.500	376.599	80.002	19.995	103.103	19.644	32.787	0.507
603.000	376.833	80.001	19.995	103.098	19.639	33.135	0.496
603.500	377.069	80.002	19.995	103.095	19.636	33.350	0.480
604.001	377.355	80.001	19.994	103.090	19.631	33.659	0.496
604.501	377.594	80.001	19.995	103.086	19.623	34.189	0.524
605.000	377.805	80.000	19.995	103.085	19.617	34.608	0.488
605.500	378.089	80.001	19.994	103.087	19.612	34.937	0.473
606.000	378.343	80.000	19.994	103.088	19.607	35.278	0.516
606.500	378.574	80.000	19.994	103.087	19.603	35.567	0.511
607.000	378.856	80.002	19.995	103.088	19.594	36.137	0.499
607.500	379.084	80.000	19.995	103.091	19.592	36.267	0.511
608.000	379.360	80.001	19.995	103.089	19.580	37.125	0.507
608.500	379.607	80.000	19.995	103.089	19.579	37.195	0.514
609.000	379.840	80.000	19.996	103.091	19.573	37.541	0.501
609.500	380.084	80.001	19.995	103.091	19.568	37.906	0.478
610.000	380.351	80.001	19.994	103.087	19.560	38.442	0.494
610.500	380.620	80.000	19.994	103.086	19.560	38.466	0.524
611.000	380.888	80.000	19.995	103.086	19.551	39.068	0.536
611.500	381.119	80.000	19.994	103.083	19.546	39.374	0.518
612.000	381.383	80.001	19.996	103.085	19.540	39.819	0.497
612.500	381.647	80.002	19.996	103.089	19.532	40.330	0.512
613.000	381.883	80.001	19.995	103.090	19.524	40.890	0.514
613.500	382.149	80.002	19.995	103.091	19.523	40.939	0.501
614.001	382.396	80.002	19.997	103.090	19.513	41.579	0.507
614.500	382.617	80.002	19.994	103.087	19.509	41.851	0.490
615.000	382.897	80.002	19.995	103.083	19.498	42.586	0.485
615.500	383.119	80.002	19.995	103.086	19.495	42.821	0.502
616.000	383.405	80.002	19.996	103.090	19.488	43.306	0.505
616.500	383.627	80.002	19.994	103.093	19.484	43.544	0.508
617.000	383.906	80.003	19.995	103.092	19.478	43.972	0.504
617.500	384.176	80.002	19.995	103.094	19.471	44.462	0.525
618.000	384.411	80.002	19.996	103.093	19.463	44.985	0.527
618.500	384.674	80.003	19.995	103.094	19.458	45.289	0.502
619.000	384.902	80.002	19.995	103.097	19.450	45.824	0.494
619.500	385.175	80.002	19.996	103.097	19.447	46.077	0.496
620.000	385.407	80.002	19.994	103.096	19.433	46.972	0.503
620.500	385.638	80.002	19.995	103.101	19.426	47.451	0.484
621.000	385.879	80.001	19.995	103.102	19.420	47.872	0.467
621.500	386.155	80.002	19.994	103.103	19.416	48.150	0.495
622.000	386.408	80.003	19.995	103.105	19.408	48.683	0.523
622.500	386.655	80.002	19.996	103.106	19.397	49.446	0.514
623.000	386.907	80.004	19.996	103.102	19.391	49.801	0.499
623.500	387.136	80.002	19.995	103.101	19.381	50.524	0.490
624.000	387.410	80.001	19.994	103.099	19.377	50.794	0.492
624.500	387.685	80.002	19.994	103.102	19.371	51.179	0.526
625.000	387.951	80.001	19.995	103.107	19.359	51.986	0.545
625.500	388.174	80.001	19.995	103.109	19.354	52.331	0.515
626.000	388.412	80.001	19.996	103.103	19.346	52.894	0.475
626.500	388.698	80.001	19.995	103.105	19.337	53.495	0.493
627.000	388.940	80.001	19.995	103.106	19.326	54.202	0.526
627.500	389.199	80.000	19.993	103.106	19.318	54.734	0.514
628.000	389.449	80.002	19.995	103.107	19.311	55.237	0.505
628.500	389.654	80.000	19.995	103.114	19.303	55.736	0.482
629.000	389.908	80.003	19.996	103.116	19.293	56.421	0.457
629.500	390.160	80.001	19.995	103.117	19.283	57.072	0.482
630.000	390.451	80.001	19.996	103.117	19.275	57.608	0.524
630.500	390.686	80.002	19.995	103.118	19.262	58.484	0.535
631.000	390.912	80.000	19.996	103.118	19.259	58.713	0.493
631.500	391.196	80.001	19.995	103.119	19.248	59.463	0.485
632.000	391.440	80.000	19.994	103.120	19.240	59.999	0.519
632.500	391.708	80.000	19.995	103.123	19.232	60.540	0.520
633.000	391.976	80.001	19.995	103.123	19.221	61.306	0.523
633.500	392.226	80.000	19.996	103.123	19.210	62.003	0.527
634.000	392.439	80.002	19.995	103.124	19.203	62.464	0.491
634.500	392.684	80.002	19.995	103.128	19.191	63.334	0.461
635.000	392.948	80.001	19.996	103.126	19.181	63.956	0.484
635.500	393.208	80.001	19.996	103.130	19.173	64.525	0.516
636.000	393.485	80.000	19.996	103.132	19.161	65.327	0.531
636.500	393.698	80.002	19.996	103.132	19.151	65.976	0.513
637.000	394.004	80.001	19.996	103.133	19.139	66.792	0.504
637.500	394.235	80.001	19.995	103.136	19.129	67.451	0.528
638.000	394.465	80.001	19.996	103.140	19.121	68.018	0.499
638.500	394.750	80.002	19.995	103.140	19.107	68.994	0.488
639.000	395.020	80.000	19.995	103.138	19.097	69.661	0.535
639.500	395.253	80.000	19.997	103.133	19.085	70.414	0.529
640.000	395.515	80.001	19.994	103.128	19.073	71.230	0.499
640.500	395.790	80.001	19.996	103.122	19.059	72.177	0.516
641.000	396.035	80.002	19.997	103.120	19.047	73.035	0.528
641.500	396.264	80.003	19.996	103.118	19.036	73.767	0.497
642.000	396.528	80.002	19.996	103.118	19.025	74.471	0.484
642.500	396.755	80.002	19.997	103.120	19.015	75.155	0.492
643.000	397.000	80.002	19.994	103.120	19.003	75.999	0.481
643.500	397.280	80.001	19.995	103.121	18.992	76.724	0.498
644.000	397.545	80.003	19.996	103.122	18.977	77.712	0.535
644.500	397.748	80.003	19.996	103.129	18.965	78.502	0.507
645.000	397.963	80.003	19.995	103.134	18.953	79.371	0.443
645.500	398.257	80.002	19.995	103.140	18.936	80.475	0.463
646.000	398.512	80.001	19.996	103.146	18.923	81.361	0.529
646.500	398.745	80.003	19.997	103.151	18.913	82.038	0.518
647.000	398.978	80.002	19.996	103.151	18.897	83.115	0.477
647.500	399.278	80.004	19.996	103.151	18.883	84.079	0.500
648.000	399.532	80.003	19.996	103.149	18.871	84.919	0.544
648.500	399.754	80.003	19.996	103.150	18.857	85.836	0.515
649.000	399.980	80.003	19.995	103.148	18.844	86.675	0.462
649.500	400.224	80.003	19.996	103.146	18.824	88.028	0.459
650.000	400.482	80.003	19.995	103.145	18.814	88.687	0.486
650.500	400.749	80.002	19.995	103.148	18.795	90.005	0.513
651.000	401.004	80.002	19.996	103.149	18.780	90.995	0.523
651.500	401.244	80.003	19.996	103.153	18.762	92.189	0.508
652.001	401.469	80.003	19.995	103.156	18.750	93.048	0.480
652.501	401.753	80.003	19.995	103.158	18.730	94.384	0.488
653.000	401.994	80.003	19.995	103.158	18.716	95.331	0.517
653.500	402.263	80.002	19.995	103.158	18.699	96.468	0.517
654.000	402.480	80.003	19.996	103.158	18.686	97.332	0.498
654.500	402.738	80.003	19.995	103.158	18.667	98.624	0.481
655.000	402.969	80.001	19.995	103.158	18.647	99.997	0.482
655.500	403.230	80.003	19.995	103.159	18.630	101.110	0.491
656.000	403.471	80.003	19.996	103.159	18.612	102.349	0.497
656.501	403.711	80.002	19.995	103.162	18.594	103.536	0.491
657.000	403.978	80.001	19.995	103.168	18.575	104.789	0.494
657.500	404.237	80.002	19.995	103.175	18.556	106.095	0.517
658.000	404.455	80.002	19.994	103.179	18.538	107.341	0.502
658.500	404.722	80.003	19.995	103.184	18.516	108.770	0.481
659.000	404.944	80.001	19.995	103.189	18.500	109.914	0.487
659.500	405.183	80.002	19.995	103.189	18.478	111.342	0.475
660.000	405.443	80.001	19.994	103.188	18.457	112.781	0.479
660.500	405.685	80.000	19.995	103.185	18.437	114.125	0.501
661.000	405.950	80.001	19.993	103.182	18.418	115.406	0.505
661.500	406.184	80.001	19.995	103.178	18.400	116.590	0.502
662.000	406.421	80.001	19.994	103.179	18.380	117.983	0.485
662.500	406.655	80.002	19.994	103.179	18.355	119.647	0.471
663.000	406.926	80.002	19.995	103.181	18.337	120.859	0.488
663.500	407.145	80.001	19.993	103.187	18.316	122.286	0.497
664.000	407.434	80.002	19.995	103.187	18.295	123.691	0.499
664.500	407.690	80.002	19.994	103.187	18.270	125.360	0.527
665.000	407.910	80.002	19.995	103.187	18.257	126.285	0.511
665.500	408.164	80.002	19.995	103.191	18.230	128.096	0.475
666.000	408.405	80.002	19.994	103.187	18.213	129.252	0.484
666.500	408.647	80.002	19.994	103.186	18.193	130.607	0.489
667.000	408.919	80.002	19.993	103.179	18.163	132.581	0.498
667.500	409.164	80.003	19.995	103.177	18.143	133.966	0.516
668.000	409.414	80.003	19.994	103.177	18.123	135.314	0.506
668.500	409.663	80.002	19.993	103.180	18.099	136.881	0.497
669.000	409.895	80.003	19.993	103.185	18.073	138.652	0.490
669.500	410.150	80.003	19.995	103.193	18.053	139.987	0.484
670.000	410.393	80.005	19.994	103.197	18.026	141.829	0.493
670.501	410.639	80.004	19.992	103.198	18.001	143.512	0.494
671.000	410.892	80.003	19.995	103.199	17.981	144.869	0.494
671.500	411.114	80.003	19.994	103.198	17.953	146.750	0.487
672.000	411.378	80.003	19.994	103.198	17.928	148.489	0.481
672.500	411.588	80.003	19.994	103.197	17.904	150.115	0.481
673.000	411.873	80.003	19.993	103.196	17.879	151.812	0.485
673.500	412.089	80.003	19.994	103.192	17.850	153.775	0.498
674.000	412.320	80.003	19.994	103.192	17.826	155.388	0.474
674.500	412.560	80.001	19.994	103.192	17.802	157.025	0.459
675.000	412.822	80.004	19.993	103.193	17.772	159.003	0.486
675.500	413.071	80.001	19.994	103.196	17.750	160.545	0.506
676.000	413.329	80.003	19.994	103.201	17.721	162.502	0.509
676.500	413.552	80.002	19.993	103.205	17.696	164.150	0.494
677.000	413.777	80.003	19.994	103.211	17.674	165.662	0.465
677.500	414.065	80.003	19.995	103.217	17.646	167.553	0.480
678.000	414.272	80.001	19.994	103.218	17.620	169.274	0.504
678.500	414.524	80.003	19.994	103.217	17.592	171.187	0.477
679.000	414.771	80.001	19.994	103.212	17.567	172.850	0.479
679.500	415.019	80.004	19.994	103.209	17.535	175.034	0.497
680.000	415.270	80.001	19.994	103.209	17.507	176.914	0.497
680.500	415.535	80.000	19.994	103.213	17.481	178.672	0.508
681.000	415.752	80.001	19.995	103.221	17.449	180.838	0.499
681.500	415.983	80.000	19.994	103.229	17.418	182.941	0.465
682.000	416.251	80.000	19.994	103.233	17.391	184.726	0.473
682.500	416.500	79.999	19.996	103.234	17.359	186.885	0.508
683.000	416.735	80.000	19.995	103.237	17.329	188.882	0.501
683.501	416.999	80.002	19.995	103.242	17.299	190.893	0.492
684.000	417.255	80.002	19.995	103.250	17.270	192.855	0.510
684.500	417.519	80.001	19.994	103.258	17.240	194.887	0.520
685.000	417.738	80.002	19.995	103.266	17.205	197.248	0.502
685.500	417.990	80.000	19.993	103.270	17.180	198.902	0.477
686.000	418.270	80.000	19.994	103.273	17.147	201.149	0.501
686.500	418.507	80.001	19.995	103.273	17.117	203.185	0.525
687.000	418.779	79.999	19.994	103.273	17.088	205.147	0.513
687.500	419.011	80.001	19.996	103.273	17.057	207.303	0.506
688.000	419.231	80.002	19.995	103.273	17.023	209.572	0.478
688.500	419.466	80.002	19.995	103.275	16.995	211.500	0.453
689.000	419.739	80.000	19.994	103.277	16.961	213.764	0.481
689.500	419.992	80.000	19.995	103.283	16.929	215.939	0.517
690.000	420.221	80.001	19.994	103.288	16.901	217.789	0.504
690.500	420.513	80.002	19.994	103.290	16.868	220.056	0.501
691.000	420.774	80.001	19.996	103.289	16.836	222.204	0.537
691.501	420.968	80.002	19.995	103.288	16.800	224.593	0.504
692.001	421.232	80.001	19.995	103.287	16.775	226.327	0.457
692.500	421.501	80.001	19.994	103.287	16.741	228.605	0.496
693.000	421.740	80.001	19.995	103.286	16.712	230.550	0.520
693.500	422.005	80.001	19.995	103.284	16.682	232.623	0.505
694.000	422.221	80.002	19.995	103.283	16.651	234.691	0.492
694.500	422.498	80.000	19.994	103.272	16.622	236.677	0.487
695.000	422.726	80.003	19.995	103.261	16.588	238.922	0.499
695.500	422.942	80.002	19.995	103.257	16.561	240.717	0.474
696.000	423.194	80.001	19.994	103.257	16.533	242.673	0.456
696.500	423.431	80.000	19.993	103.260	16.504	244.585	0.479
697.000	423.698	80.002	19.995	103.266	16.474	246.592	0.497
697.500	423.962	80.002	19.995	103.277	16.449	248.327	0.517
698.000	424.220	80.002	19.995	103.286	16.418	250.422	0.526
698.500	424.471	80.001	19.994	103.292	16.393	252.130	0.516
699.000	424.716	80.001	19.995	103.296	16.366	253.969	0.503
699.500	424.957	80.001	19.994	103.304	16.338	255.810	0.491
700.000	425.225	80.001	19.994	103.308	16.312	257.598	0.497
700.500	425.450	80.000	19.995	103.309	16.282	259.580	0.501
701.000	425.742	80.002	19.994	103.306	16.256	261.346	0.505
701.500	425.958	80.000	19.994	103.303	16.231	262.997	0.513
702.000	426.238	80.001	19.994	103.295	16.203	264.915	0.502
702.500	426.496	80.000	19.996	103.291	16.177	266.648	0.516
703.000	426.723	80.001	19.996	103.297	16.155	268.174	0.512
703.500	426.980	80.001	19.994	103.307	16.132	269.705	0.485
704.000	427.218	80.000	19.994	103.310	16.108	271.301	0.489
704.500	427.487	80.001	19.996	103.310	16.086	272.764	0.501
705.000	427.748	80.002	19.995	103.311	16.063	274.355	0.519
705.500	427.957	80.002	19.995	103.314	16.040	275.891	0.500
706.000	428.231	80.000	19.996	103.306	16.022	277.085	0.477
706.500	428.480	80.002	19.995	103.300	15.997	278.771	0.503
707.000	428.750	80.002	19.996	103.314	15.979	280.033	0.521
707.500	428.991	80.002	19.995	103.314	15.959	281.373	0.515
708.000	429.246	80.001	19.996	103.304	15.944	282.430	0.503
708.500	429.499	80.000	19.995	103.319	15.924	283.707	0.502
709.000	429.777	80.001	19.996	103.326	15.904	285.120	0.519
709.500	429.980	80.000	19.995	103.318	15.885	286.343	0.506
710.000	430.237	80.001	19.996	103.328	15.873	287.200	0.471
710.500	430.504	80.000	19.996	103.324	15.852	288.585	0.492
711.000	430.769	80.001	19.996	103.321	15.841	289.344	0.528
711.500	431.022	80.002	19.996	103.315	15.824	290.511	0.525
712.000	431.283	80.001	19.995	103.322	15.808	291.601	0.516
712.500	431.518	80.001	19.995	103.314	15.798	292.265	0.505
713.000	431.764	80.001	19.995	103.326	15.780	293.457	0.488
713.500	432.037	80.000	19.995	103.319	15.769	294.240	0.500
714.000	432.286	80.000	19.994	103.327	15.756	295.113	0.521
714.500	432.538	80.000	19.996	103.319	15.747	295.738	0.512
715.000	432.767	80.000	19.995	103.320	15.733	296.664	0.491
715.500	433.020	80.001	19.995	103.313	15.720	297.534	0.482
716.000	433.290	80.000	19.995	103.313	15.715	297.834	0.503
716.500	433.561	80.000	19.994	103.309	15.704	298.573	0.532
717.000	433.792	80.000	19.995	103.317	15.696	299.153	0.522
717.500	434.095	80.000	19.994	103.314	15.685	299.823	0.518
718.000	434.309	80.000	19.995	103.326	15.677	300.417	0.525
718.500	434.602	80.001	19.994	103.317	15.670	300.844	0.512
719.000	434.873	79.999	19.996	103.329	15.665	301.257	0.536
719.500	435.123	80.001	19.995	103.318	15.657	301.747	0.543
720.000	435.369	80.001	19.996	103.327	15.657	301.854	0.509
720.500	435.608	80.001	19.996	103.323	15.652	302.163	0.490
721.000	435.869	80.001	19.996	103.327	15.648	302.453	0.492
721.500	436.113	80.000	19.995	103.327	15.647	302.526	0.503
722.000	436.392	80.002	19.994	103.325	15.645	302.649	0.514
722.500	436.629	80.001	19.995	103.330	15.644	302.713	0.520
723.000	436.915	80.001	19.995	103.327	15.646	302.579	0.520
723.500	437.147	80.001	19.995	103.336	15.650	302.267	0.520
724.000	437.447	80.002	19.996	103.335	15.650	302.302	0.525
724.500	437.667	80.002	19.996	103.341	15.649	302.354	0.526
725.001	437.914	80.002	19.994	103.342	15.653	302.026	0.494
725.501	438.185	80.003	19.994	103.336	15.659	301.690	0.493
726.000	438.422	80.002	19.995	103.342	15.661	301.525	0.513
726.500	438.713	80.003	19.994	103.329	15.669	300.964	0.518
727.000	438.988	80.003	19.995	103.333	15.676	300.530	0.547
727.500	439.235	80.002	19.995	103.315	15.685	299.914	0.544
728.000	439.466	80.005	19.995	103.329	15.694	299.326	0.500
728.500	439.749	80.003	19.995	103.315	15.702	298.766	0.496
729.000	440.041	80.002	19.994	103.332	15.713	298.035	0.545
729.500	440.284	80.002	19.995	103.322	15.722	297.425	0.555
730.000	440.566	80.002	19.995	103.340	15.733	296.636	0.530
730.500	440.812	80.003	19.995	103.331	15.743	296.008	0.527
731.000	441.031	80.003	19.995	103.349	15.758	295.017	0.496
731.500	441.318	80.002	19.996	103.338	15.770	294.226	0.485
732.000	441.606	80.003	19.995	103.356	15.785	293.241	0.540
732.500	441.798	80.002	19.995	103.350	15.801	292.127	0.528
733.000	442.109	80.002	19.994	103.354	15.815	291.222	0.492
733.500	442.324	80.002	19.995	103.354	15.831	290.138	0.514
734.000	442.638	80.003	19.995	103.353	15.847	289.083	0.527
734.500	442.892	80.001	19.995	103.349	15.865	287.886	0.548
735.000	443.139	80.001	19.996	103.351	15.883	286.626	0.535
735.500	443.407	80.001	19.995	103.344	15.900	285.503	0.508
736.000	443.640	80.002	19.994	103.334	15.917	284.356	0.509
736.500	443.905	80.002	19.995	103.347	15.939	282.878	0.500
737.000	444.196	80.002	19.995	103.339	15.959	281.573	0.527
737.500	444.467	80.000	19.996	103.331	15.973	280.586	0.559
738.000	444.722	80.002	19.995	103.344	15.992	279.248	0.544
738.500	444.973	80.001	19.995	103.350	16.016	277.605	0.516
739.000	445.234	80.002	19.995	103.340	16.031	276.530	0.509
739.500	445.503	80.001	19.995	103.336	16.052	275.077	0.521
740.000	445.780	80.002	19.996	103.337	16.069	273.919	0.538
740.500	446.012	80.002	19.995	103.335	16.092	272.300	0.528
741.000	446.277	80.001	19.995	103.332	16.108	271.153	0.503
741.500	446.564	80.001	19.996	103.338	16.123	270.092	0.524
742.000	446.832	80.002	19.995	103.350	16.140	268.962	0.553
742.500	447.059	80.001	19.995	103.356	16.150	268.268	0.525
743.000	447.319	80.002	19.995	103.358	16.167	267.082	0.491
743.500	447.622	80.003	19.994	103.366	16.178	266.320	0.526
744.000	447.865	80.002	19.996	103.372	16.193	265.275	0.555
744.500	448.114	80.003	19.996	103.374	16.202	264.701	0.518
745.000	448.377	80.001	19.995	103.373	16.215	263.814	0.502
745.500	448.645	80.003	19.995	103.370	16.222	263.307	0.521
746.000	448.923	80.001	19.995	103.364	16.233	262.510	0.539
746.500	449.207	80.003	19.995	103.366	16.237	262.233	0.554
747.000	449.449	80.003	19.995	103.374	16.244	261.764	0.544
747.500	449.726	80.004	19.995	103.380	16.257	260.859	0.522
748.000	449.941	80.003	19.995	103.382	16.263	260.444	0.506
748.500	450.174	80.003	19.994	103.376	16.273	259.788	0.470
749.000	450.452	80.003	19.994	103.368	16.284	259.031	0.480
749.500	450.729	80.003	19.995	103.352	16.291	258.587	0.534
750.000	451.006	80.003	19.995	103.334	16.308	257.489	0.555
750.500	451.280	80.003	19.994	103.315	16.322	256.599	0.553
751.000	451.537	80.005	19.995	103.295	16.337	255.624	0.541
751.500	451.807	80.003	19.993	103.271	16.357	254.314	0.529
752.000	452.045	80.004	19.995	103.250	16.380	252.841	0.517
752.500	452.343	80.002	19.994	103.238	16.399	251.567	0.522
753.000	452.568	80.004	19.994	103.230	16.425	249.860	0.530
753.500	452.847	80.004	19.994	103.223	16.457	247.721	0.514
754.000	453.127	80.004	19.995	103.215	16.487	245.735	0.531
754.500	453.393	80.005	19.995	103.209	16.517	243.707	0.552
755.000	453.679	80.004	19.993	103.204	16.554	241.180	0.549
755.500	453.942	80.004	19.996	103.199	16.593	238.582	0.551
756.000	454.220	80.004	19.994	103.195	16.635	235.695	0.545
756.500	454.497	80.005	19.994	103.187	16.677	232.834	0.548
757.000	454.753	80.004	19.994	103.179	16.719	229.982	0.544
757.500	455.101	80.004	19.993	103.168	16.770	226.584	0.569
758.000	455.330	80.003	19.994	103.160	16.814	223.557	0.590
758.500	455.596	80.003	19.994	103.154	16.858	220.579	0.536
759.000	455.879	80.003	19.994	103.155	16.899	217.828	0.522
759.500	456.150	80.004	19.995	103.157	16.942	214.925	0.551
760.000	456.465	80.003	19.994	103.160	16.987	211.861	0.570
760.500	456.701	80.003	19.994	103.168	17.028	209.110	0.569
761.000	457.006	80.003	19.995	103.182	17.065	206.582	0.546
761.501	457.240	80.002	19.993	103.197	17.106	203.815	0.540
762.000	457.521	80.002	19.995	103.218	17.145	201.152	0.527
762.500	457.800	80.002	19.993	103.237	17.186	198.387	0.537
763.000	458.036	80.000	19.994	103.255	17.219	196.160	0.537
763.500	458.294	80.003	19.995	103.271	17.256	193.637	0.504
764.000	458.592	80.001	19.995	103.287	17.290	191.373	0.525
764.500	458.867	80.001	19.995	103.296	17.326	188.934	0.564
765.000	459.126	80.001	19.995	103.301	17.357	186.863	0.553
765.500	459.393	80.002	19.994	103.301	17.388	184.752	0.530
766.000	459.680	80.001	19.994	103.296	17.424	182.353	0.540
766.500	459.952	80.001	19.995	103.292	17.453	180.404	0.557
767.000	460.243	80.002	19.994	103.285	17.483	178.381	0.562
767.500	460.505	80.003	19.995	103.277	17.514	176.275	0.558
768.000	460.762	80.001	19.995	103.269	17.543	174.321	0.536
768.500	461.032	80.001	19.996	103.260	17.574	172.227	0.523
769.000	461.298	80.001	19.995	103.254	17.604	170.155	0.532
769.500	461.572	80.000	19.995	103.254	17.629	168.504	0.538
770.000	461.818	80.001	19.995	103.254	17.661	166.369	0.530
770.500	462.115	80.001	19.994	103.250	17.689	164.437	0.531
771.000	462.414	80.002	19.996	103.242	17.713	162.785	0.570
771.500	462.666	80.002	19.996	103.229	17.740	160.961	0.574
772.000	462.972	80.001	19.995	103.214	17.767	159.169	0.555
772.500	463.229	80.001	19.994	103.201	17.794	157.349	0.561
773.000	463.497	80.001	19.996	103.195	17.817	155.786	0.544
773.500	463.753	80.001	19.996	103.192	17.846	153.831	0.524
774.000	464.006	80.002	19.995	103.189	17.869	152.258	0.516
774.500	464.276	80.002	19.994	103.184	17.895	150.507	0.516
775.000	464.546	80.001	19.994	103.179	17.922	148.685	0.532
775.500	464.818	80.002	19.994	103.178	17.948	146.963	0.541
776.000	465.063	80.001	19.995	103.180	17.971	145.396	0.530
776.500	465.306	80.002	19.994	103.181	18.000	143.441	0.503
777.000	465.610	80.002	19.995	103.183	18.025	141.760	0.518
777.500	465.899	80.002	19.994	103.183	18.049	140.161	0.570
778.000	466.164	80.001	19.996	103.177	18.077	138.301	0.573
778.500	466.432	80.002	19.994	103.170	18.100	136.733	0.544
779.000	466.681	80.002	19.995	103.168	18.125	135.087	0.525
779.500	466.987	80.002	19.994	103.166	18.150	133.349	0.536
780.000	467.249	80.001	19.994	103.164	18.174	131.766	0.561
780.500	467.490	80.001	19.995	103.163	18.199	130.040	0.536
781.000	467.759	80.002	19.994	103.161	18.226	128.221	0.507
781.500	468.004	80.002	19.994	103.149	18.247	126.804	0.512
782.000	468.325	80.002	19.995	103.139	18.274	124.998	0.540
782.500	468.570	80.002	19.994	103.131	18.295	123.535	0.565
783.000	468.837	80.003	19.993	103.123	18.318	122.004	0.539
783.500	469.088	80.001	19.994	103.119	18.342	120.409	0.515
784.000	469.392	80.003	19.994	103.116	18.364	118.943	0.537
784.500	469.670	80.002	19.994	103.114	18.386	117.423	0.569
785.000	469.915	80.003	19.994	103.113	18.415	115.473	0.553
785.500	470.133	80.002	19.994	103.114	18.434	114.251	0.493
786.000	470.414	80.003	19.994	103.115	18.459	112.518	0.481
786.501	470.697	80.002	19.994	103.118	18.481	111.032	0.531
787.000	470.957	80.002	19.994	103.121	18.502	109.672	0.553
787.500	471.253	80.002	19.993	103.122	18.524	108.173	0.550
788.000	471.463	80.002	19.994	103.123	18.549	106.507	0.531
788.500	471.734	80.002	19.994	103.124	18.564	105.462	0.493
789.000	471.997	80.002	19.994	103.130	18.589	103.787	0.508
789.500	472.283	80.003	19.995	103.136	18.615	102.052	0.541
790.000	472.538	80.001	19.995	103.137	18.639	100.405	0.545
790.500	472.784	80.002	19.994	103.135	18.655	99.321	0.521
791.000	473.075	80.002	19.996	103.134	18.675	98.007	0.519
791.500	473.312	80.001	19.994	103.126	18.695	96.666	0.532
792.000	473.610	80.001	19.995	103.114	18.713	95.460	0.531
792.500	473.891	80.002	19.994	103.105	18.734	94.000	0.557
793.000	474.169	80.002	19.995	103.098	18.750	92.966	0.569
793.500	474.385	80.002	19.995	103.092	18.770	91.594	0.527
794.000	474.695	80.001	19.994	103.092	18.789	90.339	0.510
794.500	474.930	80.000	19.994	103.094	18.807	89.117	0.535
795.000	475.213	80.001	19.995	103.097	18.824	87.929	0.531
795.500	475.451	80.002	19.995	103.098	18.843	86.664	0.520
796.000	475.742	80.002	19.994	103.102	18.860	85.516	0.525
796.500	475.991	80.001	19.994	103.103	18.877	84.361	0.535
797.000	476.225	80.001	19.995	103.105	18.894	83.235	0.511
797.500	476.493	80.000	19.995	103.107	18.911	82.097	0.492
798.000	476.777	80.001	19.995	103.107	18.931	80.784	0.527
798.500	477.030	80.001	19.994	103.103	18.944	79.899	0.544
799.000	477.312	80.002	19.995	103.097	18.963	78.597	0.536
799.500	477.567	79.999	19.995	103.090	18.979	77.508	0.536
800.000	477.873	80.000	19.996	103.087	18.995	76.444	0.549
800.500	478.081	80.001	19.995	103.084	19.014	75.178	0.537
801.000	478.318	80.001	19.994	103.083	19.029	74.149	0.479
801.500	478.598	80.001	19.995	103.083	19.047	72.949	0.481
802.000	478.864	80.001	19.995	103.083	19.062	71.915	0.532
802.500	479.100	80.000	19.994	103.083	19.073	71.217	0.524
803.000	479.373	80.001	19.994	103.084	19.090	70.052	0.505
803.500	479.621	80.001	19.995	103.084	19.106	68.998	0.515
804.000	479.897	80.002	19.994	103.083	19.119	68.099	0.522
804.500	480.148	80.000	19.994	103.083	19.136	66.990	0.526
805.000	480.418	80.000	19.995	103.083	19.150	66.048	0.525
805.500	480.675	80.002	19.996	103.082	19.163	65.130	0.524
806.000	480.955	80.002	19.995	103.082	19.176	64.271	0.532
806.500	481.180	80.004	19.995	103.082	19.190	63.318	0.521
807.000	481.446	80.001	19.995	103.082	19.201	62.560	0.498
807.500	481.706	80.004	19.995	103.081	19.214	61.722	0.508
808.000	481.981	80.003	19.995	103.080	19.233	60.440	0.531
808.500	482.206	80.003	19.994	103.080	19.245	59.612	0.518
809.000	482.439	80.002	19.996	103.079	19.257	58.829	0.479
809.500	482.688	80.003	19.995	103.079	19.266	58.192	0.469
810.000	482.950	80.002	19.996	103.079	19.281	57.198	0.496
810.500	483.198	80.004	19.995	103.082	19.293	56.424	0.511
811.000	483.479	80.003	19.995	103.082	19.305	55.569	0.520
811.500	483.766	80.003	19.994	103.082	19.319	54.657	0.548
812.000	483.988	80.003	19.995	103.081	19.330	53.907	0.538
812.500	484.260	80.004	19.994	103.079	19.341	53.177	0.502
813.000	484.530	80.002	19.995	103.078	19.353	52.391	0.518
813.500	484.768	80.002	19.995	103.079	19.366	51.507	0.525
814.000	485.028	80.004	19.994	103.080	19.379	50.625	0.503
814.500	485.303	80.003	19.996	103.080	19.390	49.877	0.517
815.000	485.561	80.003	19.995	103.080	19.401	49.137	0.534
815.500	485.826	80.003	19.994	103.079	19.415	48.163	0.527
816.000	486.053	80.001	19.995	103.078	19.427	47.374	0.507
816.500	486.333	80.004	19.992	103.078	19.440	46.479	0.500
817.000	486.578	80.002	19.994	103.078	19.451	45.794	0.516
817.500	486.830	80.003	19.996	103.078	19.460	45.173	0.511
818.000	487.089	80.001	19.995	103.077	19.472	44.368	0.504
818.500	487.347	80.003	19.995	103.072	19.481	43.722	0.514
819.000	487.598	80.001	19.995	103.066	19.493	42.927	0.512
819.500	487.863	80.002	19.995	103.065	19.500	42.442	0.513
820.000	488.085	80.003	19.995	103.064	19.510	41.815	0.502
820.500	488.361	80.001	19.994	103.064	19.525	40.800	0.493
821.000	488.619	80.003	19.995	103.067	19.534	40.208	0.516
821.500	488.857	80.003	19.995	103.065	19.546	39.361	0.515
822.000	489.109	80.002	19.994	103.064	19.554	38.855	0.493
822.500	489.391	80.003	19.996	103.064	19.566	38.015	0.512
823.000	489.610	80.003	19.996	103.063	19.573	37.558	0.517
823.500	489.891	80.003	19.995	103.066	19.584	36.842	0.500
824.000	490.171	80.002	19.995	103.073	19.593	36.223	0.531
824.500	490.394	80.003	19.996	103.073	19.607	35.257	0.532
825.000	490.646	80.002	19.996	103.071	19.617	34.619	0.489
825.500	490.911	80.002	19.996	103.065	19.626	34.009	0.496
826.000	491.155	80.002	19.995	103.061	19.637	33.284	0.513
826.500	491.438	80.001	19.997	103.060	19.649	32.456	0.518
827.000	491.687	80.003	19.995	103.059	19.654	32.118	0.529
827.500	491.946	80.002	19.995	103.062	19.662	31.594	0.520
828.001	492.168	80.001	19.996	103.067	19.677	30.585	0.495
828.500	492.453	80.002	19.995	103.067	19.685	30.029	0.494
829.000	492.700	80.000	19.995	103.066	19.694	29.403	0.520
829.500	492.975	80.001	19.996	103.068	19.704	28.725	0.527
830.000	493.215	80.002	19.997	103.066	19.714	28.037	0.518
830.500	493.489	80.002	19.997	103.065	19.721	27.571	0.514
831.000	493.754	80.004	19.997	103.066	19.732	26.880	0.526
831.500	493.984	80.003	19.997	103.067	19.742	26.195	0.517
832.000	494.260	80.003	19.996	103.066	19.747	25.865	0.500
832.500	494.515	80.003	19.996	103.062	19.762	24.864	0.519
833.000	494.785	80.005	19.996	103.060	19.765	24.613	0.528
833.500	495.029	80.003	19.997	103.062	19.772	24.139	0.520
834.000	495.296	80.005	19.995	103.061	19.784	23.393	0.513
834.500	495.530	80.003	19.995	103.062	19.792	22.855	0.506
835.000	495.823	80.005	19.996	103.068	19.798	22.450	0.514
835.501	496.050	80.005	19.995	103.072	19.807	21.806	0.523
836.000	496.299	80.004	19.997	103.073	19.817	21.175	0.498
836.500	496.576	80.005	19.995	103.073	19.825	20.598	0.501
837.000	496.819	80.004	19.996	103.075	19.833	20.067	0.523
837.500	497.080	80.004	19.995	103.073	19.842	19.493	0.512
838.000	497.351	80.004	19.996	103.066	19.847	19.100	0.518
838.500	497.621	80.005	19.995	103.059	19.857	18.439	0.536
839.000	497.846	80.004	19.994	103.053	19.864	18.000	0.518
839.500	498.117	80.004	19.996	103.045	19.872	17.427	0.496
840.000	498.379	80.006	19.995	103.038	19.880	16.922	0.514
840.500	498.648	80.004	19.994	103.037	19.884	16.661	0.532
841.000	498.867	80.005	19.994	103.037	19.893	16.023	0.509
841.501	499.108	80.003	19.994	103.035	19.902	15.427	0.474
842.000	499.367	80.003	19.994	103.038	19.905	15.245	0.480
842.500	499.630	80.003	19.994	103.045	19.911	14.820	0.511
843.000	499.883	80.003	19.995	103.051	19.916	14.473	0.519
843.500	500.142	80.006	19.994	103.056	19.922	14.081	0.514
844.000	500.405	80.003	19.994	103.062	19.930	13.548	0.517
844.500	500.651	80.002	19.994	103.068	19.936	13.144	0.515
845.000	500.886	80.002	19.994	103.070	19.939	12.927	0.495
845.500	501.181	80.001	19.994	103.072	19.942	12.704	0.505
846.000	501.419	80.002	19.994	103.075	19.952	12.078	0.532
846.500	501.635	80.001	19.995	103.070	19.957	11.741	0.494
847.000	501.898	80.000	19.993	103.067	19.962	11.359	0.466
847.500	502.167	80.001	19.994	103.067	19.971	10.805	0.506
848.000	502.424	80.001	19.995	103.067	19.975	10.532	0.529
848.500	502.674	80.001	19.995	103.069	19.980	10.200	0.516
849.000	502.916	80.000	19.994	103.075	19.984	9.894	0.500
849.500	503.165	80.001	19.993	103.081	19.988	9.624	0.491
850.000	503.415	80.003	19.996	103.082	19.991	9.441	0.495
850.500	503.680	80.001	19.994	103.081	19.997	9.064	0.507
851.000	503.935	80.001	19.993	103.082	20.001	8.738	0.518
851.500	504.185	80.002	19.994	103.082	20.006	8.459	0.513
852.000	504.452	80.003	19.995	103.082	20.007	8.360	0.511
852.500	504.664	80.003	19.994	103.082	20.011	8.072	0.498
853.000	504.973	80.002	19.994	103.081	20.013	7.927	0.500
853.500	505.215	80.002	19.995	103.076	20.018	7.627	0.536
854.000	505.467	80.002	19.994	103.074	20.022	7.362	0.522
854.500	505.742	80.002	19.994	103.072	20.026	7.078	0.511
855.000	505.983	80.003	19.995	103.071	20.030	6.826	0.522
855.500	506.285	80.002	19.994	103.069	20.036	6.442	0.530
856.000	506.485	80.002	19.994	103.072	20.034	6.547	0.522
856.500	506.706	80.002	19.994	103.070	20.036	6.383	0.461
857.000	506.984	80.002	19.995	103.067	20.040	6.170	0.459
857.500	507.217	80.002	19.995	103.064	20.040	6.140	0.505
858.000	507.502	80.003	19.995	103.059	20.042	5.976	0.515
858.500	507.729	80.002	19.995	103.052	20.047	5.681	0.515
859.000	507.985	80.002	19.994	103.049	20.047	5.681	0.498
859.500	508.212	80.002	19.994	103.047	20.049	5.528	0.483
860.000	508.496	80.001	19.995	103.044	20.055	5.156	0.497
860.500	508.750	80.003	19.994	103.046	20.058	4.904	0.524
861.000	508.988	80.001	19.993	103.047	20.062	4.629	0.516
861.500	509.279	80.002	19.995	103.047	20.061	4.738	0.511
862.000	509.537	80.001	19.995	103.051	20.063	4.563	0.539
862.500	509.807	80.003	19.996	103.051	20.065	4.467	0.538
863.000	510.033	80.002	19.994	103.050	20.067	4.344	0.512
863.500	510.300	80.002	19.994	103.050	20.069	4.187	0.495
864.000	510.543	80.002	19.994	103.052	20.069	4.208	0.502
864.500	510.781	80.001	19.995	103.050	20.068	4.241	0.496
865.000	511.064	80.002	19.995	103.055	20.071	4.027	0.501
865.500	511.316	80.002	19.995	103.059	20.074	3.865	0.528
866.000	511.542	80.001	19.994	103.061	20.073	3.905	0.507
866.500	511.803	80.002	19.995	103.060	20.074	3.857	0.483
867.000	512.043	80.001	19.994	103.058	20.075	3.806	0.494
867.500	512.318	80.002	19.995	103.056	20.079	3.507	0.508
868.000	512.546	80.001	19.995	103.058	20.076	3.743	0.509
868.500	512.809	80.001	19.996	103.062	20.077	3.622	0.497
869.000	513.082	80.002	19.995	103.063	20.079	3.502	0.513
869.500	513.302	80.002	19.995	103.063	20.079	3.489	0.515
870.000	513.600	80.002	19.995	103.063	20.082	3.323	0.505
870.500	513.824	80.001	19.994	103.057	20.083	3.268	0.520
871.000	514.075	80.001	19.993	103.053	20.078	3.587	0.498
871.500	514.327	80.001	19.994	103.058	20.085	3.087	0.489
872.000	514.625	80.002	19.995	103.062	20.084	3.213	0.527
872.500	514.894	80.003	19.994	103.060	20.081	3.375	0.558
873.000	515.138	80.001	19.995	103.065	20.081	3.360	0.540
873.500	515.458	80.002	19.995	103.068	20.087	2.999	0.538
874.000	515.649	80.002	19.994	103.068	20.082	3.304	0.538
874.501	515.908	80.003	19.995	103.070	20.086	3.081	0.481
875.000	516.194	80.004	19.995	103.073	20.086	3.065	0.498
875.500	516.437	80.002	19.994	103.070	20.087	2.982	0.537
876.000	516.733	80.002	19.994	103.069	20.090	2.805	0.534
876.500	516.989	80.002	19.994	103.068	20.088	2.943	0.546
877.000	517.261	80.001	19.994	103.064	20.091	2.711	0.540
877.500	517.496	80.001	19.994	103.068	20.088	2.886	0.517
878.000	517.742	80.002	19.995	103.070	20.087	3.011	0.494
878.500	518.019	80.002	19.995	103.071	20.090	2.792	0.502
879.000	518.246	80.000	19.994	103.071	20.093	2.587	0.514
879.500	518.521	80.002	19.994	103.075	20.093	2.608	0.503
880.000	518.800	80.002	19.994	103.075	20.095	2.440	0.528
880.500	519.028	80.002	19.994	103.075	20.094	2.514	0.531
881.000	519.271	80.002	19.994	103.077	20.090	2.768	0.489
881.500	519.568	80.001	19.994	103.079	20.094	2.492	0.505
882.000	519.784	80.002	19.995	103.080	20.094	2.494	0.526
882.500	520.068	80.002	19.996	103.080	20.093	2.547	0.507
883.000	520.324	80.003	19.994	103.080	20.095	2.470	0.520
883.500	520.561	80.002	19.995	103.080	20.096	2.359	0.516
884.000	520.804	80.003	19.995	103.077	20.099	2.197	0.486
884.500	521.058	80.002	19.994	103.074	20.097	2.309	0.489
885.000	521.331	80.003	19.994	103.070	20.096	2.344	0.512
885.500	521.585	80.002	19.995	103.064	20.100	2.136	0.527
886.000	521.869	80.002	19.994	103.062	20.096	2.409	0.532
886.500	522.081	80.004	19.995	103.062	20.093	2.553	0.517
887.000	522.344	80.003	19.994	103.062	20.102	1.972	0.486
887.500	522.594	80.003	19.994	103.062	20.095	2.429	0.494
888.000	522.829	80.003	19.993	103.061	20.097	2.298	0.499
888.500	523.111	80.004	19.995	103.057	20.098	2.210	0.501
889.000	523.350	80.002	19.995	103.055	20.097	2.302	0.519
889.500	523.617	80.002	19.995	103.056	20.098	2.217	0.513
890.000	523.877	80.004	19.995	103.060	20.098	2.252	0.516
890.500	524.133	80.004	19.994	103.065	20.100	2.134	0.522
891.000	524.372	80.003	19.994	103.070	20.097	2.280	0.506
891.500	524.646	80.003	19.995	103.075	20.100	2.131	0.504
892.000	524.892	80.003	19.995	103.077	20.100	2.088	0.516
892.500	525.197	80.005	19.995	103.076	20.097	2.293	0.536
893.000	525.433	80.005	19.996	103.076	20.099	2.182	0.546
893.500	525.700	80.004	19.996	103.077	20.099	2.158	0.522
894.000	525.947	80.004	19.994	103.078	20.099	2.206	0.509
894.500	526.195	80.003	19.995	103.078	20.102	2.002	0.504
895.000	526.473	80.005	19.996	103.077	20.100	2.116	0.511
895.500	526.709	80.002	19.995	103.076	20.102	1.948	0.520
896.000	526.976	80.004	19.996	103.076	20.101	2.044	0.508
896.500	527.211	80.004	19.995	103.075	20.101	2.055	0.502
897.000	527.464	80.003	19.994	103.075	20.101	2.064	0.495
897.500	527.711	80.005	19.996	103.074	20.103	1.912	0.494
898.000	528.016	80.004	19.996	103.073	20.098	2.216	0.526
898.501	528.253	80.003	19.996	103.072	20.101	2.052	0.547
899.001	528.523	80.004	19.994	103.073	20.100	2.124	0.525
899.500	528.769	80.002	19.995	103.073	20.100	2.100	0.512
900.000	528.996	80.005	19.994	103.075	20.104	1.861	0.494
900.500	529.285	80.003	19.995	103.076	20.101	2.014	0.495
901.000	529.519	80.003	19.996	103.077	20.102	1.968	0.520
901.500	529.772	80.004	19.995	103.077	20.101	2.064	0.504
902.000	530.023	80.002	19.995	103.076	20.102	2.001	0.495
902.500	530.308	80.003	19.995	103.076	20.103	1.924	0.521
903.000	530.558	80.002	19.996	103.077	20.103	1.884	0.536
903.500	530.828	80.002	19.994	103.080	20.101	2.046	0.527
904.000	531.067	80.003	19.995	103.080	20.102	1.992	0.514
904.500	531.321	80.003	19.996	103.079	20.100	2.107	0.501
905.000	531.588	80.004	19.995	103.078	20.103	1.876	0.507
905.500	531.864	80.002	19.997	103.077	20.101	2.072	0.532
906.000	532.068	80.002	19.996	103.072	20.101	2.046	0.511
906.500	532.336	80.003	19.995	103.064	20.100	2.114	0.476
907.000	532.596	80.003	19.995	103.058	20.099	2.202	0.500
907.500	532.840	80.002	19.995	103.052	20.102	1.970	0.516
908.000	533.107	80.003	19.995	103.044	20.097	2.293	0.507
908.500	533.405	80.001	19.995	103.040	20.101	2.013	0.538
909.000	533.659	80.003	19.995	103.041	20.102	1.946	0.559
909.500	533.911	80.002	19.994	103.041	20.099	2.170	0.529
910.000	534.132	80.000	19.995	103.041	20.101	2.044	0.489
910.500	534.416	80.001	19.995	103.041	20.100	2.120	0.489
911.000	534.684	80.003	19.994	103.041	20.100	2.121	0.528
911.500	534.939	80.002	19.994	103.044	20.100	2.083	0.538
912.000	535.183	80.003	19.994	103.051	20.101	2.011	0.511
912.500	535.444	80.003	19.994	103.059	20.101	2.071	0.502
913.000	535.700	80.003	19.994	103.066	20.101	2.016	0.511
913.500	535.957	80.003	19.995	103.074	20.100	2.073	0.515
914.000	536.216	80.002	19.995	103.080	20.103	1.872	0.514
914.500	536.451	80.003	19.995	103.081	20.101	2.053	0.505
915.000	536.742	80.003	19.995	103.081	20.100	2.127	0.510
915.500	537.003	80.003	19.995	103.082	20.100	2.081	0.539
916.000	537.245	80.004	19.995	103.082	20.101	2.033	0.528
916.500	537.492	80.002	19.995	103.080	20.106	1.711	0.496
917.000	537.749	80.004	19.995	103.078	20.104	1.849	0.497
917.500	538.010	80.005	19.996	103.078	20.104	1.860	0.511
918.000	538.245	80.004	19.994	103.077	20.104	1.860	0.507
918.500	538.519	80.004	19.995	103.077	20.103	1.895	0.503
919.000	538.757	80.003	19.995	103.078	20.105	1.775	0.511
919.500	539.007	80.003	19.995	103.082	20.106	1.705	0.500
920.000	539.295	80.003	19.995	103.085	20.104	1.821	0.513
920.500	539.544	80.003	19.995	103.087	20.106	1.688	0.537
921.000	539.766	80.003	19.995	103.086	20.105	1.784	0.504
921.500	540.053	80.003	19.995	103.086	20.104	1.865	0.490
922.000	540.311	80.002	19.995	103.081	20.101	2.042	0.527
922.500	540.562	80.002	19.995	103.072	20.100	2.095	0.527
923.000	540.803	80.002	19.995	103.062	20.101	2.058	0.500
923.500	541.046	80.002	19.995	103.054	20.101	2.038	0.488
924.000	541.330	80.002	19.996	103.046	20.103	1.898	0.506
924.500	541.561	80.002	19.996	103.042	20.103	1.891	0.521
925.000	541.813	80.001	19.995	103.043	20.104	1.825	0.499
925.500	542.078	80.002	19.995	103.052	20.105	1.768	0.500
926.000	542.362	80.002	19.995	103.067	20.106	1.736	0.533
926.500	542.599	80.001	19.996	103.075	20.105	1.797	0.535
927.000	542.872	80.000	19.996	103.084	20.106	1.723	0.516
927.500	543.126	80.001	19.996	103.088	20.102	1.970	0.519
928.000	543.359	80.002	19.995	103.089	20.108	1.594	0.507
928.500	543.613	80.000	19.995	103.083	20.105	1.788	0.487
929.000	543.900	80.001	19.995	103.087	20.106	1.692	0.514
929.501	544.148	80.000	19.996	103.087	20.105	1.797	0.538
930.000	544.399	80.002	19.995	103.083	20.104	1.819	0.517
930.500	544.651	80.000	19.996	103.075	20.109	1.520	0.501
931.000	544.889	80.001	19.995	103.067	20.105	1.754	0.497
931.500	545.150	80.001	19.995	103.055	20.105	1.758	0.494
932.000	545.417	80.001	19.995	103.049	20.108	1.539	0.513
932.500	545.661	80.001	19.996	103.049	20.108	1.544	0.520
933.000	545.917	80.001	19.996	103.051	20.109	1.529	0.506
933.500	546.182	80.001	19.995	103.058	20.108	1.557	0.510
934.000	546.463	80.002	19.996	103.065	20.106	1.673	0.533
934.500	546.703	80.001	19.995	103.070	20.110	1.439	0.533
935.000	546.978	80.001	19.995	103.074	20.105	1.787	0.518
935.500	547.224	80.001	19.995	103.080	20.104	1.835	0.518
936.000	547.464	80.003	19.994	103.080	20.105	1.774	0.503
936.501	547.719	80.001	19.994	103.079	20.105	1.751	0.490
937.000	547.957	80.001	19.994	103.078	20.108	1.561	0.494
937.500	548.242	80.001	19.995	103.073	20.106	1.692	0.508
938.000	548.496	80.000	19.994	103.073	20.105	1.760	0.531
938.500	548.774	80.003	19.996	103.076	20.104	1.861	0.536
939.000	549.016	80.002	19.994	103.077	20.105	1.762	0.526
939.500	549.250	80.001	19.994	103.076	20.103	1.880	0.498
940.000	549.561	80.000	19.995	103.072	20.103	1.928	0.510
940.500	549.783	80.000	19.995	103.064	20.103	1.902	0.539
941.000	550.024	80.001	19.995	103.054	20.106	1.697	0.498
941.500	550.297	80.002	19.995	103.049	20.107	1.631	0.488
942.000	550.582	80.002	19.995	103.048	20.108	1.535	0.536
942.500	550.805	80.001	19.994	103.055	20.107	1.624	0.533
943.000	551.072	80.001	19.994	103.059	20.104	1.815	0.499
943.500	551.288	80.003	19.996	103.059	20.104	1.821	0.487
944.000	551.586	80.001	19.994	103.055	20.105	1.788	0.499
944.500	551.835	80.002	19.996	103.050	20.107	1.633	0.530
945.000	552.072	80.001	19.995	103.044	20.107	1.653	0.517
945.500	552.349	80.002	19.995	103.041	20.106	1.695	0.500
946.000	552.615	80.002	19.995	103.046	20.105	1.760	0.528
946.500	552.877	80.002	19.994	103.050	20.103	1.933	0.536
947.000	553.101	80.001	19.995	103.051	20.105	1.776	0.507
947.500	553.403	80.002	19.995	103.053	20.104	1.845	0.506
948.000	553.655	80.002	19.994	103.058	20.102	1.948	0.540
948.500	553.885	80.002	19.995	103.061	20.103	1.937	0.518
949.000	554.124	80.001	19.995	103.065	20.104	1.841	0.476
949.500	554.413	80.001	19.995	103.068	20.106	1.716	0.499
950.000	554.632	80.001	19.995	103.071	20.103	1.926	0.518
950.500	554.912	80.001	19.996	103.073	20.105	1.778	0.504
951.000	555.207	80.002	19.995	103.073	20.106	1.712	0.537
951.500	555.440	80.000	19.995	103.073	20.105	1.779	0.551
952.000	555.670	80.002	19.994	103.077	20.104	1.843	0.495
952.500	555.966	80.002	19.995	103.079	20.106	1.723	0.495
953.000	556.200	80.001	19.995	103.078	20.104	1.814	0.529
953.500	556.465	80.001	19.995	103.076	20.105	1.764	0.515
954.000	556.700	80.002	19.995	103.076	20.110	1.414	0.499
954.500	556.957	80.001	19.995	103.074	20.107	1.635	0.495
955.000	557.200	80.000	19.994	103.071	20.106	1.732	0.496
955.500	557.495	80.001	19.994	103.072	20.103	1.920	0.519
956.000	557.756	80.000	19.995	103.069	20.103	1.883	0.547
956.500	558.016	80.001	19.994	103.064	20.102	2.003	0.539
957.000	558.282	80.001	19.995	103.060	20.102	1.987	0.524
957.500	558.510	80.002	19.995	103.058	20.103	1.872	0.510
958.000	558.773	80.001	19.994	103.059	20.104	1.836	0.493
958.500	559.050	80.001	19.994	103.063	20.102	1.998	0.516
959.000	559.312	80.001	19.994	103.067	20.099	2.184	0.539
959.500	559.524	80.002	19.996	103.074	20.104	1.858	0.506
960.000	559.795	80.000	19.996	103.075	20.102	1.996	0.478
960.500	560.051	80.001	19.996	103.071	20.102	1.980	0.505
961.000	560.296	79.999	19.995	103.071	20.101	2.007	0.514
961.500	560.554	80.002	19.996	103.072	20.102	1.957	0.502
962.000	560.804	80.001	19.995	103.071	20.104	1.862	0.506
962.500	561.025	80.001	19.996	103.073	20.102	1.952	0.489
963.000	561.311	80.001	19.995	103.073	20.103	1.874	0.488
963.500	561.572	80.001	19.996	103.072	20.104	1.856	0.527
964.000	561.848	80.002	19.995	103.072	20.104	1.869	0.542
964.500	562.094	80.001	19.995	103.072	20.103	1.889	0.530
965.000	562.323	80.001	19.995	103.074	20.102	1.976	0.499
965.500	562.625	80.002	19.995	103.077	20.102	1.944	0.503
966.000	562.900	80.003	19.994	103.076	20.104	1.854	0.554
966.500	563.127	80.002	19.995	103.070	20.105	1.747	0.540
967.000	563.366	80.001	19.995	103.067	20.105	1.769	0.484
967.500	563.646	80.001	19.995	103.067	20.108	1.565	0.492
968.000	563.875	80.001	19.995	103.067	20.104	1.815	0.513
968.500	564.092	80.001	19.995	103.069	20.106	1.725	0.478
969.000	564.364	80.001	19.994	103.075	20.107	1.629	0.468
969.500	564.630	80.002	19.994	103.077	20.108	1.591	0.514
970.000	564.876	80.002	19.994	103.078	20.110	1.423	0.525
970.500	565.145	80.000	19.994	103.077	20.108	1.581	0.513
971.000	565.397	80.002	19.994	103.078	20.104	1.851	0.518
971.500	565.621	80.002	19.994	103.079	20.103	1.876	0.498
972.000	565.895	80.002	19.994	103.080	20.105	1.764	0.488
972.500	566.148	80.003	19.994	103.081	20.105	1.775	0.513
973.000	566.424	80.003	19.994	103.081	20.105	1.780	0.527
973.500	566.644	80.004	19.995	103.079	20.108	1.591	0.513
974.000	566.890	80.002	19.994	103.073	20.106	1.718	0.482
974.500	567.151	80.003	19.994	103.071	20.107	1.661	0.486
975.000	567.423	80.003	19.994	103.070	20.106	1.679	0.519
975.500	567.629	80.003	19.994	103.064	20.107	1.603	0.506
976.000	567.908	80.004	19.995	103.067	20.102	1.944	0.482
976.500	568.183	80.004	19.993	103.071	20.107	1.664	0.519
977.000	568.412	80.003	19.995	103.071	20.106	1.712	0.529
977.501	568.705	80.004	19.995	103.072	20.107	1.664	0.513
978.000	568.956	80.004	19.995	103.076	20.104	1.821	0.533
978.500	569.182	80.001	19.994	103.073	20.105	1.795	0.511
979.000	569.434	80.002	19.994	103.073	20.106	1.721	0.478
979.500	569.730	80.003	19.995	103.075	20.106	1.701	0.513
980.000	569.985	80.002	19.994	103.076	20.103	1.933	0.549
980.500	570.230	80.002	19.995	103.077	20.104	1.854	0.526
981.000	570.466	80.001	19.994	103.080	20.106	1.736	0.491
981.500	570.738	80.003	19.995	103.080	20.106	1.694	0.494
982.000	571.002	80.003	19.994	103.081	20.109	1.506	0.522
982.500	571.246	80.003	19.994	103.081	20.107	1.646	0.522
983.000	571.550	80.002	19.995	103.080	20.101	2.031	0.529
983.500	571.794	80.002	19.994	103.080	20.104	1.845	0.548
984.000	572.064	80.002	19.995	103.080	20.106	1.732	0.530
984.500	572.283	80.002	19.995	103.079	20.105	1.740	0.501
985.000	572.551	80.002	19.995	103.079	20.106	1.736	0.488
985.500	572.810	80.003	19.995	103.078	20.104	1.858	0.508
986.000	573.078	80.002	19.995	103.077	20.106	1.699	0.527
986.500	573.338	80.001	19.995	103.077	20.106	1.672	0.527
987.000	573.589	80.001	19.994	103.074	20.109	1.508	0.520
987.500	573.861	80.001	19.995	103.072	20.105	1.790	0.517
988.000	574.136	80.002	19.996	103.073	20.110	1.438	0.535
988.500	574.376	80.001	19.996	103.074	20.110	1.445	0.530
989.000	574.648	80.002	19.995	103.073	20.106	1.708	0.514
989.500	574.901	80.002	19.995	103.072	20.104	1.871	0.519
990.000	575.191	80.001	19.995	103.071	20.109	1.515	0.534
990.500	575.430	80.003	19.995	103.070	20.105	1.745	0.536
991.000	575.723	80.000	19.996	103.069	20.104	1.812	0.531
991.500	575.967	80.002	19.996	103.070	20.105	1.758	0.534
992.000	576.204	80.001	19.994	103.074	20.105	1.751	0.509
992.500	576.466	80.002	19.994	103.074	20.107	1.642	0.490
993.000	576.734	80.002	19.995	103.069	20.108	1.559	0.514
993.500	577.011	80.003	19.995	103.065	20.105	1.754	0.537
994.000	577.242	80.001	19.995	103.059	20.109	1.533	0.526
994.500	577.482	80.002	19.993	103.056	20.110	1.404	0.490
995.000	577.766	80.002	19.994	103.058	20.108	1.577	0.497
995.500	578.013	80.001	19.994	103.063	20.104	1.846	0.528
996.000	578.287	80.003	19.994	103.067	20.105	1.780	0.527
996.500	578.562	80.003	19.994	103.071	20.106	1.680	0.535
997.000	578.806	80.001	19.994	103.074	20.108	1.562	0.534
997.500	579.040	80.002	19.995	103.073	20.108	1.544	0.498
998.000	579.313	80.004	19.994	103.072	20.107	1.662	0.493
998.500	579.523	80.002	19.995	103.070	20.110	1.455	0.495
999.000	579.808	80.003	19.994	103.072	20.107	1.623	0.489
999.500	580.088	80.002	19.994	103.073	20.108	1.555	0.530
1000.000	580.325	80.003	19.994	103.072	20.108	1.585	0.541
1000.500	580.582	80.003	19.994	103.072	20.110	1.428	0.505
1001.000	580.845	80.004	19.995	103.074	20.106	1.696	0.507
1001.500	581.081	80.004	19.993	103.071	20.110	1.406	0.510
1002.000	581.329	80.004	19.994	103.067	20.111	1.336	0.491
1002.500	581.644	80.003	19.994	103.067	20.107	1.647	0.523
1003.000	581.851	80.004	19.995	103.066	20.107	1.647	0.543
1003.500	582.147	80.005	19.994	103.061	20.107	1.660	0.512
1004.000	582.392	80.004	19.994	103.057	20.106	1.682	0.522
1004.500	582.648	80.004	19.993	103.055	20.107	1.612	0.521
1005.000	582.902	80.003	19.994	103.053	20.106	1.673	0.506
1005.500	583.152	80.003	19.994	103.046	20.106	1.719	0.507
1006.000	583.410	80.004	19.994	103.045	20.102	1.940	0.506
1006.500	583.640	80.003	19.994	103.046	20.106	1.715	0.498
1007.000	583.917	80.003	19.994	103.045	20.107	1.644	0.498
1007.501	584.210	80.003	19.996	103.041	20.104	1.843	0.538
1008.000	584.447	80.003	19.995	103.041	20.107	1.664	0.550
1008.500	584.694	80.002	19.994	103.041	20.104	1.846	0.507
1009.000	584.954	80.001	19.994	103.038	20.108	1.596	0.496
1009.500	585.209	80.000	19.995	103.039	20.106	1.673	0.511
1010.000	585.471	80.001	19.996	103.045	20.108	1.557	0.516
1010.500	585.750	80.000	19.997	103.051	20.106	1.710	0.529
1011.000	585.986	80.001	19.995	103.058	20.108	1.598	0.528
1011.500	586.252	80.001	19.996	103.065	20.105	1.745	0.508
1012.000	586.474	80.001	19.996	103.071	20.105	1.758	0.495
1012.500	586.752	80.000	19.995	103.070	20.107	1.655	0.494
1013.000	587.033	80.001	19.995	103.065	20.105	1.752	0.529
1013.500	587.253	80.001	19.995	103.062	20.106	1.736	0.530
1014.000	587.519	80.002	19.995	103.060	20.109	1.526	0.494
1014.500	587.767	80.000	19.995	103.058	20.110	1.463	0.500
1015.000	588.046	80.001	19.995	103.054	20.109	1.522	0.520
1015.500	588.277	80.000	19.995	103.053	20.106	1.690	0.518
1016.000	588.575	79.999	19.996	103.051	20.107	1.668	0.520
1016.500	588.774	80.001	19.995	103.046	20.108	1.579	0.513
1017.000	589.050	80.002	19.995	103.045	20.107	1.649	0.486
1017.500	589.297	80.001	19.996	103.045	20.105	1.799	0.500
1018.000	589.566	80.002	19.996	103.047	20.108	1.587	0.520
1018.500	589.804	80.000	19.997	103.051	20.106	1.725	0.511
1019.000	590.060	80.001	19.995	103.052	20.107	1.622	0.501
1019.500	590.330	80.001	19.996	103.054	20.108	1.566	0.510
1020.000	590.602	80.001	19.996	103.054	20.104	1.806	0.534
1020.500	590.838	79.999	19.996	103.058	20.106	1.736	0.525
1021.000	591.094	80.001	19.995	103.057	20.107	1.668	0.500
1021.500	591.358	80.000	19.995	103.057	20.106	1.723	0.506
1022.000	591.646	80.001	19.997	103.052	20.105	1.740	0.536
1022.500	591.898	80.001	19.996	103.051	20.108	1.543	0.546
1023.000	592.149	80.001	19.995	103.047	20.106	1.729	0.522
1023.500	592.411	80.001	19.995	103.045	20.108	1.559	0.508
1024.000	592.684	80.002	19.995	103.047	20.108	1.566	0.524
1024.500	592.946	80.001	19.995	103.054	20.106	1.694	0.535
1025.000	593.208	80.002	19.996	103.059	20.108	1.550	0.530
1025.500	593.449	80.001	19.995	103.065	20.108	1.553	0.514
1026.000	593.693	80.001	19.997	103.072	20.108	1.572	0.494
1026.500	593.976	80.001	19.996	103.074	20.107	1.611	0.506
1027.000	594.240	80.003	19.996	103.075	20.109	1.473	0.537
1027.500	594.536	80.002	19.995	103.075	20.110	1.462	0.554
1028.000	594.796	80.002	19.995	103.071	20.109	1.517	0.558
1028.500	595.040	80.003	19.995	103.069	20.110	1.443	0.530
1029.000	595.323	80.001	19.994	103.068	20.109	1.534	0.516
1029.500	595.576	80.003	19.994	103.066	20.112	1.314	0.532
1030.000	595.842	80.002	19.995	103.065	20.109	1.482	0.528
1030.501	596.062	80.002	19.995	103.067	20.110	1.465	0.502
1031.001	596.332	80.003	19.994	103.069	20.112	1.318	0.487
1031.500	596.590	80.003	19.995	103.070	20.110	1.434	0.509
1032.000	596.846	80.002	19.994	103.072	20.110	1.421	0.522
1032.501	597.080	80.001	19.995	103.072	20.111	1.391	0.502
1033.001	597.328	80.002	19.995	103.072	20.113	1.214	0.486
1033.501	597.617	80.002	19.995	103.069	20.109	1.485	0.509
1034.001	597.865	80.001	19.995	103.069	20.110	1.448	0.537
1034.500	598.110	80.001	19.994	103.068	20.111	1.336	0.515
1035.000	598.398	80.001	19.994	103.066	20.109	1.522	0.513
1035.500	598.670	80.001	19.995	103.064	20.107	1.658	0.547
1036.001	598.892	80.002	19.995	103.061	20.110	1.421	0.527
1036.501	599.121	80.001	19.995	103.062	20.109	1.531	0.473
1037.000	599.398	80.001	19.994	103.064	20.108	1.587	0.478
1037.500	599.636	80.002	19.995	103.067	20.112	1.307	0.510
1038.000	599.936	80.001	19.995	103.071	20.110	1.423	0.527
1038.500	600.200	80.001	19.995	103.078	20.107	1.635	0.551
1039.000	600.431	80.001	19.994	103.079	20.107	1.642	0.529
1039.500	600.684	80.001	19.994	103.080	20.109	1.480	0.489
1040.000	600.980	80.000	19.994	103.081	20.110	1.452	0.516
1040.501	601.201	80.000	19.994	103.079	20.112	1.327	0.533
1041.001	601.504	80.000	19.995	103.077	20.109	1.522	0.521
1041.500	601.728	80.002	19.995	103.076	20.109	1.475	0.526
1042.000	602.005	80.002	19.995	103.074	20.109	1.522	0.514
1042.500	602.211	80.002	19.994	103.073	20.109	1.509	0.492
1043.000	602.521	80.001	19.995	103.071	20.108	1.544	0.499
1043.500	602.811	80.001	19.996	103.073	20.108	1.590	0.558
1044.000	603.039	79.999	19.994	103.067	20.110	1.401	0.559
1044.500	603.281	80.000	19.995	103.064	20.109	1.474	0.494
1045.001	603.536	80.001	19.995	103.059	20.111	1.338	0.483
1045.501	603.785	80.001	19.995	103.058	20.113	1.237	0.500
1046.000	604.053	80.001	19.994	103.054	20.112	1.296	0.511
1046.500	604.321	80.001	19.996	103.053	20.110	1.425	0.527
1047.000	604.554	80.000	19.996	103.053	20.111	1.373	0.518
1047.500	604.808	80.001	19.995	103.054	20.112	1.309	0.494
1048.000	605.078	80.001	19.995	103.055	20.110	1.465	0.505
1048.500	605.294	80.000	19.995	103.060	20.111	1.347	0.505
1049.000	605.532	80.002	19.995	103.066	20.113	1.259	0.470
1049.501	605.804	80.001	19.995	103.072	20.111	1.395	0.482
1050.001	606.058	80.001	19.995	103.077	20.112	1.286	0.518
1050.500	606.296	80.002	19.995	103.080	20.113	1.203	0.509
1051.000	606.567	80.002	19.995	103.080	20.110	1.406	0.500
1051.500	606.824	80.002	19.994	103.080	20.110	1.459	0.518
1052.001	607.090	80.003	19.994	103.080	20.109	1.507	0.525
1052.501	607.273	80.001	19.994	103.080	20.108	1.600	0.486
1053.000	607.568	80.002	19.995	103.079	20.107	1.623	0.464
1053.500	607.845	80.001	19.995	103.073	20.107	1.631	0.525
1054.001	608.094	80.003	19.995	103.067	20.106	1.714	0.549
1054.501	608.356	80.002	19.995	103.062	20.108	1.572	0.518
1055.001	608.610	80.002	19.995	103.059	20.108	1.557	0.513
1055.501	608.867	80.003	19.994	103.057	20.110	1.456	0.513
1056.000	609.106	80.003	19.994	103.062	20.108	1.555	0.504
1056.500	609.341	80.003	19.996	103.068	20.110	1.419	0.486
1057.000	609.597	80.003	19.994	103.071	20.107	1.618	0.483
1057.500	609.874	80.002	19.995	103.074	20.111	1.351	0.512
1058.000	610.098	80.003	19.994	103.077	20.109	1.500	0.517
1058.500	610.388	80.003	19.995	103.078	20.110	1.428	0.507
1059.000	610.619	80.005	19.994	103.072	20.108	1.576	0.518
1059.500	610.914	80.003	19.994	103.067	20.108	1.535	0.524
1060.000	611.153	80.003	19.995	103.061	20.109	1.517	0.530
1060.500	611.408	80.003	19.994	103.056	20.112	1.332	0.514
1061.000	611.634	80.003	19.995	103.050	20.110	1.426	0.487
1061.500	611.900	80.002	19.995	103.053	20.107	1.609	0.486
1062.000	612.145	80.004	19.994	103.056	20.108	1.565	0.501
1062.500	612.392	80.004	19.994	103.061	20.110	1.441	0.502
1063.001	612.704	80.001	19.993	103.064	20.109	1.522	0.526
1063.501	612.917	80.003	19.994	103.064	20.109	1.520	0.542
1064.000	613.209	80.002	19.994	103.060	20.109	1.502	0.515
1064.500	613.439	80.003	19.994	103.061	20.108	1.552	0.513
1065.000	613.690	80.004	19.995	103.061	20.111	1.393	0.501
1065.500	613.940	80.002	19.995	103.057	20.107	1.644	0.491
1066.000	614.186	80.002	19.995	103.062	20.109	1.504	0.499
1066.500	614.417	80.003	19.994	103.067	20.108	1.579	0.486
1067.001	614.662	80.002	19.994	103.064	20.108	1.561	0.476
1067.501	614.967	80.004	19.994	103.062	20.110	1.450	0.513
1068.000	615.199	80.003	19.994	103.064	20.111	1.336	0.544
1068.500	615.494	80.003	19.995	103.065	20.110	1.450	0.532
1069.000	615.727	80.004	19.995	103.066	20.108	1.555	0.527
1069.500	616.007	80.003	19.994	103.068	20.108	1.561	0.521
1070.000	616.268	80.003	19.994	103.069	20.111	1.388	0.527
1070.500	616.480	80.003	19.995	103.065	20.110	1.465	0.507
1071.000	616.749	80.003	19.996	103.059	20.108	1.583	0.477
1071.500	617.011	80.004	19.994	103.057	20.108	1.548	0.506
1072.000	617.275	80.003	19.996	103.061	20.106	1.694	0.528
1072.501	617.511	80.003	19.994	103.062	20.110	1.414	0.513
1073.001	617.767	80.004	19.994	103.069	20.106	1.712	0.497
1073.500	618.043	80.003	19.995	103.073	20.107	1.648	0.512
1074.000	618.330	80.003	19.995	103.075	20.110	1.452	0.547
1074.500	618.543	80.003	19.995	103.069	20.109	1.522	0.531
1075.000	618.815	80.004	19.995	103.067	20.107	1.655	0.492
1075.501	619.073	80.004	19.995	103.059	20.106	1.690	0.507
1076.001	619.315	80.004	19.994	103.055	20.109	1.517	0.516
1076.500	619.581	80.004	19.995	103.054	20.106	1.699	0.504
1077.000	619.837	80.003	19.996	103.056	20.107	1.629	0.515
1077.500	620.090	80.003	19.994	103.057	20.106	1.706	0.515
1078.000	620.305	80.005	19.995	103.057	20.106	1.734	0.488
1078.500	620.591	80.004	19.994	103.055	20.109	1.494	0.485
1079.000	620.830	80.004	19.996	103.054	20.108	1.584	0.513
1079.501	621.081	80.004	19.996	103.055	20.107	1.623	0.507
1080.001	621.343	80.004	19.995	103.056	20.110	1.443	0.502
1080.500	621.626	80.005	19.995	103.061	20.109	1.522	0.529
1081.000	621.843	80.003	19.994	103.069	20.107	1.656	0.522
1081.501	622.084	80.003	19.995	103.069	20.107	1.667	0.479
1082.001	622.378	80.003	19.995	103.071	20.105	1.756	0.496
1082.501	622.629	80.004	19.995	103.069	20.109	1.474	0.540
1083.001	622.881	80.004	19.995	103.069	20.107	1.611	0.524
1083.501	623.103	80.005	19.995	103.068	20.104	1.822	0.488
1084.000	623.392	80.005	19.995	103.067	20.107	1.642	0.493
1084.500	623.652	80.003	19.994	103.065	20.106	1.693	0.530
1085.001	623.866	80.004	19.995	103.064	20.105	1.754	0.511
1085.501	624.105	80.005	19.995	103.062	20.104	1.819	0.463
1086.001	624.375	80.003	19.995	103.058	20.107	1.640	0.481
1086.501	624.663	80.003	19.995	103.060	20.105	1.773	0.533
1087.000	624.887	80.004	19.995	103.060	20.107	1.638	0.535
1087.500	625.114	80.003	19.996	103.059	20.107	1.666	0.481
1088.000	625.406	80.004	19.995	103.054	20.108	1.572	0.485
1088.500	625.609	80.003	19.996	103.052	20.106	1.675	0.507
1089.000	625.881	80.003	19.996	103.046	20.108	1.568	0.485
1089.500	626.143	80.002	19.995	103.040	20.107	1.625	0.505
1090.000	626.401	80.002	19.996	103.038	20.108	1.590	0.527
1090.500	626.675	80.003	19.995	103.038	20.107	1.655	0.526
1091.001	626.916	80.001	19.996	103.038	20.107	1.629	0.523
1091.501	627.138	80.002	19.995	103.037	20.108	1.555	0.489
1092.000	627.397	80.001	19.995	103.041	20.109	1.504	0.472
1092.500	627.673	80.002	19.995	103.043	20.106	1.695	0.508
1093.000	627.896	80.002	19.996	103.050	20.105	1.738	0.517
1093.501	628.163	80.001	19.994	103.053	20.104	1.808	0.495
1094.001	628.430	80.001	19.997	103.055	20.106	1.686	0.512
1094.500	628.709	80.002	19.994	103.055	20.109	1.509	0.540
1095.000	628.953	80.003	19.995	103.053	20.107	1.668	0.535
1095.501	629.192	80.003	19.994	103.047	20.107	1.626	0.503
1096.001	629.419	80.002	19.995	103.043	20.107	1.651	0.475
1096.500	629.671	80.004	19.995	103.043	20.109	1.509	0.473
1097.000	629.940	80.001	19.995	103.043	20.108	1.545	0.500
1097.500	630.205	80.002	19.995	103.045	20.106	1.734	0.527
1098.000	630.440	80.001	19.994	103.046	20.107	1.651	0.517
1098.500	630.685	80.000	19.995	103.049	20.107	1.663	0.489
1099.000	630.928	80.000	19.994	103.052	20.106	1.733	0.484
1099.500	631.195	80.002	19.995	103.054	20.106	1.670	0.500
1100.000	631.469	80.001	19.995	103.055	20.104	1.808	0.525
1100.500	631.706	80.001	19.996	103.058	20.107	1.605	0.525
1101.000	631.984	80.001	19.995	103.060	20.105	1.773	0.513
1101.500	632.238	80.000	19.996	103.063	20.105	1.769	0.524
1102.000	632.470	80.001	19.995	103.061	20.108	1.583	0.509
1102.500	632.714	80.001	19.996	103.058	20.111	1.388	0.481
1103.000	632.972	80.001	19.996	103.058	20.108	1.535	0.489
1103.500	633.255	80.001	19.995	103.057	20.108	1.563	0.522
1104.001	633.530	80.000	19.995	103.057	20.110	1.441	0.550
1104.501	633.739	80.000	19.995	103.061	20.111	1.364	0.521
1105.001	634.017	80.001	19.995	103.068	20.109	1.502	0.486
1105.500	634.287	80.000	19.996	103.072	20.103	1.906	0.517
1106.001	634.555	80.000	19.995	103.076	20.108	1.546	0.543
1106.501	634.814	80.001	19.995	103.076	20.111	1.371	0.532
1107.001	635.041	80.000	19.995	103.076	20.113	1.244	0.506
1107.501	635.280	80.000	19.995	103.076	20.106	1.677	0.476
1108.000	635.557	79.999	19.995	103.078	20.108	1.535	0.491
1108.500	635.813	80.001	19.995	103.080	20.108	1.535	0.524
1109.000	636.096	80.001	19.995	103.082	20.112	1.286	0.536
1109.500	636.373	80.001	19.995	103.081	20.110	1.425	0.550
1110.000	636.629	80.001	19.995	103.081	20.112	1.316	0.547
1110.500	636.836	79.999	19.996	103.080	20.110	1.428	0.498
1111.000	637.112	80.001	19.995	103.079	20.110	1.441	0.473
1111.500	637.400	80.000	19.996	103.078	20.113	1.211	0.523
1112.000	637.656	80.000	19.995	103.078	20.110	1.401	0.554
1112.500	637.901	80.002	19.994	103.076	20.111	1.384	0.522
1113.000	638.192	80.002	19.994	103.069	20.111	1.342	0.518
1113.500	638.422	80.001	19.996	103.065	20.111	1.379	0.528
1114.000	638.676	80.001	19.995	103.061	20.109	1.495	0.502
1114.500	638.887	80.002	19.996	103.060	20.107	1.613	0.474
1115.001	639.169	80.001	19.996	103.062	20.110	1.452	0.479
1115.501	639.444	80.001	19.996	103.067	20.111	1.353	0.526
1116.000	639.749	80.002	19.995	103.067	20.109	1.489	0.569
1116.500	639.995	80.000	19.995	103.068	20.111	1.397	0.565
1117.000	640.249	80.000	19.996	103.062	20.110	1.430	0.526
1117.500	640.499	80.001	19.995	103.055	20.111	1.357	0.502
1118.000	640.730	80.000	19.995	103.049	20.110	1.436	0.492
1118.500	641.008	80.001	19.996	103.051	20.109	1.497	0.495
1119.000	641.254	79.999	19.995	103.052	20.110	1.456	0.517
1119.500	641.536	80.001	19.996	103.059	20.109	1.508	0.526
1120.000	641.781	80.000	19.995	103.068	20.109	1.502	0.528
1120.501	642.033	80.000	19.996	103.075	20.111	1.399	0.512
1121.001	642.306	80.001	19.995	103.077	20.107	1.611	0.511
1121.501	642.555	80.001	19.996	103.080	20.109	1.515	0.524
1122.001	642.825	80.001	19.994	103.079	20.112	1.330	0.521
1122.501	643.071	79.999	19.994	103.077	20.110	1.406	0.517
1123.001	643.308	80.000	19.995	103.077	20.109	1.516	0.499
1123.501	643.596	80.000	19.994	103.074	20.111	1.374	0.504
1124.000	643.856	80.001	19.994	103.073	20.111	1.349	0.537
1124.500	644.133	80.000	19.994	103.074	20.111	1.341	0.542
1125.000	644.376	80.001	19.995	103.076	20.109	1.481	0.529
1125.500	644.625	80.000	19.995	103.076	20.110	1.408	0.506
1126.000	644.871	80.000	19.995	103.081	20.111	1.365	0.493
1126.501	645.116	80.001	19.994	103.082	20.112	1.306	0.493
1127.001	645.370	80.000	19.994	103.083	20.112	1.312	0.495
1127.501	645.639	80.000	19.995	103.083	20.112	1.281	0.511
1128.001	645.893	80.001	19.994	103.082	20.107	1.627	0.523
1128.500	646.171	80.001	19.994	103.081	20.110	1.413	0.527
1129.000	646.442	80.000	19.994	103.081	20.109	1.524	0.540
1129.500	646.679	80.001	19.994	103.081	20.108	1.539	0.529
1130.000	646.923	80.000	19.996	103.077	20.109	1.504	0.495
1130.500	647.198	80.002	19.994	103.075	20.109	1.533	0.500
1131.000	647.476	80.001	19.994	103.074	20.106	1.677	0.536
1131.500	647.699	80.001	19.995	103.068	20.104	1.841	0.527
1132.000	647.938	80.001	19.994	103.062	20.107	1.615	0.481
1132.501	648.191	80.002	19.995	103.057	20.112	1.292	0.477
1133.001	648.456	80.002	19.995	103.051	20.106	1.677	0.506
1133.500	648.740	80.002	19.995	103.042	20.110	1.441	0.533
1134.000	648.991	80.003	19.995	103.040	20.111	1.399	0.541
1134.500	649.240	80.001	19.995	103.042	20.108	1.581	0.517
1135.000	649.476	80.002	19.994	103.042	20.108	1.594	0.493
1135.501	649.741	80.002	19.995	103.043	20.106	1.719	0.493
1136.001	650.040	80.003	19.996	103.045	20.105	1.799	0.533
1136.500	650.273	80.002	19.995	103.044	20.109	1.480	0.548
1137.000	650.539	80.003	19.995	103.042	20.109	1.518	0.515
1137.500	650.790	80.002	19.994	103.045	20.108	1.598	0.508
1138.000	651.060	80.003	19.994	103.049	20.110	1.458	0.519
1138.500	651.325	80.004	19.995	103.047	20.108	1.553	0.528
1139.000	651.572	80.004	19.995	103.048	20.112	1.318	0.523
1139.500	651.849	80.003	19.994	103.051	20.110	1.428	0.518
1140.000	652.097	80.004	19.994	103.054	20.108	1.544	0.524
1140.500	652.352	80.003	19.996	103.058	20.108	1.543	0.514
1141.000	652.614	80.004	19.995	103.066	20.113	1.255	0.510
1141.501	652.871	80.003	19.994	103.073	20.108	1.544	0.518
1142.001	653.120	80.003	19.995	103.075	20.109	1.520	0.512
1142.501	653.373	80.003	19.994	103.076	20.111	1.377	0.504
1143.001	653.631	80.002	19.995	103.076	20.109	1.491	0.507
1143.500	653.889	80.003	19.995	103.076	20.110	1.448	0.513
1144.000	654.167	80.002	19.995	103.073	20.108	1.559	0.526
1144.500	654.440	80.002	19.994	103.070	20.110	1.402	0.544
1145.000	654.635	80.003	19.994	103.070	20.108	1.599	0.510
1145.500	654.975	80.003	19.994	103.069	20.110	1.456	0.502
1146.001	655.203	80.002	19.995	103.065	20.111	1.380	0.552
1146.501	655.487	80.002	19.994	103.067	20.110	1.443	0.540
1147.001	655.743	80.003	19.994	103.069	20.109	1.507	0.525
1147.500	655.987	80.003	19.994	103.067	20.110	1.441	0.520
1148.000	656.225	80.002	19.995	103.063	20.111	1.356	0.492
1148.500	656.500	80.004	19.995	103.060	20.111	1.397	0.498
1149.000	656.754	80.003	19.995	103.056	20.110	1.461	0.521
1149.500	657.079	80.003	19.993	103.053	20.113	1.251	0.554
1150.000	657.298	80.002	19.994	103.054	20.111	1.367	0.561
1150.500	657.544	80.002	19.995	103.061	20.112	1.308	0.504
1151.000	657.822	80.003	19.995	103.064	20.109	1.506	0.494
1151.500	658.040	80.003	19.994	103.069	20.108	1.583	0.510
1152.000	658.328	80.002	19.994	103.072	20.108	1.594	0.501
1152.501	658.586	80.003	19.994	103.067	20.111	1.397	0.526
1153.001	658.826	80.003	19.994	103.062	20.108	1.587	0.522
1153.500	659.093	80.004	19.995	103.059	20.108	1.590	0.503
1154.000	659.326	80.003	19.994	103.053	20.112	1.327	0.503
1154.500	659.615	80.004	19.994	103.047	20.108	1.596	0.511
1155.000	659.848	80.003	19.994	103.050	20.107	1.613	0.522
1155.500	660.094	80.004	19.995	103.052	20.109	1.478	0.501
1156.000	660.377	80.003	19.994	103.053	20.109	1.469	0.504
1156.501	660.631	80.003	19.994	103.058	20.109	1.532	0.533
1157.001	660.877	80.004	19.995	103.058	20.109	1.474	0.518
1157.501	661.142	80.004	19.994	103.054	20.110	1.465	0.506
1158.000	661.417	80.005	19.994	103.050	20.107	1.603	0.525
1158.501	661.665	80.005	19.993	103.047	20.107	1.627	0.531
1159.001	661.921	80.004	19.994	103.041	20.111	1.360	0.513
1159.500	662.165	80.005	19.994	103.039	20.109	1.484	0.502
1160.001	662.444	80.004	19.994	103.045	20.111	1.360	0.512
1160.501	662.685	80.005	19.994	103.052	20.110	1.419	0.521
1161.001	662.941	80.004	19.994	103.059	20.111	1.336	0.508
1161.500	663.180	80.005	19.994	103.061	20.110	1.454	0.496
1162.001	663.431	80.005	19.994	103.060	20.107	1.633	0.493
1162.501	663.753	80.005	19.994	103.054	20.110	1.422	0.531
1163.001	663.981	80.006	19.993	103.049	20.110	1.450	0.561
1163.501	664.215	80.006	19.994	103.045	20.108	1.585	0.506
1164.000	664.503	80.005	19.995	103.052	20.109	1.526	0.492
1164.500	664.718	80.005	19.994	103.059	20.111	1.358	0.512
1165.000	664.960	80.005	19.994	103.067	20.113	1.233	0.480
1165.500	665.202	80.006	19.994	103.073	20.111	1.358	0.471
1166.000	665.486	80.004	19.995	103.077	20.110	1.415	0.505
1166.501	665.718	80.005	19.994	103.077	20.111	1.358	0.521
1167.001	666.029	80.003	19.993	103.077	20.110	1.426	0.529
1167.501	666.285	80.005	19.995	103.078	20.113	1.223	0.555
1168.001	666.506	80.005	19.994	103.077	20.111	1.398	0.522
1168.500	666.731	80.002	19.994	103.077	20.108	1.535	0.462
1169.000	667.035	80.004	19.994	103.077	20.110	1.419	0.488
1169.500	667.308	80.004	19.993	103.078	20.109	1.533	0.553
1170.000	667.552	80.004	19.995	103.076	20.108	1.557	0.547
1170.500	667.802	80.005	19.994	103.073	20.109	1.494	0.506
1171.000	668.043	80.003	19.994	103.069	20.107	1.609	0.493
1171.500	668.313	80.003	19.994	103.063	20.107	1.638	0.501
1172.001	668.536	80.002	19.995	103.055	20.109	1.524	0.502
1172.501	668.799	80.000	19.994	103.049	20.108	1.546	0.490
1173.000	669.065	80.001	19.995	103.048	20.113	1.211	0.508
1173.501	669.296	80.002	19.995	103.047	20.109	1.491	0.513
1174.001	669.542	80.002	19.995	103.051	20.112	1.321	0.487
1174.501	669.826	80.001	19.995	103.059	20.110	1.401	0.503
1175.000	670.060	80.002	19.995	103.066	20.110	1.460	0.524
1175.500	670.306	80.001	19.995	103.071	20.112	1.329	0.499
1176.000	670.586	80.001	19.996	103.075	20.109	1.489	0.503
1176.500	670.834	80.001	19.995	103.077	20.110	1.419	0.527
1177.000	671.053	80.001	19.996	103.070	20.111	1.376	0.497
1177.500	671.310	80.001	19.996	103.062	20.111	1.352	0.471
1178.000	671.563	80.002	19.995	103.056	20.111	1.395	0.493
1178.500	671.852	80.000	19.996	103.051	20.112	1.293	0.526
1179.000	672.107	80.002	19.995	103.044	20.109	1.522	0.543
1179.500	672.326	79.999	19.995	103.046	20.110	1.426	0.509
1180.001	672.598	80.001	19.996	103.047	20.110	1.415	0.482
1180.501	672.824	80.001	19.995	103.047	20.112	1.266	0.494
1181.001	673.058	80.001	19.995	103.046	20.111	1.367	0.479
1181.500	673.352	80.002	19.995	103.046	20.111	1.397	0.494
1182.000	673.615	80.002	19.995	103.046	20.112	1.277	0.543
1182.500	673.806	80.001	19.995	103.051	20.111	1.391	0.505
1183.000	674.060	80.002	19.995	103.055	20.112	1.281	0.449
1183.500	674.324	80.000	19.995	103.057	20.113	1.227	0.482
1184.000	674.606	80.002	19.994	103.058	20.111	1.347	0.532
1184.500	674.841	80.002	19.994	103.058	20.109	1.513	0.531
1185.000	675.076	80.000	19.995	103.056	20.110	1.424	0.493
1185.500	675.356	80.001	19.994	103.059	20.111	1.382	0.493
1186.000	675.595	80.001	19.995	103.063	20.111	1.386	0.517
1186.500	675.843	80.002	19.995	103.062	20.110	1.450	0.503
1187.000	676.111	80.001	19.995	103.054	20.106	1.675	0.501
1187.500	676.365	80.001	19.995	103.045	20.109	1.489	0.519
1188.001	676.656	80.000	19.994	103.038	20.109	1.505	0.534
1188.501	676.873	80.000	19.995	103.033	20.109	1.483	0.527
1189.001	677.108	80.002	19.995	103.033	20.108	1.588	0.480
1189.501	677.379	80.000	19.996	103.037	20.109	1.507	0.479
1190.000	677.623	80.002	19.995	103.042	20.110	1.426	0.510
1190.500	677.862	80.001	19.994	103.043	20.110	1.461	0.499
1191.000	678.123	80.001	19.996	103.044	20.108	1.565	0.492
1191.500	678.395	80.001	19.995	103.044	20.109	1.491	0.517
1192.000	678.659	80.001	19.994	103.045	20.107	1.620	0.534
1192.500	678.799	80.001	19.995	103.046	20.108	1.563	0.470
1193.001	679.179	80.003	19.994	103.045	20.110	1.428	0.462
1193.501	679.396	80.001	19.995	103.044	20.108	1.585	0.559
1194.000	679.631	80.002	19.994	103.045	20.108	1.581	0.525
1194.500	679.910	80.002	19.995	103.045	20.109	1.519	0.483
1195.000	680.153	80.001	19.994	103.045	20.110	1.432	0.518
1195.500	680.415	80.002	19.995	103.044	20.106	1.714	0.513
1196.001	680.676	80.001	19.996	103.044	20.104	1.839	0.513
1196.501	680.883	80.001	19.994	103.044	20.111	1.362	0.495
1197.000	681.177	80.001	19.995	103.043	20.108	1.596	0.485
1197.500	681.395	80.001	19.996	103.043	20.109	1.515	0.507
1198.000	681.647	80.002	19.995	103.044	20.109	1.513	0.491
1198.500	681.915	80.000	19.995	103.046	20.112	1.306	0.495
1199.001	682.148	80.002	19.996	103.048	20.111	1.384	0.511
1199.501	682.403	79.999	19.996	103.048	20.113	1.249	0.495
1200.001	682.640	80.001	19.995	103.049	20.112	1.306	0.490
1200.500	682.910	79.999	19.996	103.048	20.114	1.196	0.499
1201.000	683.136	80.000	19.996	103.049	20.112	1.290	0.502
1201.500	683.426	80.001	19.995	103.052	20.111	1.395	0.506
1202.000	683.656	80.001	19.996	103.059	20.110	1.467	0.518
1202.501	683.908	80.000	19.996	103.065	20.112	1.293	0.501
1203.001	684.157	80.000	19.997	103.069	20.110	1.424	0.492
1203.501	684.419	80.001	19.996	103.070	20.112	1.312	0.506
1204.001	684.669	80.000	19.996	103.072	20.107	1.645	0.512
1204.501	684.928	80.000	19.996	103.071	20.109	1.480	0.511
1205.000	685.180	80.003	19.996	103.070	20.110	1.450	0.510
1205.500	685.425	80.001	19.997	103.069	20.109	1.504	0.504
1206.000	685.681	80.001	19.996	103.068	20.112	1.312	0.499
1206.500	685.941	80.000	19.996	103.062	20.110	1.415	0.508
1207.001	686.186	80.001	19.996	103.058	20.109	1.487	0.510
1207.501	686.420	80.000	19.996	103.055	20.112	1.268	0.492
1208.001	686.668	79.999	19.997	103.052	20.109	1.484	0.480
1208.500	686.957	80.001	19.997	103.049	20.109	1.491	0.509
1209.000	687.178	80.000	19.996	103.048	20.110	1.414	0.524
1209.500	687.420	80.000	19.997	103.048	20.113	1.250	0.487
1210.000	687.681	80.000	19.996	103.045	20.111	1.347	0.483
1210.500	687.949	80.000	19.996	103.045	20.110	1.406	0.516
1211.000	688.221	80.001	19.995	103.045	20.109	1.533	0.535
1211.501	688.496	80.000	19.995	103.044	20.111	1.384	0.544
1212.001	688.704	80.002	19.995	103.041	20.109	1.506	0.515
1212.500	688.957	80.001	19.996	103.040	20.111	1.354	0.472
1213.000	689.231	80.002	19.996	103.039	20.108	1.566	0.494
1213.501	689.497	80.002	19.995	103.035	20.110	1.463	0.533
1214.001	689.733	80.002	19.995	103.035	20.110	1.443	0.521
1214.501	690.004	80.002	19.996	103.038	20.110	1.404	0.505
1215.001	690.222	80.001	19.995	103.039	20.112	1.304	0.498
1215.500	690.489	80.004	19.996	103.046	20.110	1.420	0.487
1216.000	690.759	80.004	19.994	103.057	20.112	1.299	0.511
1216.500	691.008	80.003	19.995	103.061	20.112	1.327	0.528
1217.000	691.258	80.003	19.995	103.066	20.110	1.467	0.509
1217.500	691.493	80.003	19.996	103.072	20.111	1.380	0.492
1218.001	691.751	80.004	19.995	103.074	20.113	1.251	0.489
1218.501	692.008	80.003	19.994	103.073	20.116	1.035	0.504
1219.001	692.248	80.003	19.994	103.077	20.113	1.238	0.506
1219.501	692.519	80.004	19.995	103.078	20.112	1.297	0.504
1220.000	692.767	80.004	19.995	103.074	20.111	1.354	0.515
1220.500	693.037	80.004	19.994	103.075	20.110	1.430	0.518
1221.000	693.245	80.004	19.994	103.076	20.109	1.500	0.498
1221.500	693.535	80.005	19.995	103.075	20.110	1.422	0.488
1222.000	693.756	80.004	19.996	103.075	20.112	1.303	0.504
1222.500	694.025	80.004	19.994	103.077	20.112	1.319	0.500
1223.001	694.307	80.004	19.994	103.071	20.110	1.400	0.520
1223.501	694.525	80.003	19.995	103.062	20.109	1.476	0.525
1224.001	694.823	80.004	19.994	103.055	20.110	1.428	0.508
1224.500	695.049	80.004	19.994	103.047	20.110	1.435	0.520
1225.000	695.313	80.003	19.996	103.041	20.110	1.448	0.507
1225.500	695.561	80.002	19.995	103.039	20.109	1.483	0.501
1226.000	695.815	80.003	19.995	103.039	20.112	1.299	0.507
1226.500	696.074	80.004	19.995	103.039	20.110	1.435	0.507
1227.000	696.304	80.003	19.995	103.040	20.111	1.369	0.501
1227.500	696.579	80.003	19.995	103.040	20.110	1.410	0.497
1228.000	696.851	80.003	19.995	103.039	20.108	1.565	0.526
1228.500	697.085	80.003	19.994	103.039	20.108	1.566	0.527
1229.000	697.367	80.002	19.995	103.039	20.111	1.375	0.511
1229.500	697.584	80.002	19.995	103.039	20.111	1.366	0.507
1230.000	697.857	80.003	19.995	103.039	20.110	1.445	0.494
1230.500	698.116	80.003	19.994	103.040	20.112	1.331	0.511
1231.000	698.357	80.001	19.995	103.040	20.109	1.472	0.516
1231.500	698.608	80.003	19.995	103.040	20.107	1.646	0.496
1232.000	698.863	80.003	19.996	103.041	20.108	1.546	0.499
1232.500	699.115	80.001	19.994	103.041	20.108	1.542	0.507
1233.000	699.365	80.002	19.996	103.042	20.110	1.410	0.504
1233.500	699.636	80.003	19.993	103.042	20.109	1.491	0.511
1234.001	699.855	80.002	19.995	103.044	20.110	1.430	0.506
1234.501	700.112	80.002	19.995	103.050	20.107	1.609	0.483
1235.000	700.376	80.001	19.995	103.052	20.110	1.406	0.499
1235.500	700.640	80.003	19.995	103.053	20.108	1.588	0.525
1236.001	700.879	80.001	19.994	103.053	20.108	1.585	0.516
1236.501	701.147	80.003	19.994	103.051	20.109	1.489	0.505
1237.001	701.378	80.003	19.996	103.045	20.105	1.756	0.503
1237.500	701.642	80.003	19.995	103.042	20.110	1.415	0.497
1238.000	701.902	80.002	19.994	103.045	20.110	1.411	0.510
1238.500	702.151	80.003	19.994	103.052	20.112	1.303	0.516
1239.000	702.398	80.003	19.994	103.060	20.110	1.411	0.502
1239.500	702.654	80.002	19.995	103.065	20.115	1.117	0.500
1240.000	702.883	80.003	19.995	103.073	20.111	1.380	0.494
1240.500	703.177	80.004	19.996	103.077	20.113	1.251	0.504
1241.000	703.398	80.003	19.994	103.076	20.113	1.238	0.519
1241.500	703.653	80.005	19.995	103.071	20.107	1.603	0.495
1242.000	703.924	80.004	19.994	103.065	20.110	1.459	0.501
1242.500	704.185	80.005	19.995	103.058	20.109	1.529	0.529
1243.001	704.456	80.004	19.994	103.052	20.106	1.675	0.532
1243.501	704.723	80.005	19.995	103.046	20.111	1.336	0.535
1244.000	704.950	80.004	19.995	103.046	20.109	1.518	0.516
1244.500	705.210	80.004	19.995	103.046	20.110	1.441	0.491
1245.000	705.473	80.002	19.995	103.046	20.109	1.527	0.505
1245.500	705.706	80.005	19.993	103.044	20.112	1.316	0.510
1246.000	705.972	80.005	19.995	103.044	20.110	1.437	0.498
1246.501	706.221	80.005	19.994	103.044	20.110	1.445	0.507
1247.001	706.434	80.005	19.994	103.045	20.111	1.388	0.488
1247.500	706.705	80.006	19.994	103.045	20.111	1.341	0.473
1248.000	706.969	80.004	19.995	103.045	20.109	1.524	0.510
1248.500	707.228	80.004	19.993	103.044	20.112	1.327	0.529
1249.000	707.468	80.004	19.994	103.045	20.106	1.697	0.511
1249.500	707.742	80.003	19.994	103.049	20.108	1.570	0.506
1250.000	707.990	80.004	19.994	103.053	20.111	1.388	0.518
1250.501	708.261	80.004	19.994	103.055	20.109	1.480	0.521
1251.001	708.477	80.004	19.994	103.055	20.109	1.500	0.503
1251.500	708.733	80.004	19.995	103.049	20.112	1.331	0.479
1252.000	709.019	80.003	19.994	103.045	20.109	1.476	0.507
1252.500	709.245	80.003	19.994	103.043	20.113	1.257	0.527
1253.000	709.521	80.002	19.994	103.042	20.110	1.443	0.507
1253.501	709.758	80.003	19.994	103.042	20.111	1.373	0.507
1254.001	710.014	80.001	19.994	103.049	20.110	1.437	0.503
1254.500	710.265	80.003	19.995	103.048	20.109	1.472	0.500
1255.000	710.556	80.003	19.994	103.047	20.112	1.327	0.524
1255.500	710.795	80.001	19.995	103.047	20.109	1.491	0.536
1256.000	711.037	80.002	19.994	103.047	20.108	1.537	0.506
1256.500	711.286	80.002	19.994	103.044	20.111	1.349	0.486
1257.000	711.558	80.002	19.995	103.046	20.111	1.399	0.506
1257.500	711.790	80.001	19.995	103.051	20.108	1.599	0.512
1258.000	712.042	80.002	19.995	103.054	20.111	1.389	0.494
1258.500	712.306	80.001	19.994	103.055	20.110	1.433	0.500
1259.000	712.516	80.001	19.995	103.057	20.109	1.531	0.495
1259.501	712.806	80.001	19.996	103.055	20.106	1.717	0.487
1260.001	713.034	80.000	19.994	103.050	20.108	1.564	0.509
1260.501	713.326	80.000	19.995	103.048	20.108	1.573	0.519
1261.000	713.558	80.001	19.994	103.051	20.110	1.444	0.522
1261.501	713.785	80.000	19.995	103.057	20.109	1.531	0.492
1262.001	714.070	80.000	19.994	103.065	20.110	1.459	0.485
1262.500	714.317	80.002	19.994	103.073	20.109	1.507	0.522
1263.000	714.542	80.001	19.995	103.078	20.110	1.402	0.502
1263.501	714.854	80.002	19.995	103.074	20.109	1.531	0.505
1264.001	715.065	80.001	19.995	103.065	20.109	1.500	0.530
1264.500	715.338	80.000	19.995	103.057	20.108	1.555	0.503
1265.000	715.580	80.002	19.995	103.048	20.109	1.524	0.500
1265.501	715.836	80.002	19.995	103.039	20.108	1.551	0.507
1266.001	716.125	80.000	19.995	103.039	20.110	1.444	0.521
1266.500	716.376	80.001	19.994	103.043	20.111	1.351	0.543
1267.000	716.624	80.000	19.995	103.049	20.106	1.699	0.520
1267.500	716.920	80.002	19.994	103.051	20.108	1.579	0.521
1268.001	717.137	80.001	19.995	103.052	20.106	1.682	0.528
1268.501	717.387	80.002	19.995	103.053	20.109	1.476	0.490
1269.000	717.654	80.001	19.995	103.049	20.107	1.638	0.493
1269.501	717.869	80.001	19.996	103.044	20.110	1.463	0.500
1270.001	718.143	80.001	19.995	103.044	20.110	1.417	0.485
1270.501	718.404	80.002	19.996	103.044	20.108	1.563	0.512
1271.000	718.631	80.002	19.996	103.044	20.105	1.782	0.512
1271.500	718.877	80.002	19.996	103.044	20.108	1.555	0.481
1272.000	719.168	80.002	19.995	103.042	20.106	1.701	0.505
1272.500	719.391	80.002	19.996	103.039	20.104	1.804	0.525
1273.000	719.690	80.002	19.995	103.039	20.107	1.610	0.518
1273.501	719.931	80.002	19.995	103.039	20.105	1.752	0.531
1274.001	720.206	80.001	19.996	103.039	20.108	1.575	0.528
1274.500	720.414	80.002	19.995	103.039	20.108	1.559	0.500
1275.000	720.625	80.003	19.995	103.039	20.105	1.737	0.451
1275.500	720.926	80.002	19.995	103.037	20.107	1.605	0.465
1276.000	721.209	80.001	19.996	103.037	20.107	1.625	0.548
1276.500	721.447	80.002	19.995	103.037	20.108	1.570	0.553
1277.001	721.685	80.001	19.996	103.041	20.110	1.413	0.499
1277.501	721.942	80.001	19.995	103.046	20.109	1.515	0.486
1278.001	722.185	80.001	19.995	103.053	20.110	1.417	0.498
1278.500	722.446	80.001	19.996	103.053	20.110	1.428	0.502
1279.000	722.731	80.002	19.995	103.054	20.108	1.551	0.525
1279.501	722.955	80.003	19.995	103.058	20.109	1.483	0.527
1280.001	723.226	80.003	19.996	103.060	20.108	1.559	0.502
1280.500	723.478	80.003	19.995	103.060	20.110	1.411	0.509
1281.000	723.730	80.002	19.995	103.061	20.108	1.599	0.514
1281.500	723.982	80.002	19.995	103.059	20.107	1.658	0.504
1282.000	724.196	80.001	19.995	103.052	20.107	1.651	0.485
1282.500	724.501	80.002	19.996	103.044	20.106	1.710	0.493
1283.000	724.724	80.001	19.995	103.039	20.106	1.710	0.523
1283.500	724.983	80.000	19.994	103.040	20.110	1.447	0.505
1284.000	725.258	80.001	19.995	103.041	20.106	1.675	0.508
1284.500	725.466	80.002	19.996	103.042	20.108	1.562	0.509
1285.000	725.741	80.001	19.995	103.042	20.110	1.457	0.483
1285.501	725.965	80.001	19.995	103.043	20.105	1.783	0.491
1286.001	726.239	80.001	19.995	103.042	20.108	1.546	0.498
1286.501	726.495	80.002	19.996	103.043	20.106	1.732	0.513
1287.001	726.742	80.001	19.995	103.047	20.109	1.503	0.517
1287.500	727.015	80.003	19.995	103.048	20.107	1.620	0.512
1288.000	727.277	80.000	19.996	103.047	20.107	1.666	0.527
1288.500	727.528	80.001	19.997	103.045	20.109	1.481	0.524
1289.000	727.777	80.001	19.996	103.043	20.107	1.607	0.507
1289.500	728.036	80.001	19.995	103.039	20.108	1.583	0.504
1290.000	728.315	80.001	19.995	103.037	20.107	1.618	0.523
1290.501	728.550	80.000	19.995	103.037	20.102	1.999	0.526
1291.001	728.800	80.000	19.996	103.038	20.108	1.561	0.500
1291.500	729.062	80.001	19.995	103.038	20.105	1.793	0.499
1292.000	729.313	80.001	19.996	103.044	20.104	1.865	0.513
1292.500	729.558	80.001	19.995	103.051	20.107	1.660	0.505
1293.000	729.830	80.001	19.995	103.054	20.108	1.540	0.506
1293.500	730.075	80.000	19.996	103.058	20.106	1.708	0.517
1294.001	730.313	80.002	19.995	103.059	20.109	1.494	0.500
1294.501	730.589	80.001	19.996	103.054	20.105	1.785	0.499
1295.000	730.825	80.001	19.996	103.048	20.105	1.782	0.513
1295.500	731.106	80.001	19.996	103.045	20.102	1.977	0.514
1296.000	731.318	80.000	19.997	103.042	20.107	1.618	0.505
1296.501	731.575	80.001	19.996	103.041	20.108	1.551	0.481
1297.001	731.804	80.001	19.996	103.041	20.107	1.603	0.477
1297.501	732.090	80.001	19.995	103.041	20.107	1.666	0.500
1298.001	732.368	80.001	19.995	103.042	20.110	1.434	0.539
1298.501	732.593	80.003	19.995	103.041	20.107	1.605	0.533
1299.000	732.826	80.002	19.996	103.041	20.109	1.480	0.480
1299.500	733.087	80.002	19.996	103.041	20.113	1.227	0.476
1300.000	733.368	80.004	19.996	103.039	20.106	1.727	0.518
1300.501	733.607	80.003	19.996	103.039	20.111	1.391	0.531
1301.001	733.862	80.003	19.996	103.042	20.106	1.681	0.507
1301.500	734.142	80.004	19.996	103.043	20.109	1.524	0.515
1302.000	734.406	80.003	19.997	103.043	20.107	1.649	0.540
1302.500	734.633	80.003	19.996	103.043	20.109	1.529	0.517
1303.001	734.854	80.001	19.995	103.043	20.108	1.601	0.470
1303.501	735.152	80.003	19.995	103.041	20.108	1.568	0.484
1304.000	735.359	80.002	19.996	103.044	20.106	1.697	0.512
1304.500	735.605	80.002	19.995	103.045	20.106	1.706	0.479
1305.000	735.865	80.001	19.996	103.048	20.107	1.619	0.479
1305.500	736.131	80.002	19.995	103.048	20.109	1.509	0.516
1306.000	736.364	80.003	19.995	103.049	20.108	1.566	0.512
1306.500	736.640	80.002	19.995	103.045	20.110	1.459	0.504
1307.000	736.886	80.003	19.995	103.043	20.105	1.765	0.516
1307.500	737.131	80.003	19.995	103.042	20.107	1.647	0.507
1308.000	737.356	80.001	19.995	103.048	20.109	1.476	0.481
1308.500	737.650	80.004	19.995	103.055	20.106	1.726	0.494
1309.000	737.814	80.002	19.995	103.061	20.109	1.502	0.488
1309.500	738.075	80.002	19.995	103.068	20.109	1.503	0.442
1310.000	738.318	80.003	19.994	103.074	20.108	1.568	0.465
1310.500	738.641	80.002	19.994	103.070	20.109	1.522	0.535
1311.000	738.905	80.002	19.994	103.062	20.108	1.575	0.576
1311.500	739.133	80.003	19.996	103.057	20.106	1.736	0.539
1312.000	739.402	80.002	19.996	103.056	20.103	1.883	0.495
1312.500	739.668	80.003	19.995	103.054	20.109	1.529	0.516
1313.000	739.887	80.003	19.995	103.052	20.107	1.664	0.510
1313.500	740.198	80.002	19.995	103.053	20.106	1.708	0.508
1314.000	740.423	80.002	19.995	103.050	20.106	1.693	0.533
1314.500	740.682	80.002	19.995	103.042	20.107	1.647	0.510
1315.000	740.907	80.002	19.994	103.034	20.105	1.743	0.484
1315.500	741.199	80.002	19.995	103.032	20.110	1.452	0.500
1316.000	741.425	80.003	19.995	103.032	20.106	1.673	0.517
1316.500	741.652	80.003	19.994	103.034	20.108	1.559	0.486
1317.000	741.929	80.002	19.995	103.040	20.108	1.572	0.478
1317.500	742.163	80.003	19.995	103.045	20.104	1.809	0.507
1318.000	742.419	80.002	19.995	103.046	20.105	1.783	0.501
1318.501	742.660	80.003	19.995	103.047	20.108	1.597	0.494
1319.001	742.937	80.002	19.994	103.046	20.106	1.730	0.507
1319.500	743.200	80.003	19.995	103.043	20.107	1.645	0.529
1320.000	743.446	80.003	19.995	103.040	20.108	1.555	0.525
1320.500	743.692	80.005	19.993	103.043	20.105	1.745	0.501
