Sample ID:	C:\MCC\MCC Cal\Test\PlasticB_MCC_30K_min_211020_R1.txt
Sample Weight (mg):	4.55
Heating Rate (C/s):	0.5
Combustor Temp (C):	900
N2 Flow Rate (cc/min):	80
O2 Flow Rate (cc/min):	20
Calibration File:	C:\MCC\MCC Cal\Coeff1 JN10440_30_210304.txt.txt
T Correction Coefficients:	0	1.024463	0
Time Shift (s):	14
*
Time (s)	Temperature (C)	N2 flow rate (cc/min)	O2 flow rate (cc/min)	Flow Rate (cc/min)	Oxygen (%)	HRR (W/g)	Heating rate (C/s)
0.000	107.762	80.003	19.995	102.991	20.030	0.278	-0.017
0.500	107.789	80.001	19.995	102.991	20.030	0.278	0.001
1.000	107.783	80.000	19.995	102.990	20.033	0.069	0.022
1.500	107.759	80.000	19.994	102.990	20.033	0.100	-0.005
2.000	107.757	80.000	19.995	102.989	20.032	0.134	-0.028
2.500	107.722	80.000	19.995	102.988	20.034	-0.010	-0.031
3.000	107.758	80.001	19.995	102.988	20.035	-0.063	-0.018
3.500	107.742	80.000	19.996	102.989	20.032	0.172	0.011
4.000	107.721	80.000	19.996	102.989	20.034	0.019	-0.009
4.500	107.733	80.001	19.996	102.990	20.033	0.088	-0.024
5.000	107.720	80.001	19.995	102.990	20.030	0.261	-0.005
5.500	107.729	80.000	19.995	102.990	20.035	-0.036	-0.002
6.000	107.749	80.001	19.995	102.993	20.032	0.115	0.012
6.500	107.754	80.000	19.996	102.993	20.034	0.015	0.027
7.000	107.751	80.001	19.994	102.992	20.034	0.027	0.014
7.500	107.744	80.001	19.995	102.995	20.035	-0.071	-0.004
8.000	107.744	80.000	19.995	102.995	20.033	0.046	-0.009
8.500	107.770	80.001	19.997	102.993	20.034	-0.017	0.010
9.000	107.756	80.002	19.995	102.992	20.036	-0.159	0.019
9.500	107.721	80.001	19.995	102.991	20.034	-0.013	-0.019
10.000	107.723	80.001	19.994	102.988	20.032	0.151	-0.041
10.500	107.747	80.001	19.995	102.988	20.035	-0.054	-0.003
11.000	107.732	80.002	19.994	102.989	20.034	0.017	0.018
11.500	107.716	80.002	19.994	102.989	20.036	-0.169	-0.011
12.000	107.748	80.002	19.994	102.990	20.034	-0.008	-0.008
12.500	107.699	80.003	19.995	102.993	20.036	-0.138	-0.001
13.000	107.714	80.002	19.994	102.992	20.035	-0.061	-0.026
13.500	107.706	80.001	19.994	102.994	20.032	0.142	-0.013
14.000	107.713	80.001	19.994	102.994	20.033	0.071	0.003
14.500	107.694	80.001	19.995	102.994	20.033	0.059	-0.007
15.000	107.707	80.002	19.994	102.992	20.032	0.117	-0.009
15.500	107.705	80.002	19.995	102.994	20.034	-0.011	0.002
16.000	107.745	80.002	19.994	102.992	20.033	0.065	0.024
16.500	107.683	80.003	19.994	102.992	20.032	0.128	0.008
17.000	107.713	80.002	19.994	102.992	20.029	0.387	-0.027
17.500	107.694	80.002	19.995	102.992	20.031	0.228	-0.010
18.000	107.699	80.001	19.994	102.991	20.033	0.061	-0.001
18.500	107.710	80.002	19.995	102.993	20.031	0.213	0.001
19.000	107.702	80.002	19.994	102.997	20.033	0.065	0.009
19.500	107.695	80.001	19.994	103.000	20.032	0.140	-0.006
20.000	107.716	80.001	19.993	103.004	20.032	0.167	0.000
20.500	107.711	80.002	19.994	103.006	20.032	0.117	0.015
21.000	107.718	80.001	19.995	103.007	20.034	0.023	0.009
21.500	107.702	80.001	19.995	103.006	20.032	0.163	-0.003
22.000	107.729	80.002	19.995	103.002	20.031	0.190	0.001
22.500	107.733	80.001	19.994	102.999	20.031	0.236	0.021
23.000	107.745	80.002	19.994	103.001	20.034	-0.010	0.024
23.500	107.739	80.001	19.994	103.005	20.032	0.140	0.011
24.000	107.725	80.002	19.995	103.009	20.029	0.351	-0.007
24.500	107.713	79.999	19.994	103.016	20.029	0.364	-0.023
25.000	107.730	80.002	19.994	103.015	20.033	0.050	-0.011
25.500	107.761	80.000	19.995	103.011	20.030	0.309	0.026
26.000	107.770	80.001	19.994	103.010	20.031	0.186	0.043
26.500	107.745	80.000	19.994	103.012	20.032	0.136	0.012
27.000	107.764	80.001	19.995	103.014	20.028	0.460	-0.010
27.500	107.733	80.000	19.995	103.021	20.028	0.439	-0.009
28.000	107.708	80.000	19.994	103.027	20.029	0.333	-0.034
28.500	107.741	80.001	19.994	103.028	20.029	0.368	-0.024
29.000	107.780	80.000	19.994	103.028	20.025	0.604	0.040
29.500	107.757	80.000	19.994	103.027	20.030	0.297	0.044
30.000	107.776	80.000	19.994	103.027	20.026	0.539	0.006
30.500	107.783	80.001	19.994	103.035	20.027	0.510	0.011
31.000	107.774	80.001	19.994	103.043	20.026	0.594	0.012
31.500	107.753	80.001	19.994	103.048	20.028	0.447	-0.016
32.000	107.849	80.000	19.993	103.056	20.027	0.462	0.023
32.500	107.828	80.000	19.994	103.064	20.026	0.596	0.075
33.000	107.835	80.002	19.994	103.061	20.026	0.564	0.030
33.500	107.802	80.002	19.994	103.056	20.026	0.539	-0.020
34.000	107.857	80.002	19.993	103.053	20.026	0.591	-0.002
34.500	107.869	80.002	19.994	103.052	20.023	0.759	0.044
35.000	107.927	80.001	19.993	103.052	20.025	0.621	0.068
35.500	107.914	80.001	19.994	103.056	20.026	0.594	0.058
36.000	107.917	80.002	19.993	103.061	20.025	0.644	0.018
36.501	107.962	80.003	19.993	103.067	20.026	0.533	0.019
37.001	107.955	80.003	19.993	103.065	20.025	0.639	0.043
37.500	107.970	80.003	19.994	103.062	20.028	0.458	0.022
38.000	107.989	80.002	19.993	103.058	20.027	0.514	0.021
38.500	108.021	80.002	19.994	103.057	20.023	0.769	0.043
39.000	108.057	80.004	19.994	103.050	20.023	0.763	0.060
39.500	108.063	80.004	19.992	103.048	20.021	0.907	0.055
40.000	108.085	80.002	19.993	103.051	20.020	0.965	0.035
40.500	108.078	80.004	19.994	103.054	20.020	1.024	0.021
41.000	108.089	80.001	19.994	103.055	20.023	0.758	0.010
41.500	108.129	80.004	19.994	103.063	20.018	1.122	0.028
42.000	108.178	80.001	19.993	103.071	20.024	0.714	0.070
42.500	108.152	80.001	19.994	103.075	20.024	0.719	0.056
43.000	108.162	80.001	19.994	103.082	20.019	1.063	0.003
43.500	108.219	80.002	19.994	103.089	20.021	0.896	0.025
44.001	108.230	80.002	19.994	103.096	20.018	1.126	0.067
44.501	108.264	80.001	19.991	103.101	20.018	1.138	0.056
45.000	108.299	80.002	19.994	103.106	20.017	1.203	0.057
45.501	108.320	80.003	19.994	103.110	20.017	1.211	0.062
46.001	108.337	80.001	19.994	103.110	20.017	1.189	0.047
46.500	108.392	80.002	19.993	103.111	20.018	1.165	0.055
47.000	108.423	80.003	19.994	103.111	20.014	1.391	0.079
47.500	108.490	80.002	19.994	103.113	20.017	1.203	0.092
48.000	108.508	80.002	19.994	103.114	20.017	1.174	0.092
48.500	108.534	80.001	19.994	103.118	20.015	1.332	0.065
49.001	108.570	80.002	19.994	103.125	20.011	1.658	0.053
49.501	108.601	80.002	19.993	103.130	20.012	1.568	0.064
50.000	108.682	80.001	19.993	103.129	20.015	1.328	0.089
50.501	108.715	80.000	19.994	103.130	20.012	1.531	0.113
51.001	108.730	80.002	19.993	103.130	20.012	1.554	0.081
51.501	108.823	80.002	19.993	103.131	20.012	1.545	0.078
52.001	108.828	80.001	19.994	103.133	20.012	1.556	0.103
52.501	108.881	80.000	19.994	103.140	20.012	1.577	0.077
53.000	108.951	80.002	19.995	103.144	20.013	1.491	0.091
53.500	108.943	80.001	19.994	103.152	20.008	1.875	0.093
54.000	109.050	80.000	19.993	103.154	20.010	1.671	0.080
54.500	109.084	80.002	19.994	103.157	20.012	1.577	0.120
55.000	109.136	80.001	19.994	103.158	20.009	1.752	0.114
55.500	109.196	80.001	19.993	103.158	20.004	2.126	0.099
56.000	109.266	80.001	19.994	103.155	20.009	1.785	0.121
56.500	109.326	80.003	19.993	103.154	20.008	1.861	0.129
57.000	109.412	80.001	19.993	103.152	20.006	1.992	0.138
57.500	109.482	80.002	19.995	103.153	20.007	1.931	0.151
58.000	109.517	80.003	19.994	103.153	20.005	2.063	0.131
58.500	109.596	80.002	19.993	103.155	20.007	1.900	0.110
59.000	109.630	80.001	19.993	103.158	20.003	2.205	0.114
59.500	109.700	80.002	19.994	103.163	20.007	1.925	0.108
60.000	109.809	80.003	19.994	103.165	20.005	2.019	0.142
60.500	109.869	80.003	19.994	103.171	20.005	2.086	0.174
61.000	109.906	80.003	19.994	103.176	20.006	1.996	0.133
61.500	109.981	80.003	19.994	103.179	20.004	2.119	0.105
62.000	110.083	80.004	19.993	103.180	20.003	2.171	0.145
62.500	110.134	80.004	19.995	103.182	20.004	2.094	0.166
63.000	110.216	80.004	19.995	103.182	20.002	2.267	0.143
63.500	110.297	80.003	19.995	103.182	20.002	2.232	0.148
64.001	110.390	80.004	19.995	103.181	20.002	2.282	0.168
64.501	110.482	80.004	19.994	103.181	20.005	2.086	0.179
65.001	110.537	80.004	19.995	103.181	20.004	2.157	0.166
65.501	110.619	80.003	19.994	103.181	19.998	2.537	0.142
66.000	110.677	80.003	19.994	103.180	19.999	2.466	0.139
66.500	110.822	80.004	19.994	103.180	20.002	2.301	0.172
67.000	110.855	80.004	19.994	103.179	20.001	2.349	0.191
67.500	110.913	80.003	19.994	103.179	20.001	2.371	0.134
68.000	111.030	80.003	19.993	103.180	20.000	2.403	0.133
68.500	111.147	80.002	19.995	103.180	20.000	2.382	0.204
69.000	111.238	80.003	19.995	103.181	19.999	2.484	0.221
69.500	111.279	80.002	19.994	103.183	19.997	2.603	0.170
70.000	111.386	80.003	19.995	103.185	20.000	2.438	0.140
70.500	111.506	80.000	19.995	103.186	19.998	2.578	0.187
71.000	111.594	80.002	19.994	103.186	20.000	2.415	0.217
71.500	111.635	80.001	19.994	103.189	19.998	2.530	0.169
72.000	111.783	80.003	19.994	103.192	20.001	2.352	0.159
72.500	111.891	80.001	19.996	103.195	20.001	2.346	0.222
73.000	111.948	80.001	19.995	103.198	19.999	2.473	0.211
73.500	112.089	80.000	19.996	103.203	20.001	2.304	0.181
74.001	112.185	80.001	19.995	103.201	20.000	2.388	0.218
74.501	112.308	79.999	19.995	103.199	19.999	2.475	0.228
75.000	112.395	80.001	19.995	103.200	19.999	2.502	0.214
75.500	112.507	80.001	19.995	103.196	19.998	2.578	0.204
76.000	112.622	80.000	19.995	103.191	19.997	2.603	0.213
76.501	112.715	80.000	19.996	103.193	20.000	2.413	0.218
77.001	112.820	80.001	19.995	103.195	20.000	2.444	0.203
77.500	112.915	80.001	19.994	103.196	19.996	2.720	0.199
78.000	113.062	80.001	19.995	103.203	19.995	2.776	0.221
78.500	113.162	80.000	19.994	103.209	19.997	2.643	0.245
79.000	113.279	80.000	19.994	103.214	20.000	2.419	0.233
79.500	113.405	80.001	19.995	103.217	19.998	2.567	0.230
80.000	113.544	80.001	19.995	103.218	19.998	2.582	0.254
80.500	113.644	80.002	19.995	103.219	19.995	2.761	0.251
81.000	113.752	80.000	19.994	103.219	19.997	2.636	0.224
81.500	113.858	80.000	19.994	103.218	19.997	2.636	0.211
82.000	113.966	80.002	19.995	103.217	19.996	2.720	0.214
82.500	114.103	80.001	19.994	103.219	19.996	2.715	0.230
83.001	114.228	80.001	19.995	103.223	20.000	2.377	0.254
83.501	114.356	80.001	19.994	103.223	19.995	2.732	0.257
84.001	114.524	80.003	19.995	103.224	19.996	2.701	0.274
84.501	114.636	80.000	19.994	103.226	19.996	2.672	0.288
85.001	114.765	80.001	19.994	103.226	19.997	2.645	0.261
85.501	114.874	80.001	19.994	103.222	19.999	2.503	0.239
86.001	114.992	80.002	19.994	103.224	19.997	2.655	0.232
86.501	115.140	80.001	19.994	103.224	19.995	2.745	0.246
87.000	115.321	80.001	19.994	103.223	19.995	2.782	0.297
87.500	115.426	80.001	19.995	103.221	19.995	2.755	0.308
88.000	115.556	80.001	19.995	103.220	19.996	2.722	0.261
88.500	115.723	80.001	19.994	103.218	19.994	2.807	0.266
89.000	115.841	80.001	19.994	103.216	19.996	2.726	0.291
89.500	116.011	79.999	19.995	103.216	19.993	2.916	0.287
90.000	116.150	79.999	19.994	103.218	19.992	2.943	0.299
90.500	116.247	80.000	19.995	103.219	19.994	2.861	0.273
91.000	116.419	79.999	19.995	103.218	19.994	2.847	0.252
91.500	116.554	80.000	19.995	103.217	19.994	2.836	0.288
92.000	116.698	80.002	19.995	103.217	19.991	3.020	0.293
92.500	116.844	80.001	19.995	103.216	19.994	2.841	0.285
93.000	117.004	80.002	19.995	103.216	19.993	2.937	0.298
93.500	117.153	80.000	19.995	103.218	19.995	2.759	0.307
94.000	117.306	80.000	19.995	103.221	19.994	2.857	0.305
94.500	117.423	80.000	19.995	103.221	19.992	2.962	0.286
95.000	117.613	80.000	19.995	103.219	19.991	3.028	0.288
95.500	117.803	80.002	19.996	103.219	19.991	3.028	0.343
96.000	117.936	80.001	19.995	103.219	19.990	3.109	0.351
96.500	118.097	80.001	19.995	103.219	19.991	3.062	0.308
97.001	118.258	80.000	19.995	103.219	19.990	3.116	0.308
97.501	118.422	79.999	19.995	103.222	19.991	3.024	0.324
98.001	118.555	80.001	19.995	103.223	19.991	3.053	0.311
98.501	118.708	80.000	19.996	103.224	19.988	3.255	0.291
99.001	118.867	80.001	19.996	103.224	19.991	3.044	0.299
99.500	119.047	80.001	19.995	103.225	19.992	2.990	0.326
100.000	119.179	80.001	19.995	103.226	19.992	2.984	0.326
100.501	119.370	80.001	19.995	103.230	19.989	3.157	0.317
101.001	119.519	80.001	19.995	103.232	19.990	3.101	0.331
101.500	119.682	80.000	19.994	103.232	19.988	3.233	0.326
102.000	119.864	80.001	19.995	103.233	19.989	3.199	0.329
102.500	120.019	80.000	19.995	103.232	19.992	2.963	0.341
103.000	120.208	80.001	19.995	103.228	19.990	3.098	0.341
103.500	120.352	80.001	19.995	103.226	19.993	2.923	0.338
104.000	120.512	80.001	19.994	103.226	19.992	3.011	0.318
104.500	120.703	80.001	19.994	103.227	19.991	3.063	0.328
105.000	120.847	80.001	19.996	103.228	19.992	2.990	0.343
105.500	121.034	80.000	19.995	103.228	19.992	2.953	0.333
106.000	121.209	80.001	19.996	103.231	19.990	3.101	0.346
106.501	121.378	80.001	19.996	103.232	19.989	3.182	0.353
107.001	121.563	80.001	19.994	103.233	19.990	3.082	0.349
107.500	121.714	80.001	19.995	103.234	19.988	3.270	0.345
108.000	121.884	80.001	19.996	103.237	19.990	3.097	0.329
108.500	122.057	80.001	19.995	103.237	19.989	3.163	0.332
109.000	122.269	80.001	19.994	103.242	19.987	3.299	0.364
109.500	122.414	80.001	19.995	103.245	19.986	3.422	0.371
110.000	122.619	80.002	19.996	103.243	19.987	3.330	0.353
110.500	122.792	80.000	19.995	103.242	19.987	3.303	0.364
111.000	123.012	80.001	19.995	103.239	19.988	3.267	0.386
111.501	123.153	80.001	19.995	103.233	19.991	3.044	0.377
112.001	123.338	80.000	19.995	103.230	19.990	3.143	0.343
112.500	123.488	80.000	19.994	103.236	19.988	3.274	0.331
113.000	123.742	80.000	19.994	103.240	19.990	3.086	0.370
113.500	123.893	80.001	19.994	103.245	19.988	3.261	0.404
114.000	124.076	80.001	19.995	103.252	19.989	3.155	0.370
114.500	124.277	80.001	19.994	103.257	19.989	3.201	0.359
115.000	124.426	80.002	19.994	103.256	19.990	3.147	0.366
115.500	124.614	80.002	19.994	103.258	19.988	3.260	0.343
116.000	124.811	80.002	19.994	103.253	19.987	3.295	0.361
116.500	125.027	80.001	19.995	103.248	19.987	3.354	0.399
117.000	125.210	80.002	19.994	103.243	19.989	3.170	0.405
117.500	125.413	80.002	19.993	103.242	19.986	3.405	0.392
118.000	125.610	80.002	19.993	103.239	19.985	3.507	0.393
118.501	125.765	80.004	19.994	103.245	19.988	3.263	0.376
119.001	125.958	80.002	19.994	103.249	19.987	3.307	0.350
119.501	126.160	80.003	19.995	103.254	19.986	3.415	0.372
120.000	126.355	80.001	19.994	103.258	19.989	3.186	0.396
120.500	126.542	80.003	19.993	103.263	19.988	3.274	0.389
121.000	126.774	80.003	19.993	103.263	19.987	3.357	0.401
121.501	126.944	80.002	19.994	103.261	19.987	3.299	0.411
122.001	127.156	80.002	19.994	103.255	19.987	3.359	0.392
122.501	127.339	80.003	19.994	103.248	19.990	3.146	0.388
123.001	127.513	80.003	19.995	103.242	19.989	3.167	0.376
123.500	127.750	80.003	19.994	103.242	19.987	3.336	0.384
124.000	127.932	80.004	19.993	103.244	19.987	3.311	0.415
124.500	128.108	80.001	19.994	103.249	19.987	3.355	0.388
125.000	128.323	80.002	19.994	103.250	19.990	3.138	0.374
125.500	128.564	80.004	19.994	103.249	19.987	3.361	0.424
126.000	128.748	80.002	19.995	103.242	19.987	3.305	0.441
126.500	128.935	80.002	19.994	103.236	19.985	3.491	0.398
127.000	129.151	80.002	19.995	103.232	19.985	3.488	0.387
127.501	129.369	80.002	19.994	103.233	19.985	3.451	0.418
128.000	129.592	80.003	19.994	103.240	19.985	3.438	0.437
128.500	129.791	80.003	19.993	103.247	19.988	3.271	0.431
129.000	129.973	80.003	19.994	103.253	19.984	3.538	0.401
129.500	130.137	80.002	19.994	103.259	19.985	3.470	0.363
130.000	130.403	80.001	19.995	103.261	19.984	3.564	0.387
130.500	130.584	80.002	19.995	103.255	19.987	3.313	0.438
131.000	130.774	80.002	19.994	103.248	19.988	3.278	0.409
131.500	130.979	80.002	19.995	103.246	19.987	3.305	0.384
132.000	131.218	80.002	19.995	103.245	19.987	3.336	0.419
132.500	131.428	80.002	19.995	103.244	19.986	3.382	0.446
133.000	131.627	80.002	19.995	103.249	19.985	3.499	0.429
133.500	131.863	80.002	19.995	103.255	19.986	3.386	0.422
134.000	132.056	80.002	19.995	103.254	19.986	3.382	0.432
134.500	132.302	80.003	19.994	103.254	19.986	3.432	0.434
135.000	132.487	80.002	19.995	103.256	19.984	3.514	0.435
135.500	132.725	80.003	19.995	103.252	19.987	3.322	0.427
136.000	132.943	80.003	19.994	103.252	19.987	3.343	0.440
136.500	133.163	80.002	19.994	103.252	19.986	3.378	0.447
137.000	133.361	80.004	19.994	103.254	19.986	3.382	0.428
137.500	133.584	80.001	19.995	103.254	19.985	3.468	0.420
138.000	133.808	80.001	19.994	103.259	19.985	3.439	0.434
138.500	134.022	80.002	19.994	103.258	19.987	3.314	0.442
139.000	134.265	80.003	19.994	103.260	19.988	3.232	0.447
139.500	134.506	80.004	19.995	103.259	19.985	3.466	0.471
140.000	134.706	80.004	19.993	103.258	19.987	3.359	0.463
140.500	134.889	80.004	19.994	103.257	19.983	3.630	0.411
141.000	135.090	80.005	19.995	103.258	19.985	3.501	0.384
141.500	135.338	80.005	19.995	103.257	19.985	3.461	0.417
142.000	135.548	80.004	19.994	103.255	19.986	3.430	0.453
142.500	135.765	80.005	19.994	103.257	19.984	3.572	0.442
143.000	135.996	80.004	19.994	103.259	19.988	3.267	0.438
143.500	136.219	80.006	19.993	103.259	19.984	3.564	0.451
144.000	136.440	80.005	19.994	103.260	19.982	3.707	0.449
144.500	136.669	80.005	19.994	103.261	19.984	3.557	0.447
145.000	136.932	80.007	19.994	103.260	19.985	3.497	0.471
145.500	137.122	80.003	19.994	103.258	19.985	3.478	0.473
146.000	137.354	80.005	19.994	103.253	19.984	3.531	0.437
146.500	137.598	80.004	19.994	103.249	19.985	3.474	0.449
147.000	137.824	80.004	19.994	103.248	19.987	3.301	0.473
147.500	138.080	80.005	19.994	103.248	19.984	3.508	0.476
148.000	138.283	80.005	19.994	103.246	19.989	3.182	0.471
148.500	138.520	80.005	19.993	103.244	19.989	3.188	0.450
149.000	138.746	80.002	19.994	103.248	19.988	3.261	0.451
149.500	138.976	80.003	19.994	103.247	19.986	3.426	0.460
150.000	139.190	80.003	19.995	103.247	19.988	3.251	0.450
150.500	139.404	80.002	19.994	103.251	19.988	3.288	0.435
151.000	139.632	80.001	19.994	103.256	19.988	3.290	0.435
151.500	139.866	80.002	19.994	103.255	19.988	3.276	0.452
152.000	140.110	80.003	19.995	103.255	19.987	3.332	0.470
152.500	140.342	80.002	19.995	103.255	19.987	3.340	0.477
153.000	140.555	80.002	19.994	103.255	19.988	3.276	0.461
153.500	140.791	80.002	19.995	103.256	19.987	3.347	0.447
154.000	141.015	80.002	19.996	103.258	19.988	3.240	0.455
154.500	141.233	80.001	19.995	103.260	19.987	3.334	0.452
155.000	141.502	80.001	19.995	103.259	19.989	3.159	0.465
155.500	141.694	80.002	19.994	103.259	19.988	3.289	0.474
156.000	141.939	80.000	19.995	103.258	19.987	3.334	0.449
156.500	142.160	80.001	19.996	103.251	19.985	3.470	0.452
157.000	142.437	80.001	19.994	103.245	19.985	3.455	0.482
157.500	142.658	80.001	19.995	103.247	19.987	3.309	0.498
158.000	142.862	80.000	19.994	103.247	19.986	3.412	0.461
158.500	143.109	80.000	19.995	103.248	19.986	3.426	0.438
159.000	143.329	80.001	19.995	103.254	19.987	3.316	0.459
159.500	143.599	80.001	19.995	103.259	19.984	3.510	0.479
160.000	143.816	80.000	19.995	103.258	19.987	3.316	0.489
160.500	144.062	80.000	19.994	103.258	19.988	3.249	0.475
161.000	144.324	80.001	19.995	103.258	19.986	3.391	0.485
161.500	144.583	80.002	19.995	103.258	19.987	3.349	0.515
162.000	144.799	80.001	19.995	103.257	19.986	3.406	0.498
162.500	145.015	80.001	19.995	103.255	19.986	3.422	0.453
163.000	145.258	80.001	19.995	103.256	19.986	3.383	0.445
163.500	145.508	80.002	19.995	103.256	19.985	3.441	0.476
164.000	145.740	80.000	19.995	103.254	19.985	3.468	0.488
164.500	146.027	80.001	19.996	103.251	19.986	3.396	0.501
165.000	146.247	80.002	19.996	103.253	19.985	3.496	0.513
165.500	146.459	80.001	19.996	103.251	19.986	3.366	0.469
166.000	146.675	80.001	19.995	103.246	19.987	3.308	0.430
166.500	146.917	80.000	19.995	103.246	19.986	3.405	0.443
167.000	147.165	80.002	19.995	103.248	19.987	3.356	0.474
167.500	147.402	80.003	19.995	103.247	19.987	3.345	0.487
168.000	147.646	80.002	19.995	103.245	19.985	3.443	0.483
168.500	147.870	80.001	19.994	103.246	19.987	3.358	0.475
169.000	148.137	80.001	19.995	103.244	19.984	3.523	0.480
169.500	148.364	80.001	19.995	103.242	19.983	3.627	0.493
170.000	148.610	80.003	19.995	103.239	19.985	3.487	0.483
170.500	148.855	80.001	19.995	103.235	19.985	3.448	0.482
171.000	149.108	80.000	19.995	103.233	19.986	3.425	0.495
171.500	149.357	80.001	19.995	103.231	19.985	3.506	0.500
172.000	149.606	80.002	19.995	103.235	19.987	3.300	0.500
172.500	149.827	80.002	19.996	103.237	19.983	3.635	0.484
173.000	150.086	80.002	19.995	103.240	19.987	3.345	0.475
173.500	150.303	80.002	19.994	103.242	19.984	3.524	0.478
174.000	150.537	80.002	19.994	103.243	19.986	3.424	0.463
174.500	150.806	80.001	19.995	103.236	19.983	3.602	0.477
175.000	151.025	80.001	19.994	103.232	19.985	3.479	0.496
175.500	151.258	80.002	19.994	103.230	19.986	3.368	0.470
176.000	151.496	80.002	19.995	103.235	19.988	3.226	0.462
176.500	151.764	80.002	19.995	103.237	19.984	3.563	0.489
177.000	151.958	80.001	19.995	103.240	19.986	3.431	0.484
177.500	152.237	80.000	19.995	103.243	19.988	3.285	0.467
178.000	152.496	80.001	19.995	103.242	19.986	3.379	0.506
178.500	152.708	79.999	19.994	103.236	19.986	3.410	0.505
179.000	152.945	80.002	19.995	103.232	19.987	3.308	0.460
179.500	153.226	80.001	19.995	103.230	19.987	3.316	0.483
180.000	153.468	79.999	19.995	103.229	19.989	3.218	0.521
180.500	153.695	80.002	19.995	103.229	19.986	3.406	0.496
181.000	153.936	80.000	19.995	103.230	19.985	3.479	0.468
181.500	154.159	80.000	19.994	103.230	19.988	3.243	0.466
182.000	154.377	79.999	19.995	103.230	19.985	3.462	0.453
182.500	154.630	80.000	19.995	103.228	19.986	3.402	0.456
183.000	154.837	80.000	19.995	103.229	19.985	3.446	0.465
183.500	155.070	80.000	19.996	103.234	19.988	3.227	0.450
184.000	155.351	80.000	19.996	103.238	19.985	3.438	0.477
184.500	155.562	80.000	19.995	103.243	19.988	3.275	0.503
185.000	155.811	79.999	19.996	103.243	19.986	3.392	0.476
185.500	156.095	80.001	19.995	103.241	19.987	3.364	0.497
186.000	156.311	80.001	19.995	103.238	19.985	3.448	0.517
186.500	156.566	79.999	19.995	103.237	19.988	3.275	0.486
187.000	156.822	80.000	19.996	103.232	19.987	3.329	0.491
187.501	157.016	80.000	19.995	103.231	19.987	3.294	0.480
188.000	157.321	79.999	19.996	103.231	19.989	3.199	0.474
188.500	157.550	79.999	19.996	103.230	19.990	3.126	0.516
189.000	157.784	79.998	19.996	103.227	19.988	3.262	0.499
189.500	158.040	80.000	19.996	103.227	19.987	3.348	0.477
190.000	158.275	80.001	19.995	103.228	19.988	3.231	0.491
190.500	158.497	80.001	19.995	103.228	19.990	3.101	0.474
191.000	158.742	80.001	19.996	103.227	19.989	3.164	0.462
191.500	159.000	79.999	19.996	103.226	19.989	3.160	0.485
192.000	159.253	79.999	19.997	103.229	19.989	3.189	0.507
192.500	159.529	80.001	19.996	103.228	19.989	3.191	0.520
193.000	159.770	80.000	19.996	103.228	19.988	3.233	0.523
193.500	160.009	80.000	19.996	103.228	19.986	3.383	0.498
194.000	160.254	80.001	19.995	103.228	19.988	3.262	0.482
194.500	160.482	80.002	19.995	103.226	19.988	3.291	0.478
195.000	160.748	80.001	19.994	103.225	19.987	3.310	0.483
195.500	160.974	80.002	19.995	103.224	19.985	3.456	0.493
196.000	161.211	80.002	19.995	103.224	19.987	3.300	0.478
196.500	161.450	80.002	19.995	103.223	19.984	3.515	0.469
197.000	161.705	80.002	19.995	103.223	19.986	3.402	0.485
197.500	161.929	80.001	19.995	103.223	19.988	3.292	0.487
198.000	162.176	80.003	19.995	103.223	19.987	3.342	0.475
198.500	162.437	80.002	19.994	103.224	19.988	3.281	0.489
199.000	162.693	80.003	19.993	103.225	19.987	3.306	0.512
199.500	162.899	80.002	19.994	103.225	19.988	3.225	0.490
200.000	163.169	80.003	19.995	103.225	19.988	3.229	0.469
200.500	163.418	80.003	19.994	103.226	19.991	3.068	0.498
201.000	163.674	80.003	19.994	103.224	19.986	3.373	0.512
201.500	163.951	80.004	19.994	103.225	19.988	3.258	0.519
202.000	164.191	80.003	19.995	103.225	19.988	3.271	0.525
202.500	164.435	80.002	19.994	103.225	19.988	3.277	0.501
203.001	164.675	80.003	19.993	103.224	19.990	3.135	0.484
203.500	164.918	80.002	19.994	103.225	19.988	3.227	0.483
204.001	165.192	80.004	19.994	103.223	19.989	3.204	0.500
204.501	165.426	80.003	19.995	103.224	19.989	3.160	0.513
205.000	165.677	80.002	19.995	103.225	19.987	3.352	0.496
205.500	165.952	80.001	19.993	103.225	19.988	3.290	0.506
206.000	166.168	80.003	19.995	103.221	19.989	3.168	0.509
206.500	166.405	80.002	19.994	103.219	19.986	3.381	0.472
207.000	166.634	80.002	19.994	103.218	19.989	3.168	0.460
207.500	166.877	80.003	19.994	103.216	19.988	3.237	0.469
208.000	167.140	80.003	19.994	103.216	19.991	3.029	0.489
208.500	167.355	80.002	19.996	103.220	19.988	3.243	0.492
209.000	167.626	80.002	19.995	103.223	19.988	3.225	0.482
209.500	167.852	80.002	19.995	103.225	19.989	3.202	0.492
210.000	168.128	80.001	19.994	103.225	19.988	3.260	0.500
210.500	168.333	80.003	19.995	103.225	19.988	3.266	0.491
211.000	168.577	80.001	19.994	103.225	19.989	3.210	0.465
211.500	168.826	80.001	19.995	103.224	19.986	3.423	0.471
212.000	169.086	80.002	19.994	103.222	19.987	3.339	0.501
212.500	169.339	80.001	19.994	103.221	19.984	3.521	0.511
213.000	169.618	80.002	19.995	103.225	19.987	3.325	0.523
213.500	169.810	80.002	19.994	103.228	19.990	3.081	0.502
214.000	170.054	80.002	19.994	103.228	19.987	3.296	0.453
214.500	170.347	80.003	19.994	103.228	19.990	3.147	0.487
215.000	170.580	80.001	19.994	103.227	19.988	3.239	0.532
215.500	170.822	80.002	19.994	103.221	19.993	2.882	0.501
216.000	171.086	80.002	19.995	103.217	19.988	3.246	0.490
216.500	171.296	80.002	19.995	103.217	19.987	3.358	0.490
217.000	171.562	80.003	19.996	103.217	19.991	3.051	0.475
217.500	171.779	80.003	19.995	103.219	19.990	3.143	0.479
218.000	172.027	80.003	19.995	103.222	19.987	3.294	0.474
218.500	172.284	80.003	19.995	103.223	19.989	3.183	0.485
219.000	172.530	80.002	19.996	103.223	19.986	3.410	0.504
219.500	172.779	80.001	19.995	103.223	19.989	3.204	0.499
220.000	173.014	80.003	19.994	103.223	19.988	3.225	0.489
220.500	173.264	80.003	19.995	103.223	19.989	3.158	0.484
221.000	173.517	80.003	19.996	103.223	19.992	2.989	0.494
221.501	173.765	80.002	19.995	103.223	19.990	3.124	0.502
222.001	174.042	80.004	19.994	103.221	19.990	3.081	0.513
222.501	174.271	80.005	19.995	103.221	19.990	3.106	0.515
223.001	174.511	80.005	19.995	103.221	19.991	3.014	0.488
223.501	174.761	80.005	19.994	103.221	19.989	3.202	0.479
224.001	174.970	80.005	19.993	103.221	19.990	3.135	0.474
224.501	175.241	80.003	19.994	103.222	19.992	2.995	0.469
225.001	175.473	80.004	19.995	103.222	19.987	3.294	0.492
225.500	175.726	80.005	19.995	103.222	19.988	3.229	0.494
226.000	175.928	80.004	19.995	103.222	19.987	3.325	0.470
226.500	176.193	80.003	19.994	103.223	19.993	2.891	0.461
227.000	176.449	80.005	19.995	103.224	19.991	3.049	0.494
227.500	176.680	80.003	19.994	103.224	19.987	3.306	0.504
228.000	176.949	80.005	19.994	103.224	19.991	3.054	0.493
228.500	177.190	80.003	19.994	103.224	19.993	2.928	0.504
229.000	177.434	80.003	19.994	103.222	19.993	2.931	0.497
229.500	177.681	80.004	19.994	103.222	19.990	3.097	0.488
230.000	177.915	80.003	19.994	103.222	19.992	2.974	0.486
230.500	178.157	80.003	19.995	103.222	19.991	3.077	0.479
231.000	178.377	80.003	19.994	103.222	19.994	2.824	0.469
231.500	178.641	80.002	19.993	103.224	19.993	2.914	0.473
232.000	178.870	80.002	19.995	103.225	19.992	2.960	0.489
232.500	179.136	80.002	19.994	103.225	19.993	2.872	0.494
233.000	179.371	80.002	19.995	103.225	19.991	3.056	0.498
233.500	179.607	80.001	19.995	103.225	19.990	3.133	0.486
234.000	179.828	80.001	19.994	103.225	19.993	2.893	0.464
234.500	180.093	80.001	19.994	103.226	19.992	2.989	0.472
235.000	180.347	80.001	19.994	103.226	19.989	3.195	0.503
235.500	180.540	80.001	19.994	103.223	19.992	2.989	0.483
236.000	180.836	80.001	19.994	103.223	19.990	3.133	0.468
236.500	181.094	80.001	19.994	103.221	19.993	2.905	0.521
237.000	181.310	80.002	19.995	103.220	19.991	3.022	0.514
237.500	181.594	80.001	19.994	103.219	19.994	2.832	0.488
238.000	181.795	80.002	19.995	103.219	19.993	2.876	0.493
238.500	182.094	80.000	19.994	103.217	19.993	2.937	0.492
239.000	182.293	80.002	19.995	103.216	19.990	3.100	0.498
239.500	182.549	80.001	19.995	103.217	19.991	3.056	0.477
240.000	182.792	80.001	19.995	103.217	19.990	3.081	0.477
240.500	183.011	80.001	19.994	103.218	19.993	2.887	0.480
241.000	183.264	80.000	19.994	103.219	19.989	3.193	0.467
241.500	183.492	80.000	19.994	103.222	19.992	2.953	0.477
242.000	183.727	79.999	19.994	103.222	19.994	2.845	0.472
242.500	184.011	80.000	19.994	103.223	19.990	3.129	0.491
243.000	184.226	80.001	19.993	103.221	19.991	3.072	0.509
243.500	184.471	80.000	19.994	103.217	19.990	3.108	0.479
244.000	184.715	80.001	19.995	103.215	19.989	3.181	0.474
244.500	185.014	80.000	19.994	103.215	19.988	3.256	0.516
245.000	185.213	79.999	19.994	103.215	19.992	3.008	0.521
245.501	185.480	80.000	19.995	103.220	19.990	3.089	0.482
246.000	185.742	80.001	19.995	103.224	19.990	3.106	0.497
246.500	185.994	80.000	19.994	103.225	19.990	3.119	0.521
247.000	186.215	79.999	19.994	103.224	19.991	3.054	0.494
247.500	186.461	80.000	19.995	103.223	19.991	3.035	0.470
248.000	186.706	80.001	19.995	103.223	19.991	3.031	0.478
248.500	186.964	80.000	19.994	103.220	19.989	3.173	0.497
249.000	187.209	80.000	19.995	103.219	19.990	3.127	0.503
249.500	187.456	80.001	19.994	103.218	19.991	3.069	0.498
250.000	187.668	80.001	19.995	103.217	19.988	3.288	0.476
250.500	187.949	80.001	19.994	103.217	19.990	3.102	0.476
251.000	188.179	80.001	19.996	103.219	19.990	3.100	0.502
251.500	188.446	79.999	19.995	103.219	19.991	3.073	0.504
252.000	188.663	80.000	19.996	103.220	19.988	3.225	0.490
252.500	188.900	80.000	19.995	103.218	19.988	3.227	0.469
253.000	189.117	80.001	19.994	103.218	19.989	3.179	0.454
253.500	189.399	80.001	19.994	103.217	19.994	2.847	0.477
254.000	189.607	80.002	19.995	103.218	19.990	3.121	0.494
254.500	189.880	80.001	19.995	103.218	19.992	2.944	0.486
255.000	190.075	80.001	19.994	103.216	19.990	3.082	0.475
255.500	190.357	80.001	19.995	103.211	19.990	3.142	0.472
256.000	190.620	80.001	19.995	103.207	19.990	3.081	0.511
256.500	190.836	80.000	19.995	103.207	19.990	3.083	0.512
257.000	191.085	80.001	19.994	103.207	19.988	3.280	0.472
257.500	191.337	80.001	19.995	103.208	19.989	3.205	0.483
258.000	191.587	80.001	19.995	103.208	19.990	3.144	0.501
258.500	191.803	80.002	19.995	103.209	19.991	3.065	0.483
259.000	192.075	80.001	19.995	103.206	19.988	3.261	0.477
259.500	192.297	80.000	19.994	103.203	19.986	3.403	0.492
260.000	192.512	80.001	19.995	103.200	19.986	3.415	0.466
260.500	192.743	80.001	19.995	103.197	19.987	3.323	0.441
261.000	193.058	80.000	19.995	103.195	19.985	3.445	0.496
261.500	193.266	80.001	19.994	103.194	19.987	3.338	0.535
262.000	193.495	80.002	19.995	103.191	19.984	3.522	0.480
262.500	193.790	80.001	19.995	103.192	19.987	3.322	0.481
263.000	193.996	80.001	19.995	103.198	19.989	3.159	0.512
263.500	194.241	80.001	19.995	103.204	19.987	3.307	0.476
264.000	194.501	80.002	19.995	103.203	19.987	3.332	0.478
264.500	194.741	80.001	19.996	103.205	19.988	3.248	0.503
265.000	194.970	80.001	19.996	103.204	19.987	3.349	0.484
265.500	195.251	80.000	19.994	103.201	19.988	3.292	0.489
266.000	195.486	80.001	19.994	103.197	19.988	3.230	0.513
266.500	195.688	80.000	19.995	103.198	19.988	3.251	0.477
267.000	195.930	80.001	19.994	103.200	19.989	3.169	0.441
267.500	196.185	80.000	19.995	103.202	19.990	3.146	0.470
268.000	196.435	80.001	19.995	103.200	19.990	3.128	0.501
268.500	196.691	80.001	19.995	103.201	19.986	3.374	0.506
269.000	196.927	80.001	19.995	103.199	19.988	3.224	0.499
269.500	197.193	80.001	19.994	103.202	19.989	3.188	0.496
270.000	197.416	80.001	19.995	103.205	19.989	3.163	0.495
270.500	197.680	80.002	19.994	103.207	19.989	3.180	0.488
271.000	197.925	80.001	19.995	103.205	19.991	3.075	0.498
271.500	198.149	80.002	19.996	103.204	19.988	3.230	0.488
272.000	198.398	80.001	19.995	103.200	19.993	2.875	0.471
272.500	198.636	80.001	19.996	103.196	19.991	3.046	0.480
273.000	198.903	80.001	19.996	103.195	19.990	3.107	0.496
273.500	199.122	80.001	19.995	103.197	19.989	3.157	0.495
274.000	199.343	80.002	19.996	103.198	19.991	3.025	0.463
274.500	199.605	80.000	19.995	103.199	19.988	3.245	0.461
275.000	199.842	80.001	19.995	103.201	19.989	3.203	0.491
275.500	200.130	80.002	19.995	103.200	19.987	3.328	0.512
276.000	200.328	80.001	19.995	103.199	19.987	3.311	0.505
276.500	200.572	80.001	19.996	103.197	19.988	3.255	0.464
277.000	200.833	80.002	19.995	103.197	19.986	3.365	0.474
277.500	201.047	80.002	19.995	103.195	19.988	3.236	0.490
278.000	201.334	80.001	19.995	103.192	19.992	2.992	0.488
278.500	201.585	80.002	19.995	103.190	19.989	3.186	0.519
279.000	201.846	80.003	19.995	103.191	19.993	2.912	0.525
279.500	202.097	80.003	19.996	103.190	19.990	3.127	0.512
280.000	202.318	80.003	19.996	103.190	19.992	3.008	0.492
280.500	202.587	80.004	19.995	103.194	19.991	3.017	0.481
281.000	202.823	80.002	19.996	103.194	19.992	2.981	0.498
281.500	203.102	80.003	19.995	103.193	19.991	3.034	0.510
282.000	203.306	80.003	19.996	103.192	19.988	3.224	0.499
282.501	203.568	80.004	19.995	103.191	19.990	3.123	0.475
283.001	203.807	80.003	19.995	103.193	19.986	3.388	0.483
283.500	204.049	80.004	19.997	103.195	19.992	2.962	0.490
284.000	204.300	80.004	19.996	103.196	19.989	3.207	0.487
284.500	204.570	80.002	19.995	103.195	19.988	3.238	0.507
285.000	204.794	80.002	19.996	103.195	19.988	3.240	0.508
285.500	205.033	80.003	19.995	103.189	19.989	3.175	0.478
286.000	205.290	80.004	19.995	103.186	19.989	3.152	0.480
286.500	205.555	80.001	19.995	103.184	19.991	3.017	0.509
287.000	205.792	80.002	19.995	103.185	19.989	3.184	0.512
287.500	206.028	80.003	19.995	103.192	19.988	3.265	0.488
288.000	206.289	80.002	19.995	103.198	19.991	3.078	0.485
288.501	206.531	80.002	19.996	103.201	19.989	3.219	0.500
289.001	206.770	80.002	19.995	103.202	19.989	3.186	0.492
289.500	207.029	80.002	19.994	103.201	19.988	3.249	0.490
290.000	207.237	80.002	19.995	103.195	19.990	3.082	0.483
290.500	207.532	80.002	19.994	103.194	19.989	3.180	0.485
291.000	207.778	80.002	19.994	103.193	19.989	3.217	0.522
291.500	208.022	80.003	19.993	103.193	19.988	3.222	0.515
292.000	208.291	80.002	19.993	103.193	19.991	3.040	0.502
292.500	208.551	80.002	19.994	103.193	19.991	3.046	0.521
293.000	208.795	80.001	19.994	103.190	19.988	3.290	0.516
293.500	209.030	80.002	19.994	103.191	19.989	3.218	0.491
294.000	209.273	80.003	19.994	103.196	19.989	3.159	0.478
294.500	209.503	80.001	19.993	103.201	19.991	3.079	0.475
295.000	209.763	80.001	19.994	103.204	19.989	3.157	0.482
295.500	210.018	80.003	19.994	103.204	19.993	2.887	0.503
296.000	210.234	80.002	19.994	103.205	19.990	3.127	0.493
296.500	210.486	80.002	19.995	103.203	19.990	3.142	0.469
297.000	210.753	80.003	19.993	103.199	19.990	3.123	0.493
297.500	210.967	80.004	19.994	103.196	19.989	3.175	0.500
298.000	211.185	80.003	19.993	103.194	19.988	3.278	0.457
298.500	211.446	80.003	19.994	103.192	19.989	3.217	0.456
299.000	211.722	80.004	19.994	103.189	19.986	3.380	0.508
299.500	211.923	80.003	19.995	103.189	19.988	3.263	0.507
300.000	212.174	80.003	19.994	103.190	19.986	3.390	0.464
300.500	212.440	80.004	19.994	103.189	19.986	3.376	0.484
301.000	212.697	80.004	19.995	103.188	19.987	3.359	0.520
301.500	212.907	80.004	19.994	103.188	19.982	3.656	0.495
302.000	213.190	80.004	19.995	103.190	19.985	3.438	0.481
302.500	213.423	80.003	19.994	103.189	19.989	3.190	0.505
303.000	213.661	80.004	19.993	103.190	19.985	3.467	0.493
303.500	213.913	80.003	19.995	103.189	19.989	3.196	0.480
304.000	214.182	80.002	19.993	103.190	19.986	3.424	0.505
304.500	214.422	80.004	19.993	103.188	19.988	3.290	0.515
305.000	214.688	80.003	19.993	103.192	19.989	3.209	0.508
305.500	214.899	80.003	19.994	103.198	19.987	3.341	0.491
306.000	215.178	80.004	19.993	103.201	19.989	3.209	0.483
306.500	215.397	80.002	19.995	103.206	19.986	3.368	0.494
307.000	215.642	80.003	19.993	103.207	19.990	3.084	0.481
307.500	215.871	80.003	19.994	103.203	19.989	3.159	0.469
308.000	216.110	80.002	19.994	103.197	19.986	3.390	0.471
308.500	216.374	80.004	19.994	103.194	19.989	3.165	0.485
309.000	216.627	80.002	19.994	103.189	19.988	3.238	0.510
309.500	216.885	80.004	19.993	103.187	19.986	3.424	0.514
310.000	217.115	80.003	19.994	103.190	19.988	3.276	0.500
310.500	217.358	80.003	19.993	103.192	19.987	3.316	0.480
311.000	217.653	80.002	19.994	103.196	19.984	3.520	0.506
311.500	217.850	80.001	19.994	103.196	19.986	3.430	0.515
312.000	218.121	80.002	19.994	103.197	19.986	3.376	0.480
312.500	218.333	80.002	19.994	103.199	19.986	3.374	0.475
313.000	218.545	80.002	19.994	103.201	19.982	3.706	0.453
313.500	218.813	80.002	19.993	103.201	19.983	3.631	0.452
314.000	219.069	80.001	19.994	103.202	19.982	3.656	0.502
314.500	219.284	80.001	19.994	103.203	19.985	3.445	0.497
315.000	219.576	80.002	19.994	103.198	19.982	3.685	0.489
315.500	219.827	80.002	19.994	103.194	19.985	3.504	0.525
316.000	220.061	80.002	19.995	103.191	19.985	3.451	0.514
316.500	220.304	80.002	19.995	103.189	19.983	3.583	0.481
317.000	220.568	80.001	19.995	103.192	19.984	3.560	0.492
317.500	220.830	80.003	19.995	103.197	19.986	3.431	0.516
318.000	221.057	80.001	19.995	103.199	19.982	3.687	0.507
318.500	221.315	80.002	19.995	103.201	19.981	3.754	0.488
319.000	221.585	80.002	19.994	103.202	19.982	3.708	0.507
319.500	221.799	80.001	19.995	103.198	19.985	3.472	0.506
320.000	222.056	80.002	19.994	103.193	19.985	3.485	0.477
320.500	222.309	80.002	19.994	103.191	19.984	3.526	0.491
321.000	222.607	80.001	19.995	103.189	19.983	3.608	0.530
321.500	222.825	80.002	19.994	103.188	19.982	3.691	0.533
322.000	223.094	80.003	19.993	103.188	19.983	3.606	0.502
322.500	223.317	80.003	19.995	103.189	19.983	3.587	0.489
323.000	223.544	80.002	19.994	103.190	19.984	3.537	0.471
323.500	223.764	80.003	19.994	103.190	19.985	3.486	0.449
324.000	224.035	80.003	19.995	103.190	19.983	3.589	0.469
324.500	224.279	80.002	19.994	103.189	19.982	3.699	0.503
325.000	224.538	80.002	19.994	103.188	19.986	3.368	0.509
325.500	224.805	80.003	19.995	103.187	19.985	3.476	0.515
326.000	225.069	80.002	19.994	103.186	19.985	3.443	0.529
326.500	225.313	80.001	19.994	103.187	19.983	3.579	0.519
327.000	225.572	80.002	19.993	103.188	19.982	3.694	0.505
327.500	225.780	80.001	19.994	103.188	19.988	3.226	0.485
328.000	226.028	80.002	19.994	103.188	19.984	3.539	0.462
328.500	226.272	80.002	19.994	103.188	19.986	3.406	0.474
329.000	226.535	80.002	19.994	103.187	19.984	3.541	0.499
329.500	226.801	80.001	19.994	103.186	19.983	3.593	0.518
330.000	227.053	80.003	19.994	103.188	19.986	3.433	0.524
330.500	227.246	80.001	19.993	103.191	19.985	3.445	0.481
331.000	227.525	80.003	19.994	103.192	19.986	3.399	0.458
331.500	227.786	80.003	19.994	103.192	19.985	3.489	0.507
332.000	228.036	80.001	19.994	103.192	19.982	3.691	0.526
332.500	228.280	80.002	19.994	103.190	19.981	3.777	0.502
333.000	228.560	80.001	19.994	103.186	19.982	3.708	0.509
333.500	228.832	80.002	19.995	103.188	19.979	3.875	0.538
334.000	229.055	80.003	19.994	103.193	19.983	3.602	0.523
334.500	229.312	80.002	19.994	103.199	19.980	3.833	0.487
335.000	229.557	80.001	19.995	103.201	19.982	3.694	0.492
335.500	229.818	80.002	19.994	103.201	19.982	3.673	0.504
336.000	230.099	80.000	19.994	103.198	19.980	3.856	0.524
336.500	230.315	80.002	19.994	103.192	19.985	3.505	0.519
337.000	230.573	80.002	19.995	103.186	19.982	3.693	0.485
337.500	230.848	80.002	19.995	103.184	19.985	3.499	0.504
338.000	231.078	80.001	19.995	103.184	19.979	3.925	0.519
338.500	231.367	80.001	19.995	103.184	19.982	3.710	0.512
339.000	231.618	80.001	19.995	103.185	19.981	3.744	0.529
339.501	231.831	80.001	19.995	103.185	19.981	3.777	0.502
340.000	232.092	80.001	19.994	103.185	19.980	3.810	0.469
340.500	232.365	80.001	19.996	103.186	19.982	3.670	0.504
341.000	232.638	80.001	19.995	103.189	19.979	3.917	0.540
341.500	232.841	80.001	19.996	103.189	19.979	3.927	0.511
342.000	233.088	80.002	19.995	103.188	19.978	3.950	0.463
342.500	233.322	80.000	19.996	103.188	19.979	3.923	0.465
343.000	233.610	80.002	19.995	103.187	19.978	3.938	0.501
343.500	233.856	80.001	19.996	103.188	19.979	3.904	0.528
344.000	234.109	80.001	19.995	103.189	19.982	3.694	0.516
344.500	234.369	80.000	19.994	103.190	19.983	3.641	0.506
345.000	234.637	80.002	19.996	103.191	19.979	3.909	0.521
345.500	234.901	80.001	19.995	103.192	19.981	3.762	0.530
346.000	235.118	80.002	19.996	103.187	19.976	4.107	0.506
346.500	235.353	80.001	19.995	103.190	19.982	3.691	0.467
347.000	235.599	80.002	19.995	103.194	19.980	3.848	0.467
347.500	235.840	80.001	19.994	103.195	19.980	3.821	0.484
348.000	236.077	80.000	19.994	103.195	19.978	3.946	0.482
348.500	236.386	80.001	19.995	103.198	19.981	3.758	0.512
349.000	236.662	80.000	19.994	103.196	19.981	3.762	0.565
349.500	236.900	80.002	19.995	103.191	19.980	3.842	0.550
350.000	237.139	80.000	19.995	103.190	19.978	3.992	0.496
350.500	237.410	80.000	19.995	103.191	19.981	3.742	0.493
351.000	237.677	80.000	19.995	103.188	19.980	3.815	0.524
351.500	237.978	80.002	19.996	103.190	19.979	3.865	0.553
352.000	238.188	80.001	19.995	103.193	19.978	3.940	0.540
352.500	238.437	80.001	19.995	103.195	19.982	3.714	0.485
353.000	238.711	80.002	19.995	103.195	19.981	3.777	0.491
353.500	238.927	80.001	19.995	103.194	19.979	3.865	0.507
354.000	239.185	80.003	19.994	103.191	19.979	3.859	0.482
354.500	239.453	80.002	19.994	103.189	19.976	4.092	0.500
355.000	239.674	80.002	19.994	103.186	19.975	4.199	0.507
355.500	239.965	80.001	19.995	103.187	19.975	4.141	0.501
356.001	240.173	80.002	19.994	103.189	19.976	4.138	0.505
356.501	240.421	80.003	19.995	103.190	19.977	4.055	0.477
357.000	240.684	80.003	19.994	103.190	19.978	3.961	0.483
357.500	240.957	80.002	19.994	103.190	19.979	3.900	0.524
358.000	241.226	80.004	19.994	103.188	19.977	4.005	0.539
358.500	241.455	80.003	19.994	103.186	19.979	3.888	0.520
359.000	241.739	80.003	19.994	103.186	19.980	3.813	0.506
359.500	242.042	80.002	19.996	103.189	19.977	4.030	0.550
360.000	242.249	80.002	19.995	103.189	19.980	3.819	0.548
360.500	242.520	80.003	19.993	103.189	19.979	3.886	0.493
361.000	242.790	80.003	19.994	103.190	19.980	3.855	0.510
361.500	243.029	80.002	19.995	103.190	19.979	3.926	0.525
362.000	243.276	80.003	19.994	103.187	19.979	3.861	0.497
362.500	243.542	80.003	19.995	103.187	19.977	4.028	0.499
363.000	243.838	80.003	19.996	103.187	19.976	4.086	0.538
363.500	244.061	80.003	19.994	103.188	19.977	4.026	0.540
364.000	244.321	80.002	19.995	103.187	19.976	4.080	0.501
364.500	244.601	80.003	19.995	103.187	19.979	3.915	0.512
365.000	244.834	80.003	19.996	103.187	19.979	3.911	0.527
365.500	245.096	80.002	19.995	103.186	19.977	4.051	0.504
366.000	245.302	80.002	19.996	103.185	19.978	3.936	0.481
366.500	245.594	80.003	19.995	103.185	19.976	4.109	0.482
367.000	245.886	80.002	19.995	103.185	19.978	3.938	0.541
367.500	246.119	80.001	19.995	103.186	19.976	4.128	0.555
368.000	246.364	80.001	19.996	103.185	19.977	4.068	0.501
368.500	246.615	80.002	19.996	103.185	19.976	4.097	0.487
369.000	246.854	80.001	19.996	103.179	19.976	4.131	0.493
369.500	247.113	80.002	19.994	103.175	19.979	3.924	0.494
370.000	247.393	80.003	19.995	103.175	19.975	4.183	0.518
370.500	247.636	80.002	19.995	103.175	19.977	4.053	0.531
371.000	247.895	80.001	19.995	103.176	19.975	4.185	0.513
371.500	248.147	80.001	19.997	103.179	19.977	4.008	0.507
372.000	248.413	80.001	19.995	103.182	19.978	3.979	0.514
372.500	248.688	80.002	19.996	103.181	19.974	4.217	0.530
373.000	248.916	80.002	19.997	103.182	19.972	4.375	0.522
373.500	249.175	80.002	19.996	103.179	19.973	4.348	0.495
374.000	249.433	80.002	19.995	103.180	19.974	4.260	0.502
374.500	249.709	80.001	19.995	103.181	19.974	4.216	0.526
375.000	249.961	80.002	19.995	103.179	19.972	4.356	0.531
375.500	250.239	80.001	19.995	103.176	19.971	4.441	0.529
376.000	250.482	80.002	19.995	103.177	19.973	4.314	0.525
376.500	250.715	80.001	19.995	103.179	19.973	4.302	0.498
377.000	250.989	80.002	19.995	103.179	19.972	4.354	0.491
377.500	251.234	80.003	19.995	103.182	19.975	4.192	0.513
378.000	251.483	80.001	19.996	103.183	19.975	4.208	0.507
378.500	251.736	80.003	19.996	103.181	19.972	4.369	0.498
379.000	251.981	80.003	19.996	103.177	19.973	4.294	0.501
379.500	252.258	80.002	19.995	103.175	19.972	4.394	0.510
380.000	252.483	80.001	19.994	103.173	19.972	4.367	0.511
380.500	252.738	80.004	19.995	103.173	19.974	4.214	0.491
381.000	252.979	80.004	19.994	103.176	19.973	4.325	0.488
381.500	253.216	80.004	19.994	103.173	19.970	4.544	0.487
382.000	253.480	80.003	19.994	103.172	19.972	4.381	0.489
382.500	253.734	80.004	19.995	103.170	19.974	4.222	0.510
383.000	253.979	80.004	19.994	103.164	19.972	4.360	0.509
383.500	254.211	80.005	19.995	103.162	19.976	4.110	0.488
384.000	254.438	80.005	19.995	103.167	19.973	4.312	0.468
384.500	254.664	80.003	19.993	103.169	19.973	4.335	0.456
385.000	254.934	80.003	19.994	103.171	19.973	4.320	0.474
385.500	255.252	80.003	19.995	103.178	19.969	4.610	0.542
386.000	255.455	80.003	19.994	103.182	19.975	4.180	0.555
386.500	255.725	80.003	19.995	103.182	19.973	4.312	0.497
387.000	255.908	80.004	19.994	103.175	19.972	4.360	0.462
387.500	256.159	80.004	19.994	103.168	19.972	4.394	0.443
388.000	256.425	80.003	19.994	103.162	19.970	4.561	0.476
388.500	256.674	80.004	19.994	103.159	19.969	4.599	0.516
389.000	256.880	80.004	19.994	103.158	19.972	4.381	0.485
389.500	257.128	80.004	19.993	103.165	19.973	4.320	0.455
390.000	257.413	80.004	19.995	103.169	19.971	4.433	0.493
390.500	257.618	80.004	19.994	103.174	19.973	4.318	0.512
391.000	257.904	80.004	19.995	103.174	19.969	4.569	0.491
391.500	258.144	80.002	19.995	103.172	19.971	4.487	0.508
392.000	258.393	80.003	19.995	103.168	19.970	4.554	0.508
392.500	258.664	80.003	19.994	103.169	19.970	4.535	0.504
393.000	258.864	80.003	19.994	103.169	19.970	4.560	0.495
393.500	259.141	80.003	19.994	103.172	19.973	4.285	0.474
394.000	259.392	80.002	19.995	103.172	19.972	4.412	0.503
394.500	259.615	80.002	19.995	103.175	19.969	4.621	0.501
395.000	259.841	80.002	19.994	103.177	19.969	4.598	0.461
395.500	260.088	80.002	19.994	103.177	19.971	4.471	0.461
396.000	260.330	80.002	19.995	103.178	19.969	4.589	0.481
396.500	260.579	80.002	19.994	103.181	19.970	4.564	0.490
397.000	260.839	80.000	19.994	103.178	19.968	4.646	0.500
397.500	261.061	80.002	19.994	103.175	19.969	4.585	0.496
398.000	261.293	80.001	19.994	103.171	19.967	4.736	0.468
398.500	261.527	80.001	19.994	103.166	19.969	4.581	0.460
399.000	261.780	80.002	19.994	103.164	19.970	4.565	0.477
399.500	262.048	80.001	19.994	103.167	19.968	4.642	0.504
400.000	262.283	80.001	19.993	103.170	19.970	4.527	0.512
400.500	262.513	80.000	19.995	103.174	19.970	4.550	0.484
401.000	262.765	80.000	19.994	103.176	19.970	4.520	0.473
401.500	263.016	80.001	19.994	103.178	19.967	4.716	0.493
402.000	263.256	80.001	19.994	103.180	19.969	4.637	0.497
402.500	263.511	80.001	19.995	103.180	19.968	4.658	0.493
403.000	263.770	80.001	19.994	103.181	19.970	4.527	0.504
403.501	263.999	80.000	19.994	103.182	19.969	4.609	0.502
404.000	264.271	80.001	19.995	103.180	19.968	4.676	0.495
404.500	264.487	80.001	19.995	103.178	19.968	4.653	0.494
405.000	264.757	80.000	19.996	103.178	19.967	4.767	0.487
405.500	265.010	80.000	19.995	103.177	19.967	4.767	0.505
406.000	265.277	80.000	19.994	103.179	19.968	4.694	0.521
406.500	265.502	80.000	19.994	103.182	19.967	4.771	0.506
407.000	265.753	80.002	19.996	103.184	19.966	4.824	0.484
407.500	266.001	80.001	19.995	103.184	19.968	4.661	0.488
408.000	266.269	80.001	19.994	103.186	19.968	4.696	0.507
408.500	266.478	80.001	19.995	103.186	19.965	4.886	0.496
409.000	266.759	80.001	19.994	103.186	19.964	4.951	0.484
409.500	267.015	80.000	19.994	103.183	19.964	4.930	0.513
410.000	267.257	80.002	19.995	103.180	19.966	4.800	0.517
410.500	267.509	80.002	19.995	103.178	19.965	4.915	0.496
411.000	267.744	80.001	19.995	103.179	19.966	4.794	0.491
411.500	267.990	80.000	19.994	103.186	19.965	4.886	0.484
412.000	268.255	80.001	19.994	103.193	19.964	4.972	0.496
412.500	268.524	80.001	19.994	103.196	19.965	4.893	0.522
413.000	268.762	80.001	19.994	103.190	19.962	5.066	0.520
413.500	269.004	80.001	19.995	103.182	19.962	5.093	0.494
414.000	269.260	80.001	19.994	103.171	19.965	4.859	0.489
414.500	269.532	80.001	19.994	103.163	19.964	4.983	0.513
415.000	269.804	80.002	19.994	103.163	19.961	5.154	0.536
415.500	270.033	80.002	19.994	103.168	19.964	4.987	0.523
416.000	270.258	80.001	19.994	103.176	19.958	5.358	0.478
416.500	270.553	80.002	19.994	103.181	19.961	5.149	0.487
417.000	270.850	80.001	19.995	103.185	19.960	5.243	0.555
417.500	271.058	80.002	19.995	103.183	19.961	5.151	0.548
418.001	271.321	80.002	19.994	103.181	19.960	5.245	0.488
418.501	271.602	80.001	19.993	103.180	19.962	5.072	0.508
419.000	271.838	80.001	19.994	103.177	19.965	4.901	0.531
419.500	272.119	80.000	19.995	103.177	19.962	5.070	0.517
420.000	272.332	80.002	19.993	103.179	19.964	4.929	0.505
420.500	272.597	80.001	19.994	103.182	19.963	5.035	0.486
421.000	272.851	80.000	19.995	103.183	19.964	4.979	0.499
421.500	273.138	80.000	19.994	103.184	19.960	5.202	0.530
422.000	273.349	80.001	19.994	103.181	19.963	5.008	0.519
422.500	273.621	80.000	19.994	103.180	19.962	5.083	0.490
423.000	273.861	80.001	19.994	103.178	19.958	5.346	0.498
423.501	274.125	80.001	19.994	103.174	19.962	5.096	0.508
424.001	274.368	80.000	19.994	103.172	19.961	5.173	0.505
424.500	274.606	80.000	19.994	103.174	19.960	5.271	0.494
425.000	274.880	80.001	19.995	103.170	19.960	5.219	0.497
425.500	275.137	79.999	19.994	103.170	19.961	5.177	0.522
426.000	275.409	80.001	19.993	103.174	19.962	5.075	0.530
426.500	275.649	80.000	19.994	103.172	19.961	5.188	0.520
427.000	275.896	80.001	19.994	103.172	19.965	4.864	0.499
427.500	276.147	80.001	19.994	103.178	19.961	5.175	0.493
428.000	276.431	80.000	19.994	103.180	19.962	5.123	0.516
428.500	276.650	80.001	19.994	103.180	19.958	5.386	0.519
429.000	276.916	80.000	19.994	103.183	19.963	5.046	0.494
429.500	277.164	79.999	19.995	103.181	19.960	5.219	0.499
430.000	277.422	80.001	19.994	103.177	19.959	5.293	0.510
430.500	277.674	79.999	19.995	103.172	19.964	4.988	0.508
431.000	277.912	80.001	19.995	103.164	19.962	5.129	0.501
431.500	278.197	80.000	19.994	103.164	19.963	5.033	0.506
432.000	278.446	80.000	19.995	103.164	19.961	5.181	0.528
432.500	278.721	79.999	19.995	103.165	19.963	5.056	0.529
433.000	278.963	80.001	19.995	103.171	19.960	5.246	0.521
433.500	279.279	80.000	19.995	103.176	19.960	5.204	0.538
434.000	279.512	80.001	19.995	103.172	19.960	5.254	0.553
434.500	279.757	80.001	19.994	103.170	19.959	5.305	0.513
435.000	280.059	80.001	19.995	103.170	19.963	5.021	0.512
435.500	280.275	80.000	19.994	103.170	19.961	5.160	0.533
436.000	280.545	80.001	19.995	103.169	19.958	5.362	0.502
436.500	280.778	80.000	19.995	103.170	19.962	5.061	0.494
437.000	281.039	80.001	19.994	103.170	19.961	5.157	0.499
437.500	281.317	80.000	19.995	103.167	19.963	5.002	0.517
438.000	281.575	80.002	19.994	103.164	19.963	5.040	0.537
438.500	281.800	80.001	19.993	103.166	19.962	5.063	0.509
439.000	282.036	80.001	19.995	103.167	19.961	5.166	0.472
439.500	282.324	80.002	19.994	103.165	19.960	5.251	0.493
440.000	282.585	80.002	19.995	103.163	19.961	5.191	0.536
440.500	282.831	80.002	19.995	103.159	19.961	5.141	0.528
441.000	283.121	80.002	19.994	103.154	19.962	5.099	0.521
441.500	283.355	80.002	19.994	103.155	19.959	5.293	0.530
442.000	283.590	80.002	19.994	103.161	19.961	5.159	0.497
442.500	283.869	80.002	19.994	103.164	19.959	5.286	0.492
443.000	284.135	80.001	19.994	103.169	19.961	5.167	0.529
443.500	284.384	80.001	19.994	103.175	19.958	5.391	0.530
444.000	284.636	80.003	19.995	103.176	19.960	5.257	0.508
444.500	284.926	80.004	19.994	103.170	19.962	5.103	0.521
445.000	285.144	80.004	19.994	103.166	19.961	5.134	0.525
445.500	285.409	80.004	19.995	103.160	19.958	5.361	0.496
446.000	285.666	80.003	19.995	103.152	19.961	5.183	0.503
446.500	285.906	80.004	19.994	103.145	19.961	5.167	0.510
447.000	286.147	80.002	19.994	103.146	19.957	5.418	0.489
447.500	286.482	80.002	19.993	103.152	19.961	5.178	0.529
448.000	286.684	80.002	19.994	103.152	19.959	5.337	0.556
448.500	286.943	80.002	19.995	103.153	19.956	5.498	0.499
449.000	287.195	80.002	19.994	103.154	19.959	5.333	0.486
449.500	287.443	80.002	19.995	103.153	19.959	5.339	0.505
450.000	287.747	80.001	19.996	103.147	19.960	5.216	0.526
450.500	288.003	80.002	19.994	103.149	19.962	5.120	0.556
451.000	288.262	80.001	19.994	103.150	19.960	5.266	0.538
451.500	288.493	80.002	19.994	103.149	19.958	5.349	0.503
452.000	288.777	80.002	19.995	103.151	19.957	5.456	0.503
452.500	289.004	80.000	19.994	103.154	19.959	5.308	0.513
453.000	289.275	80.002	19.995	103.153	19.959	5.295	0.504
453.500	289.501	80.002	19.995	103.155	19.961	5.167	0.497
454.000	289.761	80.000	19.995	103.155	19.960	5.259	0.492
454.500	290.004	80.001	19.994	103.152	19.961	5.170	0.495
455.000	290.257	80.001	19.996	103.150	19.961	5.166	0.499
455.500	290.505	80.002	19.994	103.157	19.959	5.303	0.498
456.000	290.785	80.002	19.995	103.161	19.958	5.372	0.515
456.500	291.050	80.001	19.995	103.164	19.959	5.335	0.537
457.000	291.270	80.002	19.996	103.167	19.958	5.379	0.516
457.500	291.517	80.001	19.995	103.168	19.961	5.164	0.476
458.000	291.795	80.001	19.996	103.160	19.959	5.289	0.496
458.500	292.066	80.003	19.995	103.153	19.959	5.300	0.537
459.000	292.310	80.002	19.995	103.149	19.959	5.320	0.532
459.500	292.551	80.001	19.995	103.146	19.960	5.207	0.500
460.000	292.793	80.002	19.996	103.147	19.962	5.128	0.484
460.500	293.070	80.001	19.995	103.149	19.958	5.370	0.501
461.000	293.294	80.004	19.995	103.149	19.958	5.389	0.510
461.500	293.558	80.004	19.995	103.149	19.959	5.329	0.495
462.000	293.819	80.003	19.995	103.148	19.961	5.199	0.507
462.500	294.075	80.003	19.995	103.147	19.961	5.166	0.521
463.000	294.339	80.003	19.995	103.145	19.961	5.199	0.518
463.500	294.612	80.004	19.996	103.147	19.960	5.256	0.528
464.000	294.823	80.002	19.995	103.150	19.961	5.151	0.511
464.500	295.088	80.003	19.995	103.152	19.958	5.398	0.480
465.000	295.319	80.004	19.997	103.150	19.959	5.325	0.486
465.500	295.567	80.003	19.996	103.150	19.960	5.212	0.487
466.000	295.837	80.004	19.996	103.150	19.961	5.141	0.498
466.500	296.099	80.003	19.996	103.148	19.960	5.207	0.525
467.000	296.344	80.002	19.995	103.146	19.960	5.270	0.519
467.500	296.591	80.002	19.994	103.146	19.958	5.387	0.499
468.000	296.844	80.004	19.996	103.147	19.957	5.437	0.496
468.500	297.090	80.004	19.995	103.145	19.960	5.235	0.500
469.000	297.360	80.003	19.994	103.144	19.958	5.400	0.508
469.500	297.576	80.004	19.995	103.144	19.960	5.251	0.501
470.000	297.844	80.002	19.996	103.145	19.956	5.537	0.485
470.500	298.118	80.003	19.996	103.146	19.958	5.406	0.513
471.000	298.339	80.002	19.995	103.146	19.955	5.564	0.518
471.500	298.625	80.002	19.995	103.146	19.955	5.614	0.501
472.000	298.894	80.002	19.994	103.145	19.958	5.397	0.531
472.500	299.128	80.003	19.994	103.145	19.956	5.485	0.529
473.000	299.362	80.002	19.994	103.143	19.956	5.542	0.486
473.500	299.580	80.002	19.994	103.143	19.956	5.533	0.460
474.000	299.878	79.999	19.995	103.143	19.958	5.391	0.484
474.500	300.119	80.001	19.994	103.143	19.957	5.418	0.528
475.000	300.361	80.000	19.994	103.143	19.955	5.619	0.511
475.500	300.600	80.000	19.994	103.144	19.959	5.336	0.482
476.000	300.868	80.001	19.994	103.144	19.955	5.591	0.494
476.500	301.088	80.000	19.995	103.145	19.957	5.458	0.498
477.000	301.345	80.000	19.995	103.148	19.956	5.485	0.483
477.500	301.618	80.000	19.994	103.148	19.953	5.736	0.503
478.000	301.829	80.000	19.995	103.149	19.959	5.283	0.507
478.500	302.106	80.000	19.994	103.148	19.954	5.667	0.486
479.000	302.343	80.001	19.994	103.148	19.959	5.276	0.501
479.500	302.601	80.001	19.995	103.146	19.958	5.402	0.504
480.000	302.864	80.001	19.995	103.146	19.956	5.531	0.508
480.500	303.151	80.001	19.994	103.151	19.957	5.470	0.536
481.000	303.347	80.001	19.994	103.153	19.958	5.408	0.517
481.500	303.604	80.002	19.993	103.153	19.959	5.310	0.468
482.000	303.871	80.000	19.995	103.153	19.959	5.285	0.488
482.501	304.120	80.001	19.994	103.154	19.958	5.389	0.520
483.001	304.332	80.000	19.995	103.149	19.956	5.517	0.489
483.500	304.589	80.000	19.994	103.148	19.956	5.548	0.466
484.000	304.830	80.000	19.993	103.150	19.955	5.560	0.484
484.500	305.082	80.001	19.994	103.151	19.954	5.640	0.496
485.000	305.299	80.000	19.995	103.150	19.958	5.397	0.480
485.500	305.591	80.001	19.994	103.150	19.957	5.439	0.489
486.000	305.808	80.001	19.994	103.153	19.954	5.652	0.509
486.500	306.068	79.999	19.995	103.157	19.959	5.320	0.493
487.000	306.316	80.000	19.994	103.156	19.960	5.253	0.492
487.500	306.573	80.000	19.995	103.156	19.956	5.541	0.506
488.000	306.835	80.000	19.994	103.155	19.956	5.510	0.512
488.500	307.093	80.001	19.995	103.150	19.958	5.364	0.519
489.000	307.320	80.001	19.996	103.145	19.957	5.441	0.503
489.500	307.539	80.000	19.995	103.146	19.958	5.372	0.466
490.000	307.792	79.999	19.995	103.146	19.955	5.604	0.459
490.500	308.103	80.000	19.995	103.148	19.960	5.258	0.518
491.000	308.319	80.000	19.995	103.149	19.958	5.360	0.546
491.500	308.559	80.001	19.995	103.151	19.959	5.281	0.491
492.000	308.817	80.001	19.994	103.151	19.959	5.314	0.477
492.500	309.037	80.001	19.994	103.150	19.959	5.335	0.488
493.000	309.289	80.002	19.995	103.150	19.959	5.280	0.476
493.500	309.532	80.001	19.993	103.149	19.957	5.433	0.483
494.000	309.801	80.001	19.995	103.148	19.959	5.339	0.503
494.500	310.028	80.001	19.995	103.148	19.959	5.283	0.504
495.000	310.267	80.001	19.994	103.149	19.956	5.496	0.482
495.500	310.523	80.001	19.994	103.150	19.954	5.671	0.480
496.000	310.773	80.001	19.993	103.150	19.956	5.487	0.500
496.500	311.004	79.999	19.994	103.151	19.958	5.376	0.494
497.000	311.252	80.001	19.995	103.152	19.957	5.439	0.481
497.500	311.492	80.001	19.994	103.151	19.956	5.550	0.483
498.000	311.744	79.999	19.995	103.151	19.957	5.414	0.490
498.500	312.028	80.000	19.994	103.151	19.958	5.358	0.514
499.000	312.263	80.001	19.994	103.150	19.958	5.395	0.527
499.500	312.523	80.001	19.995	103.149	19.958	5.353	0.507
500.000	312.770	80.000	19.994	103.148	19.960	5.247	0.501
500.500	313.041	80.001	19.994	103.149	19.956	5.523	0.513
501.000	313.289	79.999	19.994	103.149	19.956	5.487	0.518
501.500	313.499	79.999	19.994	103.148	19.956	5.546	0.489
502.000	313.779	80.000	19.995	103.148	19.957	5.452	0.474
502.500	314.018	80.000	19.995	103.148	19.959	5.316	0.504
503.000	314.247	80.001	19.993	103.147	19.956	5.540	0.493
503.500	314.489	80.001	19.994	103.148	19.956	5.504	0.469
504.000	314.743	80.000	19.993	103.148	19.959	5.318	0.483
504.500	314.997	79.999	19.994	103.147	19.957	5.471	0.502
505.000	315.239	80.000	19.994	103.148	19.958	5.343	0.502
505.500	315.504	80.000	19.994	103.148	19.956	5.498	0.501
506.000	315.735	80.000	19.993	103.148	19.957	5.458	0.501
506.500	315.982	80.000	19.995	103.149	19.957	5.452	0.487
507.000	316.279	80.000	19.994	103.149	19.960	5.253	0.511
507.500	316.480	80.000	19.993	103.149	19.960	5.270	0.521
508.000	316.716	80.001	19.994	103.150	19.958	5.373	0.467
508.500	316.983	80.001	19.995	103.149	19.958	5.396	0.470
509.000	317.206	80.000	19.995	103.149	19.957	5.464	0.497
509.500	317.431	80.000	19.994	103.150	19.955	5.579	0.469
510.000	317.695	79.999	19.995	103.149	19.958	5.349	0.469
510.500	317.965	80.001	19.995	103.150	19.956	5.512	0.511
511.000	318.214	80.001	19.994	103.149	19.957	5.435	0.526
511.500	318.450	80.001	19.995	103.149	19.954	5.632	0.502
512.000	318.672	80.001	19.996	103.148	19.956	5.496	0.472
512.500	318.921	80.001	19.994	103.148	19.959	5.272	0.464
513.000	319.187	80.002	19.995	103.147	19.958	5.360	0.492
513.500	319.439	80.003	19.994	103.146	19.959	5.323	0.516
514.000	319.676	80.002	19.995	103.146	19.956	5.510	0.504
514.500	319.938	80.002	19.995	103.146	19.958	5.406	0.494
515.000	320.167	80.003	19.994	103.145	19.958	5.408	0.495
515.500	320.427	80.002	19.994	103.146	19.959	5.281	0.490
516.000	320.660	80.003	19.994	103.146	19.960	5.226	0.491
516.500	320.925	80.003	19.995	103.147	19.958	5.390	0.495
517.000	321.160	80.001	19.993	103.146	19.958	5.343	0.499
517.500	321.414	80.003	19.994	103.146	19.958	5.352	0.495
518.000	321.664	80.002	19.993	103.145	19.958	5.412	0.496
518.500	321.928	80.001	19.995	103.145	19.957	5.442	0.509
519.001	322.162	80.002	19.994	103.145	19.960	5.233	0.506
519.501	322.433	80.002	19.996	103.146	19.958	5.394	0.501
520.000	322.666	80.002	19.995	103.148	19.959	5.337	0.504
520.500	322.938	80.002	19.995	103.148	19.957	5.483	0.505
521.000	323.167	80.002	19.995	103.148	19.958	5.352	0.503
521.500	323.422	80.003	19.995	103.147	19.961	5.191	0.493
522.000	323.689	80.004	19.996	103.146	19.960	5.216	0.503
522.500	323.949	80.001	19.995	103.144	19.957	5.458	0.525
523.000	324.171	80.001	19.996	103.144	19.957	5.429	0.504
523.500	324.437	80.002	19.995	103.144	19.956	5.546	0.485
524.000	324.637	80.004	19.995	103.145	19.960	5.270	0.477
524.500	324.892	80.001	19.995	103.145	19.959	5.299	0.461
525.000	325.123	80.001	19.995	103.145	19.959	5.320	0.470
525.500	325.403	80.002	19.995	103.145	19.957	5.426	0.498
526.000	325.646	80.003	19.995	103.144	19.958	5.407	0.517
526.500	325.880	80.002	19.995	103.143	19.957	5.477	0.500
527.000	326.136	80.002	19.995	103.142	19.957	5.445	0.484
527.500	326.412	80.002	19.995	103.142	19.956	5.556	0.511
528.000	326.653	80.002	19.994	103.142	19.958	5.371	0.525
528.500	326.910	80.001	19.995	103.142	19.957	5.464	0.508
529.000	327.128	80.001	19.996	103.143	19.958	5.392	0.487
529.500	327.391	80.002	19.996	103.143	19.956	5.503	0.478
530.000	327.609	80.002	19.996	103.144	19.955	5.555	0.481
530.500	327.849	80.001	19.996	103.142	19.960	5.263	0.470
531.000	328.135	80.002	19.996	103.142	19.957	5.467	0.492
531.500	328.384	80.001	19.996	103.142	19.958	5.404	0.531
532.000	328.622	80.002	19.996	103.143	19.956	5.502	0.511
532.500	328.890	80.001	19.995	103.142	19.954	5.686	0.497
533.000	329.150	80.002	19.996	103.144	19.954	5.684	0.517
533.500	329.375	80.001	19.996	103.147	19.954	5.673	0.506
534.000	329.625	80.002	19.995	103.148	19.960	5.264	0.479
534.500	329.895	80.000	19.996	103.147	19.961	5.195	0.497
535.000	330.109	80.001	19.996	103.148	19.957	5.423	0.502
535.500	330.376	80.002	19.996	103.148	19.955	5.565	0.482
536.000	330.609	80.001	19.994	103.145	19.957	5.456	0.491
536.500	330.867	80.003	19.996	103.153	19.952	5.790	0.496
537.000	331.105	80.003	19.996	103.169	19.957	5.433	0.493
537.500	331.349	80.002	19.995	103.182	19.953	5.713	0.488
538.000	331.609	80.002	19.995	103.188	19.956	5.492	0.493
538.500	331.872	80.002	19.995	103.187	19.958	5.368	0.514
539.000	332.114	80.001	19.995	103.171	19.957	5.435	0.514
539.500	332.344	80.003	19.994	103.148	19.956	5.498	0.489
540.000	332.589	80.001	19.996	103.132	19.956	5.498	0.474
540.500	332.874	80.002	19.994	103.126	19.956	5.510	0.502
541.000	333.108	80.003	19.995	103.125	19.957	5.454	0.524
541.500	333.401	80.002	19.995	103.133	19.957	5.464	0.523
542.000	333.625	80.002	19.995	103.139	19.957	5.465	0.522
542.500	333.890	80.003	19.994	103.143	19.958	5.383	0.503
543.000	334.133	80.002	19.994	103.143	19.956	5.498	0.499
543.500	334.378	80.003	19.995	103.144	19.955	5.621	0.498
544.000	334.637	80.002	19.994	103.144	19.952	5.824	0.496
544.500	334.860	80.003	19.994	103.145	19.954	5.663	0.493
545.000	335.132	80.003	19.994	103.144	19.954	5.647	0.489
545.500	335.362	80.003	19.995	103.144	19.956	5.508	0.499
546.000	335.648	80.004	19.994	103.144	19.953	5.736	0.509
546.501	335.889	80.003	19.995	103.145	19.953	5.745	0.522
547.001	336.118	80.004	19.995	103.144	19.954	5.652	0.499
547.500	336.347	80.004	19.994	103.145	19.954	5.646	0.464
548.000	336.626	80.002	19.995	103.144	19.953	5.763	0.483
548.500	336.824	80.004	19.995	103.144	19.954	5.677	0.492
549.000	337.086	80.004	19.995	103.144	19.953	5.730	0.468
549.500	337.368	80.002	19.995	103.145	19.955	5.613	0.502
550.000	337.595	80.003	19.994	103.146	19.955	5.579	0.526
550.500	337.862	80.003	19.995	103.146	19.955	5.613	0.501
551.000	338.108	80.002	19.996	103.146	19.955	5.613	0.504
551.500	338.390	80.003	19.994	103.146	19.957	5.452	0.520
552.000	338.600	80.003	19.995	103.146	19.954	5.655	0.510
552.500	338.868	80.002	19.996	103.145	19.951	5.847	0.485
553.000	339.149	80.003	19.996	103.145	19.953	5.730	0.514
553.500	339.383	80.002	19.996	103.147	19.953	5.738	0.532
554.000	339.635	80.003	19.996	103.146	19.953	5.723	0.500
554.500	339.879	80.002	19.995	103.146	19.955	5.602	0.491
555.000	340.131	80.001	19.995	103.147	19.954	5.652	0.496
555.500	340.395	80.002	19.996	103.144	19.951	5.844	0.506
556.000	340.613	80.000	19.995	103.141	19.954	5.650	0.499
556.500	340.841	80.000	19.995	103.142	19.957	5.462	0.464
557.000	341.158	80.001	19.996	103.142	19.956	5.489	0.495
557.500	341.398	80.000	19.996	103.143	19.954	5.678	0.551
558.000	341.680	80.001	19.995	103.146	19.955	5.618	0.539
558.500	341.868	80.001	19.998	103.147	19.954	5.649	0.496
559.000	342.171	80.001	19.995	103.149	19.951	5.844	0.481
559.500	342.384	80.000	19.995	103.150	19.952	5.773	0.504
560.000	342.633	80.000	19.994	103.150	19.954	5.686	0.490
560.500	342.843	80.000	19.995	103.150	19.955	5.617	0.460
561.000	343.107	80.002	19.996	103.149	19.957	5.462	0.466
561.500	343.379	80.000	19.995	103.146	19.952	5.801	0.505
562.000	343.606	80.001	19.996	103.146	19.954	5.636	0.518
562.500	343.870	80.002	19.995	103.145	19.957	5.414	0.495
563.000	344.119	80.001	19.994	103.145	19.955	5.615	0.502
563.500	344.377	80.000	19.995	103.147	19.957	5.423	0.510
564.000	344.614	80.001	19.996	103.147	19.957	5.437	0.501
564.500	344.882	80.002	19.994	103.148	19.955	5.619	0.500
565.000	345.145	80.001	19.994	103.149	19.956	5.506	0.518
565.500	345.402	80.001	19.994	103.149	19.954	5.664	0.526
566.000	345.623	80.001	19.994	103.149	19.954	5.669	0.499
566.500	345.859	80.002	19.994	103.149	19.955	5.602	0.467
567.000	346.125	79.999	19.995	103.149	19.954	5.686	0.480
567.501	346.387	80.001	19.994	103.149	19.954	5.641	0.515
568.001	346.620	80.000	19.994	103.156	19.956	5.481	0.512
568.500	346.895	80.000	19.994	103.167	19.951	5.841	0.501
569.000	347.161	80.002	19.994	103.167	19.953	5.727	0.524
569.500	347.409	80.002	19.995	103.165	19.951	5.882	0.527
570.000	347.699	80.002	19.993	103.164	19.953	5.737	0.526
570.500	347.931	80.001	19.995	103.157	19.949	6.001	0.530
571.000	348.174	80.003	19.993	103.144	19.949	6.048	0.499
571.500	348.416	80.001	19.994	103.141	19.952	5.785	0.480
572.000	348.698	80.002	19.994	103.143	19.950	5.924	0.505
572.500	348.939	80.001	19.995	103.143	19.952	5.788	0.524
573.000	349.180	80.002	19.995	103.144	19.951	5.851	0.503
573.500	349.461	80.003	19.994	103.145	19.949	6.041	0.502
574.000	349.715	80.002	19.994	103.147	19.951	5.895	0.528
574.500	349.981	80.001	19.994	103.146	19.950	5.958	0.527
575.000	350.248	80.002	19.993	103.145	19.949	6.003	0.527
575.500	350.485	80.002	19.994	103.145	19.946	6.229	0.519
576.000	350.740	80.002	19.994	103.150	19.946	6.198	0.498
576.500	351.002	80.002	19.994	103.135	19.948	6.062	0.504
577.000	351.294	80.003	19.994	103.109	19.947	6.169	0.536
577.500	351.537	80.003	19.994	103.089	19.949	6.012	0.545
578.000	351.773	80.002	19.995	103.075	19.950	5.958	0.507
578.500	352.028	80.003	19.994	103.060	19.949	5.981	0.485
579.000	352.299	80.002	19.994	103.072	19.950	5.974	0.509
579.500	352.557	80.003	19.994	103.104	19.948	6.091	0.527
580.000	352.796	80.003	19.994	103.159	19.947	6.171	0.513
580.500	353.051	80.003	19.994	103.191	19.948	6.104	0.496
581.000	353.298	80.001	19.996	103.206	19.948	6.116	0.498
581.500	353.600	80.003	19.994	103.209	19.945	6.263	0.525
582.000	353.866	80.002	19.995	103.203	19.946	6.250	0.558
582.500	354.069	80.002	19.994	103.168	19.943	6.415	0.518
583.000	354.381	80.002	19.994	103.151	19.945	6.323	0.492
583.500	354.624	80.002	19.994	103.145	19.942	6.488	0.536
584.000	354.846	80.002	19.995	103.145	19.944	6.363	0.510
584.500	355.103	80.001	19.994	103.145	19.940	6.634	0.472
585.000	355.363	80.001	19.995	103.145	19.942	6.511	0.498
585.500	355.589	80.001	19.995	103.145	19.940	6.622	0.502
586.000	355.903	80.002	19.996	103.145	19.940	6.623	0.513
586.500	356.138	80.001	19.995	103.145	19.941	6.600	0.544
587.000	356.360	80.003	19.995	103.145	19.938	6.797	0.503
587.500	356.614	80.002	19.994	103.144	19.940	6.655	0.467
588.000	356.930	80.002	19.995	103.143	19.938	6.757	0.523
588.500	357.191	80.002	19.994	103.143	19.937	6.861	0.574
589.000	357.461	80.002	19.995	103.144	19.940	6.683	0.554
589.500	357.656	80.002	19.995	103.144	19.937	6.848	0.498
590.000	357.916	80.001	19.995	103.144	19.935	6.986	0.459
590.500	358.150	80.002	19.995	103.145	19.938	6.810	0.475
591.000	358.455	80.001	19.994	103.145	19.936	6.919	0.517
591.500	358.726	80.000	19.994	103.145	19.933	7.151	0.557
592.000	358.955	80.002	19.994	103.144	19.933	7.114	0.537
592.500	359.238	80.001	19.995	103.144	19.932	7.189	0.506
593.000	359.457	80.001	19.994	103.144	19.936	6.934	0.508
593.500	359.704	80.002	19.994	103.144	19.935	7.003	0.484
594.000	359.939	80.001	19.994	103.144	19.933	7.164	0.474
594.500	360.179	80.002	19.994	103.145	19.934	7.086	0.479
595.000	360.475	80.002	19.994	103.145	19.930	7.345	0.506
595.500	360.721	80.002	19.995	103.146	19.927	7.589	0.539
596.000	360.913	80.002	19.994	103.145	19.931	7.255	0.490
596.500	361.233	80.002	19.994	103.141	19.929	7.414	0.475
597.000	361.458	80.003	19.994	103.134	19.925	7.676	0.528
597.500	361.710	80.003	19.994	103.129	19.928	7.510	0.510
598.000	361.940	80.002	19.994	103.123	19.927	7.583	0.480
598.500	362.191	80.001	19.994	103.121	19.921	7.976	0.482
599.000	362.478	80.003	19.994	103.118	19.930	7.370	0.510
599.500	362.736	80.003	19.994	103.124	19.925	7.677	0.541
600.000	363.025	80.003	19.995	103.129	19.920	8.086	0.546
600.500	363.215	80.003	19.995	103.131	19.929	7.422	0.513
601.000	363.467	80.003	19.994	103.134	19.928	7.476	0.461
601.500	363.715	80.003	19.994	103.138	19.914	8.473	0.471
602.000	363.959	80.003	19.994	103.138	19.918	8.226	0.496
602.500	364.240	80.003	19.994	103.137	19.910	8.750	0.509
603.000	364.461	80.004	19.994	103.134	19.914	8.460	0.513
603.500	364.751	80.003	19.993	103.127	19.910	8.747	0.506
604.000	364.968	80.003	19.994	103.125	19.915	8.394	0.509
604.500	365.244	80.003	19.994	103.125	19.920	8.062	0.500
605.000	365.463	80.003	19.994	103.126	19.911	8.670	0.494
605.500	365.755	80.003	19.993	103.131	19.907	8.953	0.503
606.000	365.937	80.003	19.993	103.136	19.907	8.972	0.492
606.500	366.270	80.004	19.994	103.138	19.913	8.593	0.494
607.000	366.521	80.003	19.993	103.135	19.914	8.456	0.550
607.500	366.766	80.003	19.994	103.132	19.909	8.836	0.540
608.000	367.028	80.002	19.994	103.132	19.907	8.972	0.501
608.500	367.203	80.003	19.994	103.135	19.907	8.983	0.472
609.000	367.555	80.004	19.994	103.137	19.908	8.903	0.482
609.500	367.643	80.003	19.994	103.140	19.904	9.172	0.483
610.000	368.094	80.002	19.994	103.146	19.908	8.926	0.489
610.500	368.265	80.002	19.994	103.146	19.900	9.467	0.581
611.000	368.489	80.000	19.994	103.146	19.908	8.942	0.509
611.500	368.650	80.002	19.995	103.145	19.902	9.316	0.390
612.000	368.977	80.002	19.994	103.145	19.900	9.458	0.436
612.500	369.156	80.002	19.995	103.145	19.900	9.508	0.496
613.000	369.683	80.002	19.995	103.146	19.901	9.412	0.605
613.500	369.547	80.001	19.995	103.145	19.900	9.506	0.549
614.000	369.975	80.001	19.995	103.143	19.900	9.510	0.342
614.500	370.364	80.001	19.995	103.139	19.896	9.742	0.554
615.000	370.391	80.001	19.994	103.137	19.897	9.717	0.616
615.500	370.441	80.001	19.995	103.137	19.893	9.943	0.247
616.000	371.185	80.002	19.996	103.138	19.892	10.066	0.436
616.500	371.377	80.003	19.994	103.141	19.892	10.068	0.865
617.000	371.537	80.002	19.995	103.146	19.889	10.283	0.644
617.500	371.495	80.001	19.994	103.148	19.890	10.213	0.235
618.000	371.764	80.001	19.995	103.142	19.886	10.455	0.173
618.500	372.459	80.001	19.995	103.141	19.884	10.587	0.596
619.000	372.787	80.002	19.994	103.141	19.885	10.566	0.993
619.500	372.662	80.003	19.995	103.141	19.884	10.585	0.613
620.000	372.773	80.002	19.996	103.141	19.880	10.862	0.094
620.500	372.967	80.001	19.995	103.146	19.884	10.605	0.145
621.000	373.718	80.003	19.995	103.147	19.879	10.973	0.625
621.500	373.606	80.002	19.995	103.146	19.880	10.923	0.792
622.001	374.069	80.003	19.995	103.146	19.877	11.113	0.495
622.500	374.210	80.003	19.995	103.146	19.875	11.220	0.477
623.000	374.471	80.003	19.994	103.146	19.871	11.563	0.503
623.500	374.736	80.003	19.995	103.146	19.870	11.582	0.464
624.000	375.082	80.002	19.994	103.148	19.868	11.722	0.568
624.500	375.188	80.003	19.994	103.148	19.863	12.100	0.532
625.000	375.517	80.004	19.995	103.149	19.858	12.432	0.444
625.500	375.761	80.005	19.994	103.148	19.860	12.312	0.504
626.000	375.965	80.004	19.995	103.148	19.856	12.572	0.510
626.500	376.274	80.004	19.994	103.148	19.855	12.646	0.481
627.000	376.499	80.005	19.995	103.147	19.851	12.969	0.523
627.500	376.729	80.004	19.995	103.147	19.852	12.876	0.494
628.000	377.012	80.003	19.994	103.147	19.848	13.157	0.484
628.500	377.260	80.003	19.993	103.144	19.847	13.221	0.522
629.000	377.527	80.003	19.994	103.143	19.841	13.623	0.523
629.500	377.743	80.004	19.994	103.143	19.839	13.792	0.499
630.000	377.961	80.005	19.994	103.143	19.832	14.277	0.458
630.500	378.252	80.004	19.994	103.144	19.836	13.997	0.472
631.000	378.464	80.004	19.995	103.145	19.830	14.391	0.506
631.500	378.777	80.003	19.994	103.146	19.827	14.645	0.514
632.000	378.984	80.002	19.994	103.146	19.824	14.819	0.522
632.500	379.240	80.003	19.994	103.146	19.820	15.144	0.491
633.000	379.484	80.003	19.995	103.144	19.814	15.541	0.482
633.500	379.773	80.002	19.994	103.142	19.816	15.443	0.517
634.000	379.982	80.003	19.995	103.137	19.808	15.976	0.516
634.500	380.284	80.003	19.994	103.137	19.798	16.717	0.505
635.000	380.506	80.001	19.995	103.137	19.788	17.413	0.518
635.500	380.763	80.002	19.994	103.138	19.782	17.797	0.501
636.000	381.029	80.001	19.995	103.140	19.771	18.626	0.501
636.500	381.277	80.002	19.995	103.146	19.764	19.083	0.518
637.000	381.525	80.002	19.994	103.155	19.757	19.579	0.505
637.500	381.768	80.000	19.995	103.164	19.761	19.296	0.493
638.000	381.986	80.001	19.995	103.165	19.753	19.910	0.476
638.500	382.261	80.000	19.995	103.162	19.753	19.910	0.478
639.000	382.549	80.003	19.996	103.155	19.755	19.730	0.528
639.500	382.766	80.002	19.996	103.137	19.756	19.690	0.534
640.000	383.056	80.002	19.996	103.121	19.760	19.364	0.506
640.500	383.285	80.001	19.995	103.105	19.762	19.265	0.512
641.000	383.529	80.000	19.994	103.092	19.765	19.059	0.496
641.500	383.797	80.001	19.996	103.081	19.768	18.839	0.493
642.000	384.031	80.000	19.994	103.072	19.771	18.600	0.508
642.500	384.307	80.001	19.996	103.064	19.775	18.312	0.506
643.000	384.554	79.999	19.995	103.064	19.777	18.212	0.516
643.500	384.802	80.000	19.996	103.071	19.775	18.344	0.509
644.000	385.015	80.000	19.996	103.082	19.780	17.941	0.478
644.500	385.305	80.000	19.995	103.091	19.782	17.799	0.482
645.000	385.590	80.002	19.996	103.108	19.780	17.948	0.539
645.500	385.813	80.001	19.996	103.125	19.778	18.122	0.541
646.000	386.057	80.001	19.996	103.109	19.779	18.014	0.487
646.500	386.328	80.001	19.996	103.103	19.774	18.366	0.491
647.001	386.554	80.001	19.996	103.108	19.777	18.164	0.506
647.501	386.817	80.001	19.996	103.111	19.775	18.319	0.493
648.000	387.081	80.002	19.996	103.117	19.770	18.654	0.508
648.500	387.317	80.001	19.996	103.170	19.767	18.842	0.514
649.000	387.552	80.001	19.995	103.219	19.768	18.811	0.485
649.500	387.854	80.002	19.995	103.240	19.761	19.291	0.504
650.000	388.107	80.002	19.996	103.243	19.761	19.332	0.546
650.500	388.354	80.001	19.995	103.236	19.752	19.901	0.527
651.000	388.625	80.001	19.996	103.206	19.746	20.396	0.509
651.500	388.857	80.002	19.996	103.170	19.743	20.570	0.510
652.000	389.116	80.000	19.995	103.153	19.732	21.381	0.497
652.500	389.359	80.001	19.995	103.145	19.722	22.073	0.497
653.000	389.583	80.000	19.996	103.144	19.713	22.686	0.484
653.500	389.806	80.001	19.995	103.150	19.707	23.163	0.457
654.000	390.107	80.001	19.995	103.151	19.701	23.529	0.486
654.500	390.350	80.002	19.995	103.150	19.698	23.780	0.534
655.000	390.606	80.002	19.995	103.149	19.690	24.377	0.521
655.500	390.874	80.001	19.995	103.149	19.686	24.622	0.511
656.000	391.095	80.001	19.995	103.144	19.682	24.893	0.507
656.500	391.360	80.001	19.995	103.137	19.682	24.890	0.488
657.000	391.619	80.002	19.994	103.124	19.679	25.143	0.505
657.500	391.839	80.001	19.994	103.110	19.678	25.172	0.502
658.000	392.126	80.002	19.994	103.096	19.680	25.058	0.493
658.500	392.370	80.003	19.994	103.080	19.679	25.079	0.518
659.000	392.673	80.001	19.994	103.071	19.679	25.100	0.539
659.500	392.906	80.002	19.994	103.070	19.676	25.348	0.542
660.000	393.130	80.000	19.995	103.071	19.677	25.229	0.497
660.500	393.397	80.002	19.994	103.070	19.674	25.481	0.474
661.000	393.662	80.002	19.995	103.074	19.669	25.829	0.511
661.500	393.927	80.001	19.995	103.082	19.662	26.328	0.531
662.000	394.175	80.000	19.995	103.096	19.658	26.593	0.521
662.500	394.416	80.001	19.995	103.112	19.653	26.984	0.501
663.000	394.656	80.000	19.995	103.129	19.649	27.216	0.485
663.500	394.894	80.000	19.995	103.146	19.637	28.102	0.480
664.000	395.170	80.002	19.995	103.160	19.629	28.656	0.496
664.500	395.411	80.001	19.995	103.171	19.623	29.047	0.516
665.000	395.646	80.001	19.995	103.180	19.614	29.691	0.496
665.500	395.916	80.002	19.995	103.187	19.607	30.164	0.491
666.000	396.154	80.001	19.996	103.188	19.599	30.737	0.507
666.500	396.372	80.000	19.995	103.184	19.596	30.973	0.482
667.000	396.619	80.001	19.994	103.179	19.590	31.368	0.460
667.500	396.917	80.001	19.995	103.171	19.586	31.646	0.505
668.000	397.149	80.001	19.995	103.163	19.582	31.949	0.538
668.500	397.400	80.001	19.996	103.148	19.579	32.199	0.506
669.000	397.665	79.999	19.995	103.136	19.572	32.670	0.499
669.500	397.891	80.001	19.997	103.123	19.563	33.330	0.503
670.000	398.117	80.000	19.995	103.113	19.549	34.315	0.471
670.500	398.366	80.001	19.997	103.108	19.536	35.231	0.464
671.000	398.616	80.002	19.994	103.114	19.517	36.582	0.487
671.500	398.846	80.000	19.994	103.118	19.500	37.798	0.489
672.000	399.131	80.000	19.994	103.129	19.484	38.945	0.498
672.500	399.382	80.001	19.995	103.145	19.471	39.802	0.526
673.000	399.598	80.000	19.996	103.167	19.465	40.279	0.501
673.500	399.869	80.000	19.995	103.184	19.462	40.454	0.476
674.000	400.141	80.001	19.995	103.190	19.456	40.927	0.515
674.500	400.367	80.001	19.995	103.185	19.454	41.078	0.521
675.000	400.554	80.001	19.995	103.169	19.450	41.315	0.456
675.500	400.847	80.001	19.994	103.147	19.446	41.569	0.447
676.000	401.110	80.001	19.994	103.125	19.440	41.985	0.518
676.500	401.315	80.002	19.994	103.115	19.428	42.883	0.512
677.000	401.588	80.002	19.995	103.110	19.415	43.754	0.473
677.500	401.793	80.002	19.995	103.110	19.401	44.791	0.478
678.000	402.044	80.002	19.995	103.110	19.384	45.987	0.467
678.500	402.310	80.002	19.995	103.110	19.366	47.274	0.486
679.000	402.542	80.003	19.994	103.114	19.352	48.271	0.508
679.500	402.798	80.002	19.995	103.128	19.340	49.078	0.493
680.000	403.060	80.003	19.995	103.146	19.333	49.618	0.503
680.500	403.287	80.003	19.995	103.158	19.330	49.808	0.504
681.000	403.513	80.002	19.994	103.167	19.320	50.522	0.471
681.500	403.754	80.002	19.995	103.173	19.310	51.195	0.460
682.000	404.007	80.004	19.993	103.174	19.295	52.287	0.481
682.500	404.258	80.003	19.995	103.173	19.274	53.767	0.499
683.000	404.501	80.003	19.994	103.175	19.253	55.231	0.499
683.500	404.793	80.004	19.994	103.182	19.231	56.781	0.515
684.000	405.003	80.003	19.994	103.186	19.211	58.215	0.518
684.500	405.261	80.003	19.995	103.193	19.194	59.443	0.485
685.000	405.478	80.004	19.996	103.199	19.178	60.588	0.471
685.500	405.728	80.005	19.996	103.198	19.163	61.676	0.471
686.000	406.003	80.004	19.994	103.190	19.148	62.732	0.497
686.500	406.220	80.004	19.994	103.179	19.132	63.826	0.509
687.000	406.477	80.003	19.994	103.157	19.117	64.924	0.483
687.500	406.709	80.004	19.994	103.138	19.094	66.524	0.481
688.000	406.934	80.002	19.994	103.135	19.069	68.290	0.472
688.500	407.192	80.001	19.994	103.147	19.052	69.494	0.470
689.000	407.449	80.002	19.993	103.165	19.034	70.774	0.499
689.500	407.705	80.002	19.993	103.181	19.016	72.034	0.514
690.001	407.965	80.002	19.994	103.192	19.002	73.074	0.515
690.501	408.191	80.003	19.993	103.197	18.984	74.345	0.501
691.000	408.442	80.003	19.994	103.192	18.966	75.613	0.481
691.500	408.658	80.001	19.994	103.180	18.952	76.576	0.472
692.000	408.927	80.003	19.995	103.163	18.935	77.743	0.476
692.500	409.174	80.003	19.994	103.140	18.917	79.002	0.501
693.000	409.434	80.003	19.993	103.128	18.896	80.505	0.512
693.500	409.668	80.003	19.994	103.134	18.875	81.994	0.501
694.000	409.927	80.001	19.994	103.139	18.850	83.735	0.493
694.500	410.143	80.002	19.993	103.158	18.826	85.424	0.484
695.000	410.434	80.003	19.994	103.192	18.804	87.022	0.491
695.500	410.693	80.001	19.995	103.216	18.776	89.001	0.528
696.000	410.908	80.003	19.994	103.207	18.745	91.198	0.512
696.500	411.141	80.002	19.995	103.209	18.718	93.140	0.461
697.000	411.392	80.002	19.994	103.212	18.693	94.942	0.466
697.500	411.669	80.002	19.995	103.206	18.658	97.411	0.506
698.000	411.890	80.002	19.995	103.209	18.629	99.466	0.513
698.500	412.143	80.003	19.995	103.214	18.596	101.777	0.486
699.000	412.358	80.001	19.994	103.212	18.564	104.072	0.472
699.500	412.627	80.002	19.994	103.225	18.529	106.548	0.476
700.000	412.875	80.004	19.996	103.236	18.498	108.721	0.500
700.500	413.142	80.003	19.994	103.223	18.467	110.919	0.516
701.000	413.361	80.003	19.994	103.236	18.440	112.868	0.501
701.500	413.596	80.003	19.993	103.241	18.411	114.863	0.470
702.000	413.858	80.005	19.994	103.213	18.386	116.670	0.476
702.500	414.121	80.003	19.994	103.189	18.357	118.655	0.511
703.000	414.326	80.004	19.995	103.183	18.328	120.729	0.496
703.500	414.596	80.003	19.994	103.164	18.298	122.830	0.471
704.000	414.858	80.004	19.994	103.148	18.268	125.005	0.503
704.500	415.068	80.001	19.994	103.143	18.230	127.693	0.502
705.000	415.314	80.004	19.996	103.156	18.194	130.286	0.465
705.500	415.599	80.003	19.996	103.160	18.156	132.942	0.494
706.000	415.798	80.003	19.995	103.171	18.117	135.711	0.508
706.500	416.076	80.004	19.995	103.191	18.082	138.165	0.481
707.000	416.331	80.004	19.996	103.212	18.041	141.091	0.505
707.500	416.572	80.003	19.994	103.218	18.007	143.517	0.515
708.000	416.798	80.004	19.995	103.225	17.970	146.135	0.482
708.500	417.072	80.004	19.996	103.232	17.937	148.501	0.483
709.000	417.361	80.004	19.995	103.237	17.900	151.134	0.531
709.500	417.556	80.004	19.995	103.236	17.862	153.764	0.524
710.000	417.837	80.005	19.994	103.236	17.826	156.377	0.480
710.500	418.055	80.004	19.995	103.239	17.789	158.943	0.488
711.000	418.298	80.003	19.995	103.237	17.751	161.670	0.480
711.500	418.550	80.003	19.994	103.241	17.714	164.293	0.478
712.000	418.811	80.004	19.994	103.241	17.678	166.804	0.504
712.500	419.071	80.004	19.995	103.224	17.639	169.637	0.517
713.000	419.310	80.003	19.994	103.218	17.596	172.656	0.510
713.501	419.551	80.003	19.996	103.204	17.556	175.478	0.490
714.000	419.821	80.002	19.996	103.192	17.512	178.612	0.496
714.500	420.094	80.003	19.995	103.200	17.469	181.620	0.527
715.000	420.320	80.002	19.995	103.224	17.428	184.577	0.521
715.500	420.582	80.001	19.994	103.230	17.386	187.492	0.494
716.000	420.831	80.002	19.994	103.240	17.343	190.583	0.499
716.500	421.045	80.001	19.995	103.254	17.303	193.385	0.487
717.000	421.332	80.001	19.995	103.249	17.259	196.520	0.482
717.500	421.560	80.002	19.995	103.245	17.217	199.516	0.508
718.000	421.826	80.002	19.994	103.257	17.174	202.582	0.504
718.500	422.050	80.001	19.995	103.262	17.127	205.928	0.492
719.000	422.283	80.001	19.994	103.254	17.083	209.025	0.473
719.500	422.527	80.002	19.995	103.262	17.035	212.416	0.467
720.000	422.791	80.002	19.995	103.260	16.991	215.498	0.492
720.500	423.043	80.001	19.996	103.259	16.942	219.030	0.512
721.000	423.257	80.002	19.995	103.266	16.893	222.475	0.492
721.500	423.570	80.001	19.994	103.265	16.843	226.058	0.497
722.000	423.768	80.001	19.994	103.261	16.794	229.500	0.519
722.500	424.051	80.002	19.995	103.262	16.742	233.184	0.496
723.000	424.261	80.001	19.995	103.269	16.695	236.575	0.488
723.500	424.523	80.002	19.995	103.275	16.643	240.211	0.483
724.000	424.756	80.002	19.996	103.279	16.595	243.574	0.483
724.500	425.005	80.002	19.995	103.286	16.545	247.117	0.489
725.000	425.269	80.001	19.994	103.287	16.495	250.718	0.498
725.500	425.537	80.002	19.996	103.275	16.441	254.477	0.522
726.000	425.772	80.002	19.995	103.270	16.389	258.141	0.518
726.500	426.028	80.001	19.995	103.275	16.338	261.820	0.497
727.000	426.226	80.001	19.995	103.271	16.286	265.475	0.472
727.500	426.534	80.001	19.996	103.276	16.232	269.269	0.480
728.000	426.771	80.001	19.996	103.283	16.176	273.292	0.526
728.500	427.027	80.000	19.995	103.287	16.122	277.094	0.519
729.000	427.271	80.000	19.996	103.289	16.067	280.973	0.496
729.500	427.531	80.001	19.996	103.293	16.010	285.027	0.502
730.000	427.805	80.001	19.996	103.291	15.956	288.810	0.520
730.500	428.001	80.001	19.995	103.288	15.893	293.246	0.502
731.000	428.249	80.000	19.996	103.285	15.845	296.635	0.457
731.500	428.504	80.000	19.996	103.297	15.784	300.990	0.474
732.000	428.772	80.000	19.995	103.308	15.727	304.988	0.513
732.500	428.979	79.999	19.995	103.310	15.672	308.944	0.499
733.000	429.263	80.001	19.996	103.309	15.617	312.741	0.483
733.500	429.506	80.001	19.995	103.311	15.561	316.847	0.509
734.000	429.758	80.001	19.995	103.314	15.505	320.665	0.511
734.500	429.984	80.001	19.996	103.303	15.448	324.824	0.487
735.000	430.238	80.000	19.994	103.292	15.392	328.642	0.479
735.500	430.507	80.000	19.995	103.294	15.338	332.598	0.501
736.000	430.752	80.000	19.995	103.309	15.282	336.404	0.518
736.500	430.972	80.000	19.995	103.284	15.226	340.472	0.490
737.000	431.243	80.001	19.995	103.278	15.173	344.151	0.478
737.500	431.495	80.001	19.995	103.303	15.117	348.167	0.508
738.000	431.715	80.000	19.995	103.290	15.065	351.853	0.498
738.500	431.984	80.000	19.996	103.273	15.010	355.767	0.480
739.000	432.272	80.001	19.996	103.296	14.960	359.253	0.523
739.500	432.501	80.000	19.995	103.289	14.909	362.866	0.537
740.000	432.724	80.000	19.995	103.284	14.857	366.579	0.484
740.500	432.972	80.000	19.996	103.292	14.803	370.480	0.462
741.000	433.249	80.000	19.996	103.285	14.751	374.149	0.498
741.500	433.506	79.998	19.995	103.282	14.698	377.890	0.529
742.000	433.737	80.001	19.995	103.278	14.648	381.493	0.511
742.500	433.953	80.001	19.995	103.283	14.596	385.115	0.468
743.000	434.219	80.000	19.996	103.269	14.549	388.434	0.464
743.500	434.466	80.000	19.995	103.289	14.502	391.799	0.497
744.000	434.706	80.001	19.996	103.263	14.456	395.037	0.500
744.500	434.936	80.001	19.994	103.291	14.411	398.249	0.479
745.000	435.223	80.001	19.995	103.259	14.369	401.182	0.494
745.500	435.430	79.998	19.994	103.284	14.327	404.152	0.506
746.000	435.709	80.002	19.994	103.251	14.285	407.196	0.490
746.500	435.990	80.000	19.995	103.277	14.246	409.924	0.522
747.000	436.202	80.000	19.996	103.246	14.208	412.625	0.526
747.500	436.454	80.000	19.995	103.274	14.171	415.323	0.479
748.001	436.708	80.001	19.995	103.251	14.131	418.114	0.485
748.500	436.949	80.002	19.994	103.271	14.095	420.719	0.501
749.000	437.216	80.002	19.995	103.258	14.059	423.275	0.501
749.500	437.465	80.001	19.995	103.264	14.025	425.719	0.512
750.000	437.706	80.001	19.995	103.261	13.993	428.061	0.503
750.500	437.947	80.001	19.994	103.259	13.963	430.150	0.486
751.000	438.230	80.001	19.994	103.270	13.935	432.196	0.503
751.500	438.459	80.002	19.994	103.275	13.911	433.908	0.518
752.000	438.695	80.000	19.994	103.277	13.888	435.514	0.489
752.500	438.989	80.001	19.994	103.282	13.868	436.995	0.497
753.000	439.218	80.000	19.995	103.287	13.854	438.014	0.526
753.500	439.466	80.001	19.994	103.276	13.839	439.095	0.500
754.000	439.766	80.001	19.995	103.283	13.819	440.528	0.513
754.500	439.987	80.000	19.994	103.279	13.810	441.214	0.535
755.000	440.271	80.001	19.994	103.277	13.800	441.978	0.513
755.500	440.506	80.003	19.995	103.292	13.795	442.341	0.512
756.000	440.731	80.002	19.995	103.278	13.788	442.869	0.490
756.500	440.998	80.001	19.996	103.277	13.787	442.938	0.476
757.000	441.241	80.001	19.994	103.292	13.787	443.004	0.501
757.500	441.476	80.000	19.995	103.275	13.788	442.850	0.494
758.000	441.737	80.000	19.994	103.287	13.791	442.734	0.487
758.500	441.994	80.002	19.994	103.300	13.798	442.172	0.507
759.000	442.257	80.002	19.995	103.298	13.808	441.454	0.519
759.500	442.540	80.002	19.995	103.316	13.815	440.995	0.533
760.000	442.790	80.003	19.994	103.317	13.830	439.954	0.539
760.500	443.026	80.003	19.994	103.323	13.840	439.243	0.509
761.000	443.296	80.003	19.993	103.339	13.857	438.026	0.496
761.500	443.554	80.001	19.994	103.333	13.879	436.532	0.517
762.000	443.816	80.003	19.995	103.344	13.896	435.253	0.524
762.500	444.054	80.002	19.994	103.353	13.918	433.688	0.510
763.000	444.302	80.002	19.995	103.346	13.937	432.337	0.492
763.500	444.568	80.003	19.994	103.356	13.959	430.790	0.500
764.000	444.834	80.004	19.995	103.358	13.983	429.133	0.523
764.500	445.110	80.002	19.995	103.364	14.008	427.302	0.537
765.000	445.350	80.002	19.995	103.375	14.037	425.311	0.529
765.500	445.585	80.002	19.994	103.383	14.065	423.338	0.495
766.000	445.868	80.003	19.995	103.390	14.097	421.093	0.497
766.500	446.161	80.003	19.995	103.399	14.128	418.891	0.548
767.000	446.423	80.002	19.994	103.406	14.160	416.643	0.566
767.500	446.648	80.004	19.996	103.404	14.193	414.215	0.520
768.000	446.972	80.002	19.995	103.413	14.232	411.514	0.517
768.500	447.213	80.002	19.995	103.400	14.270	408.831	0.557
769.000	447.449	80.004	19.995	103.414	14.306	406.194	0.521
769.500	447.704	80.003	19.995	103.401	14.348	403.279	0.485
770.000	447.987	80.001	19.995	103.409	14.389	400.375	0.515
770.500	448.241	80.003	19.995	103.410	14.430	397.384	0.537
771.000	448.541	80.002	19.994	103.412	14.476	394.148	0.545
771.500	448.795	80.003	19.994	103.421	14.522	390.925	0.554
772.001	449.027	80.003	19.995	103.412	14.568	387.544	0.520
772.501	449.305	80.003	19.995	103.421	14.617	384.089	0.498
773.000	449.567	80.002	19.996	103.410	14.667	380.589	0.525
773.500	449.816	80.003	19.996	103.414	14.718	376.902	0.525
774.000	450.095	80.002	19.994	103.410	14.766	373.443	0.520
774.500	450.405	80.002	19.995	103.408	14.815	370.013	0.559
775.000	450.657	80.002	19.996	103.421	14.869	366.188	0.575
775.500	450.893	80.002	19.996	103.416	14.924	362.238	0.525
776.000	451.182	80.002	19.994	103.429	14.973	358.765	0.507
776.501	451.410	80.003	19.995	103.426	15.034	354.451	0.521
777.000	451.665	80.002	19.995	103.430	15.089	350.517	0.500
777.501	451.949	80.001	19.994	103.429	15.144	346.601	0.511
778.001	452.196	80.002	19.995	103.432	15.201	342.580	0.535
778.500	452.523	80.003	19.994	103.420	15.256	338.671	0.553
779.000	452.704	80.002	19.995	103.434	15.313	334.602	0.542
779.500	453.018	80.002	19.994	103.438	15.372	330.417	0.501
780.000	453.277	80.001	19.995	103.422	15.428	326.426	0.534
780.500	453.567	80.003	19.994	103.441	15.490	322.025	0.561
781.000	453.835	80.003	19.995	103.437	15.551	317.636	0.554
781.500	454.073	80.004	19.995	103.414	15.610	313.458	0.532
782.000	454.354	80.003	19.995	103.423	15.670	309.169	0.512
782.500	454.593	80.003	19.994	103.422	15.731	304.824	0.519
783.000	454.886	80.004	19.995	103.397	15.791	300.575	0.526
783.500	455.132	80.004	19.994	103.397	15.852	296.201	0.535
784.000	455.434	80.003	19.994	103.405	15.911	292.030	0.543
784.500	455.695	80.002	19.994	103.388	15.971	287.811	0.555
785.000	455.965	80.005	19.994	103.382	16.031	283.564	0.547
785.500	456.193	80.004	19.994	103.397	16.090	279.351	0.515
786.000	456.484	80.005	19.994	103.388	16.150	275.114	0.509
786.500	456.714	80.004	19.994	103.381	16.203	271.352	0.520
787.001	456.993	80.004	19.993	103.382	16.264	267.054	0.515
787.500	457.292	80.005	19.994	103.384	16.321	262.991	0.544
788.000	457.551	80.005	19.994	103.371	16.378	258.940	0.568
788.500	457.783	80.005	19.994	103.375	16.439	254.664	0.525
789.000	458.074	80.005	19.993	103.371	16.492	250.834	0.507
789.500	458.333	80.004	19.995	103.369	16.546	247.048	0.536
790.000	458.596	80.004	19.995	103.362	16.600	243.173	0.536
790.500	458.863	80.005	19.994	103.357	16.656	239.237	0.526
791.000	459.142	80.004	19.995	103.350	16.712	235.264	0.538
791.500	459.420	80.004	19.995	103.346	16.765	231.455	0.552
792.000	459.699	80.004	19.995	103.337	16.821	227.502	0.557
792.500	459.933	80.003	19.995	103.328	16.872	223.874	0.535
793.000	460.209	80.003	19.993	103.320	16.923	220.267	0.512
793.500	460.451	80.003	19.995	103.312	16.973	216.670	0.514
794.000	460.713	80.002	19.994	103.304	17.025	212.982	0.511
794.500	461.004	80.002	19.993	103.301	17.075	209.475	0.528
795.000	461.303	80.002	19.995	103.299	17.126	205.896	0.572
795.500	461.513	80.001	19.995	103.299	17.177	202.241	0.550
796.000	461.782	80.002	19.994	103.300	17.224	198.922	0.493
796.500	462.039	80.001	19.994	103.299	17.273	195.499	0.502
797.000	462.332	80.002	19.995	103.299	17.318	192.288	0.538
797.500	462.601	80.001	19.995	103.300	17.364	189.018	0.556
798.000	462.860	80.002	19.995	103.298	17.407	185.922	0.545
798.500	463.099	80.000	19.995	103.295	17.451	182.836	0.513
799.000	463.394	80.001	19.995	103.295	17.497	179.592	0.516
799.500	463.663	80.000	19.995	103.292	17.537	176.780	0.549
800.000	463.912	79.999	19.995	103.289	17.582	173.556	0.541
800.500	464.169	80.000	19.995	103.287	17.623	170.647	0.512
801.000	464.420	80.002	19.996	103.282	17.666	167.634	0.507
801.501	464.674	80.000	19.995	103.276	17.704	164.875	0.506
802.000	464.952	79.999	19.994	103.271	17.746	161.907	0.518
802.500	465.205	80.001	19.995	103.267	17.786	159.103	0.532
803.000	465.460	80.000	19.996	103.260	17.822	156.536	0.520
803.500	465.715	80.001	19.995	103.253	17.858	153.980	0.509
804.000	465.992	80.001	19.995	103.249	17.898	151.196	0.521
804.500	466.289	80.002	19.995	103.243	17.934	148.631	0.553
805.000	466.529	80.001	19.995	103.239	17.973	145.895	0.555
805.500	466.807	80.000	19.996	103.238	18.004	143.649	0.528
806.000	467.064	80.001	19.995	103.244	18.037	141.308	0.526
806.500	467.307	80.002	19.996	103.243	18.073	138.734	0.518
807.000	467.571	80.002	19.995	103.244	18.106	136.410	0.504
807.500	467.853	80.001	19.996	103.241	18.139	134.105	0.526
808.000	468.122	80.002	19.996	103.238	18.175	131.566	0.548
808.500	468.382	80.000	19.994	103.232	18.205	129.408	0.540
809.000	468.614	80.001	19.994	103.229	18.236	127.251	0.511
809.500	468.866	80.002	19.994	103.227	18.264	125.262	0.488
810.000	469.175	80.001	19.995	103.226	18.296	122.949	0.523
810.500	469.452	80.002	19.996	103.225	18.321	121.196	0.573
811.000	469.677	80.001	19.995	103.225	18.355	118.836	0.544
811.500	469.938	80.001	19.995	103.224	18.383	116.825	0.494
812.000	470.182	80.001	19.994	103.216	18.410	114.889	0.496
812.500	470.493	80.001	19.995	103.209	18.439	112.881	0.530
813.000	470.741	80.003	19.994	103.202	18.469	110.721	0.557
813.500	470.984	80.002	19.995	103.199	18.495	108.899	0.526
814.000	471.266	80.001	19.994	103.200	18.518	107.264	0.508
814.500	471.508	80.001	19.994	103.206	18.541	105.651	0.524
815.000	471.784	80.002	19.994	103.211	18.568	103.764	0.521
815.500	472.043	80.002	19.995	103.216	18.589	102.262	0.527
816.000	472.317	80.002	19.993	103.213	18.614	100.491	0.534
816.500	472.573	80.001	19.994	103.206	18.639	98.704	0.531
817.000	472.812	80.002	19.995	103.201	18.663	96.997	0.513
817.500	473.071	80.000	19.994	103.195	18.686	95.384	0.497
818.000	473.367	80.002	19.994	103.190	18.705	94.061	0.527
818.500	473.592	80.001	19.995	103.190	18.729	92.316	0.538
819.000	473.836	80.002	19.995	103.189	18.747	91.055	0.495
819.500	474.099	80.001	19.995	103.186	18.766	89.696	0.488
820.000	474.326	80.001	19.994	103.186	18.790	88.025	0.498
820.500	474.640	80.000	19.994	103.186	18.809	86.674	0.516
821.000	474.891	79.999	19.995	103.185	18.828	85.280	0.553
821.500	475.155	80.002	19.996	103.186	18.848	83.872	0.540
822.000	475.430	80.001	19.994	103.186	18.869	82.375	0.527
822.500	475.693	80.000	19.995	103.187	18.888	81.068	0.539
823.000	475.935	79.999	19.995	103.186	18.904	79.908	0.521
823.500	476.187	80.001	19.995	103.185	18.923	78.568	0.499
824.000	476.412	79.998	19.995	103.186	18.940	77.375	0.485
824.500	476.697	79.998	19.994	103.187	18.959	76.028	0.494
825.000	476.939	80.000	19.999	103.191	18.978	74.706	0.519
825.500	477.207	79.999	19.996	103.195	18.995	73.490	0.518
826.000	477.453	80.000	19.996	103.196	19.012	72.259	0.512
826.500	477.737	80.000	19.996	103.194	19.026	71.291	0.523
827.000	477.938	79.999	19.997	103.190	19.043	70.074	0.508
827.500	478.255	80.000	19.996	103.186	19.060	68.888	0.501
828.000	478.494	80.000	19.996	103.181	19.074	67.896	0.537
828.500	478.742	79.999	19.996	103.178	19.092	66.629	0.521
829.000	479.006	80.000	19.996	103.175	19.110	65.391	0.500
829.500	479.283	80.000	19.997	103.175	19.117	64.840	0.527
830.000	479.549	80.000	19.997	103.175	19.136	63.536	0.542
830.500	479.817	79.999	19.996	103.171	19.152	62.375	0.538
831.000	480.045	79.999	19.996	103.170	19.166	61.385	0.515
831.500	480.293	80.000	19.995	103.167	19.179	60.463	0.487
832.000	480.551	79.999	19.997	103.164	19.195	59.356	0.491
832.500	480.780	79.999	19.995	103.158	19.211	58.204	0.496
833.000	481.082	79.998	19.995	103.155	19.224	57.277	0.509
833.500	481.302	79.999	19.997	103.152	19.242	55.988	0.526
834.000	481.558	79.999	19.997	103.150	19.251	55.373	0.499
834.500	481.825	80.000	19.998	103.149	19.266	54.345	0.499
835.000	482.085	80.000	19.995	103.149	19.279	53.388	0.525
835.500	482.334	80.000	19.996	103.148	19.290	52.634	0.518
836.000	482.594	80.002	19.995	103.150	19.305	51.575	0.509
836.500	482.848	80.001	19.995	103.151	19.318	50.652	0.512
837.000	483.090	80.002	19.996	103.152	19.331	49.711	0.505
837.500	483.343	80.001	19.995	103.151	19.346	48.656	0.495
838.000	483.605	80.001	19.994	103.153	19.357	47.883	0.505
838.500	483.872	80.003	19.995	103.152	19.368	47.068	0.523
839.000	484.128	80.001	19.995	103.150	19.381	46.168	0.526
839.500	484.376	80.001	19.995	103.148	19.393	45.364	0.514
840.000	484.626	80.002	19.995	103.150	19.402	44.668	0.501
840.500	484.900	80.002	19.994	103.152	19.420	43.453	0.511
841.000	485.147	80.001	19.994	103.154	19.429	42.751	0.522
841.500	485.401	80.002	19.995	103.153	19.443	41.823	0.511
842.000	485.643	80.002	19.993	103.153	19.451	41.251	0.499
842.500	485.900	80.002	19.995	103.150	19.467	40.079	0.498
843.000	486.145	80.002	19.994	103.144	19.476	39.495	0.500
843.500	486.409	80.002	19.994	103.142	19.489	38.524	0.505
844.000	486.657	80.002	19.994	103.142	19.503	37.572	0.510
844.500	486.903	80.003	19.995	103.142	19.513	36.877	0.503
845.000	487.131	80.003	19.995	103.142	19.523	36.159	0.484
845.500	487.394	80.004	19.994	103.143	19.534	35.357	0.482
846.000	487.671	80.003	19.993	103.144	19.546	34.536	0.516
846.500	487.900	80.003	19.994	103.145	19.557	33.711	0.523
847.000	488.155	80.004	19.995	103.144	19.569	32.915	0.495
847.500	488.425	80.004	19.994	103.143	19.579	32.148	0.505
848.000	488.637	80.001	19.994	103.141	19.587	31.580	0.503
848.500	488.871	80.002	19.994	103.141	19.603	30.478	0.464
849.000	489.146	80.001	19.994	103.138	19.611	29.896	0.477
849.500	489.423	80.004	19.993	103.134	19.621	29.190	0.530
850.000	489.683	80.002	19.995	103.128	19.635	28.233	0.544
850.500	489.949	80.003	19.994	103.127	19.642	27.722	0.531
851.000	490.194	80.002	19.994	103.120	19.656	26.751	0.519
851.500	490.437	80.002	19.995	103.121	19.665	26.069	0.500
852.000	490.689	80.002	19.994	103.125	19.675	25.383	0.491
852.500	490.922	80.002	19.995	103.131	19.683	24.810	0.490
853.000	491.180	80.001	19.994	103.135	19.694	24.045	0.488
853.500	491.423	80.002	19.995	103.142	19.704	23.310	0.496
854.000	491.660	80.002	19.994	103.140	19.712	22.792	0.491
854.500	491.947	80.002	19.994	103.132	19.722	22.085	0.502
855.000	492.152	80.002	19.995	103.130	19.731	21.460	0.508
855.500	492.431	80.002	19.995	103.128	19.738	20.930	0.488
856.000	492.705	80.002	19.994	103.123	19.749	20.183	0.518
856.500	492.951	80.001	19.995	103.121	19.755	19.698	0.536
857.000	493.194	80.003	19.995	103.122	19.765	18.989	0.505
857.500	493.459	80.002	19.994	103.124	19.773	18.439	0.499
858.000	493.714	80.001	19.995	103.126	19.781	17.905	0.514
858.500	493.963	80.001	19.994	103.132	19.787	17.494	0.512
859.000	494.243	80.001	19.995	103.136	19.795	16.867	0.517
859.500	494.492	80.002	19.995	103.141	19.800	16.561	0.529
860.000	494.756	80.002	19.994	103.139	19.810	15.850	0.521
860.500	494.984	80.002	19.995	103.132	19.819	15.191	0.502
861.000	495.254	80.002	19.994	103.125	19.825	14.807	0.495
861.500	495.514	80.002	19.994	103.121	19.831	14.324	0.514
862.000	495.810	80.002	19.994	103.118	19.837	13.902	0.543
862.500	496.043	80.002	19.995	103.114	19.844	13.401	0.543
863.000	496.260	80.003	19.993	103.117	19.848	13.154	0.490
863.500	496.518	80.003	19.994	103.119	19.859	12.374	0.462
864.000	496.794	80.003	19.995	103.119	19.860	12.278	0.504
864.500	497.057	80.001	19.993	103.117	19.868	11.740	0.537
865.000	497.326	80.004	19.994	103.117	19.875	11.268	0.536
865.500	497.557	80.004	19.994	103.114	19.877	11.074	0.515
866.000	497.821	80.003	19.993	103.111	19.882	10.776	0.497
866.500	498.080	80.003	19.994	103.112	19.889	10.272	0.509
867.000	498.292	80.004	19.993	103.117	19.896	9.785	0.497
867.500	498.536	80.004	19.993	103.116	19.902	9.319	0.464
868.000	498.830	80.003	19.994	103.118	19.907	8.947	0.497
868.500	499.066	80.003	19.994	103.118	19.911	8.726	0.534
869.000	499.334	80.004	19.995	103.116	19.913	8.546	0.517
869.500	499.582	80.003	19.993	103.111	19.919	8.135	0.509
870.000	499.822	80.003	19.995	103.111	19.922	7.953	0.502
870.500	500.089	80.004	19.993	103.110	19.924	7.767	0.498
871.000	500.353	80.003	19.993	103.112	19.930	7.364	0.519
871.500	500.572	80.004	19.994	103.113	19.933	7.174	0.507
872.000	500.841	80.002	19.994	103.113	19.937	6.844	0.486
872.500	501.100	80.003	19.994	103.112	19.944	6.351	0.508
873.001	501.339	80.003	19.993	103.112	19.948	6.096	0.513
873.501	501.634	80.002	19.993	103.112	19.948	6.050	0.516
874.000	501.841	80.003	19.993	103.114	19.950	5.933	0.518
874.500	502.101	80.003	19.994	103.118	19.952	5.782	0.485
875.000	502.366	80.002	19.995	103.120	19.958	5.372	0.496
875.501	502.635	80.002	19.994	103.122	19.957	5.419	0.529
876.001	502.895	80.002	19.994	103.119	19.961	5.143	0.531
876.500	503.106	80.002	19.995	103.116	19.966	4.798	0.500
877.000	503.348	80.001	19.993	103.116	19.967	4.762	0.462
877.500	503.624	80.000	19.993	103.116	19.971	4.474	0.486
878.000	503.891	80.000	19.994	103.115	19.975	4.165	0.531
878.500	504.135	80.002	19.995	103.117	19.973	4.338	0.527
879.000	504.352	80.001	19.994	103.117	19.978	3.973	0.486
879.500	504.594	80.001	19.994	103.113	19.977	4.019	0.460
880.000	504.885	80.001	19.994	103.111	19.980	3.852	0.496
880.500	505.107	80.000	19.995	103.110	19.979	3.859	0.523
881.000	505.398	80.001	19.994	103.108	19.982	3.643	0.513
881.500	505.665	79.999	19.994	103.109	19.982	3.702	0.536
882.000	505.919	80.000	19.994	103.109	19.982	3.673	0.539
882.500	506.151	80.001	19.994	103.108	19.984	3.512	0.503
883.000	506.419	80.000	19.995	103.108	19.985	3.470	0.493
883.500	506.658	80.000	19.993	103.108	19.984	3.519	0.504
884.000	506.917	80.001	19.995	103.108	19.986	3.411	0.503
884.500	507.191	80.000	19.995	103.109	19.986	3.425	0.516
885.000	507.409	80.001	19.995	103.109	19.987	3.334	0.512
885.500	507.667	80.002	19.995	103.109	19.986	3.361	0.484
886.000	507.975	80.001	19.996	103.109	19.990	3.141	0.521
886.500	508.223	80.001	19.994	103.108	19.988	3.248	0.561
887.000	508.451	80.001	19.994	103.107	19.990	3.125	0.516
887.500	508.717	80.000	19.994	103.105	19.989	3.164	0.485
888.000	508.976	80.001	19.994	103.105	19.992	2.953	0.510
888.500	509.261	80.001	19.995	103.103	19.992	2.968	0.534
889.000	509.470	80.001	19.994	103.104	19.992	2.968	0.519
889.500	509.761	80.001	19.995	103.104	19.990	3.099	0.497
890.000	510.008	80.001	19.994	103.104	19.993	2.867	0.519
890.500	510.259	80.000	19.995	103.100	19.994	2.844	0.518
891.000	510.523	80.002	19.994	103.093	19.993	2.934	0.506
891.500	510.770	80.001	19.995	103.086	19.992	2.993	0.513
892.000	511.022	80.001	19.995	103.079	19.993	2.920	0.505
892.500	511.262	80.000	19.995	103.078	19.993	2.884	0.495
893.000	511.522	80.000	19.996	103.080	19.995	2.742	0.496
893.500	511.768	80.001	19.995	103.086	19.992	2.957	0.503
894.000	512.015	80.002	19.996	103.091	19.992	3.001	0.500
894.500	512.253	80.002	19.996	103.096	19.994	2.857	0.490
895.000	512.492	80.001	19.994	103.097	19.997	2.604	0.481
895.500	512.749	80.001	19.994	103.098	19.995	2.735	0.486
896.000	512.995	80.003	19.995	103.096	19.993	2.905	0.500
896.500	513.257	80.001	19.995	103.092	19.994	2.832	0.506
897.000	513.502	80.002	19.996	103.094	19.997	2.620	0.507
897.500	513.771	80.001	19.996	103.094	19.999	2.466	0.510
898.000	514.035	80.001	19.994	103.094	19.996	2.668	0.524
898.500	514.271	80.002	19.994	103.095	19.998	2.549	0.517
899.000	514.531	80.001	19.995	103.101	19.999	2.462	0.498
899.500	514.749	80.000	19.994	103.101	19.998	2.562	0.487
900.000	515.023	80.001	19.995	103.102	19.995	2.760	0.485
900.500	515.289	80.001	19.993	103.103	19.996	2.666	0.517
901.000	515.576	80.001	19.994	103.104	19.995	2.756	0.547
901.500	515.825	80.002	19.994	103.102	19.998	2.533	0.544
902.000	516.039	80.002	19.995	103.102	19.998	2.562	0.499
902.500	516.318	80.002	19.994	103.102	19.997	2.645	0.478
903.000	516.550	80.001	19.996	103.102	19.998	2.545	0.502
903.500	516.794	80.001	19.994	103.103	19.995	2.739	0.494
904.000	517.073	80.001	19.993	103.106	19.998	2.518	0.500
904.500	517.297	80.001	19.995	103.105	19.997	2.647	0.513
905.000	517.557	80.001	19.995	103.105	20.000	2.428	0.494
905.500	517.796	80.000	19.995	103.104	19.996	2.698	0.492
906.000	518.058	80.002	19.994	103.104	19.998	2.549	0.500
906.500	518.278	80.001	19.995	103.104	19.999	2.451	0.491
907.000	518.568	80.001	19.996	103.105	19.998	2.545	0.495
907.500	518.805	80.002	19.996	103.107	19.994	2.817	0.519
908.000	519.031	80.001	19.995	103.107	19.993	2.886	0.496
908.500	519.311	80.002	19.995	103.108	19.995	2.752	0.485
909.000	519.546	80.001	19.995	103.108	19.998	2.541	0.510
909.500	519.825	80.001	19.995	103.110	20.000	2.424	0.515
910.000	520.078	80.000	19.995	103.111	19.997	2.648	0.523
910.500	520.305	80.002	19.996	103.111	19.997	2.639	0.506
911.000	520.551	80.001	19.995	103.114	19.996	2.692	0.477
911.500	520.823	80.001	19.995	103.114	19.996	2.677	0.496
912.000	521.093	79.999	19.994	103.112	19.997	2.604	0.530
912.500	521.389	80.000	19.995	103.110	19.996	2.656	0.554
913.000	521.625	80.001	19.997	103.112	19.996	2.658	0.549
913.500	521.862	80.001	19.995	103.111	19.994	2.808	0.503
914.000	522.103	80.000	19.996	103.116	19.996	2.685	0.476
914.500	522.354	79.999	19.995	103.116	19.994	2.829	0.485
915.000	522.624	80.001	19.996	103.115	19.999	2.466	0.507
915.500	522.856	80.002	19.996	103.114	19.997	2.637	0.511
916.000	523.132	80.000	19.994	103.113	19.997	2.585	0.505
916.500	523.384	80.002	19.996	103.112	20.001	2.369	0.518
917.000	523.606	80.001	19.996	103.117	19.998	2.537	0.501
917.500	523.862	80.000	19.996	103.121	19.999	2.508	0.476
918.000	524.107	80.000	19.995	103.122	20.000	2.428	0.490
918.500	524.381	80.001	19.995	103.121	19.997	2.643	0.510
919.000	524.628	80.002	19.995	103.116	19.997	2.601	0.520
919.500	524.898	80.000	19.995	103.111	20.000	2.419	0.519
920.000	525.145	80.002	19.996	103.107	19.998	2.557	0.517
920.500	525.395	80.001	19.997	103.105	19.997	2.643	0.507
921.000	525.636	80.001	19.996	103.107	19.996	2.718	0.493
921.500	525.904	80.002	19.997	103.108	19.997	2.595	0.500
922.000	526.168	80.003	19.996	103.108	19.993	2.934	0.521
922.500	526.405	80.002	19.997	103.108	19.997	2.595	0.517
923.000	526.693	80.003	19.996	103.112	19.997	2.639	0.513
923.500	526.928	80.003	19.996	103.111	19.997	2.606	0.524
924.000	527.198	80.001	19.996	103.114	19.994	2.850	0.514
924.500	527.460	80.000	19.996	103.117	19.994	2.798	0.519
925.000	527.685	80.001	19.995	103.118	19.994	2.858	0.509
925.500	527.998	80.002	19.996	103.117	19.998	2.541	0.512
926.000	528.243	80.001	19.996	103.120	19.999	2.485	0.548
926.500	528.493	80.002	19.996	103.118	19.994	2.813	0.526
927.000	528.721	80.003	19.996	103.115	19.994	2.837	0.486
927.500	528.984	80.002	19.995	103.116	19.995	2.792	0.485
928.000	529.253	80.003	19.996	103.112	19.993	2.871	0.512
928.500	529.518	80.003	19.995	103.109	19.995	2.758	0.532
929.000	529.780	80.003	19.996	103.109	19.995	2.725	0.530
929.500	530.061	80.004	19.994	103.111	19.997	2.647	0.535
930.000	530.297	80.003	19.995	103.118	19.996	2.698	0.530
930.500	530.535	80.004	19.994	103.123	19.998	2.581	0.495
931.000	530.796	80.004	19.994	103.122	19.997	2.635	0.487
931.500	531.089	80.003	19.995	103.122	19.995	2.735	0.527
932.000	531.346	80.003	19.994	103.119	19.994	2.796	0.552
932.501	531.621	80.003	19.994	103.112	19.994	2.819	0.541
933.001	531.847	80.003	19.996	103.108	19.996	2.683	0.516
933.501	532.114	80.003	19.995	103.108	19.997	2.627	0.497
934.000	532.361	80.004	19.995	103.110	20.000	2.436	0.503
934.500	532.649	80.004	19.995	103.112	19.999	2.482	0.524
935.000	532.888	80.002	19.994	103.113	19.998	2.564	0.531
935.500	533.163	80.002	19.994	103.114	20.000	2.393	0.520
936.000	533.397	80.002	19.993	103.117	20.000	2.418	0.512
936.500	533.656	80.003	19.995	103.115	19.999	2.495	0.502
937.000	533.932	80.002	19.994	103.113	19.999	2.499	0.514
937.500	534.194	80.002	19.994	103.116	20.000	2.382	0.536
938.000	534.434	80.002	19.994	103.120	19.998	2.549	0.520
938.500	534.732	80.002	19.994	103.117	19.997	2.587	0.521
939.000	534.975	80.002	19.996	103.118	19.998	2.568	0.540
939.500	535.240	80.003	19.994	103.118	19.996	2.656	0.524
940.000	535.523	80.004	19.995	103.117	19.993	2.869	0.528
940.500	535.768	80.001	19.993	103.114	19.996	2.689	0.538
941.000	536.008	80.003	19.993	103.116	19.998	2.564	0.507
941.500	536.304	80.002	19.994	103.115	19.996	2.685	0.510
942.000	536.529	80.002	19.995	103.114	19.999	2.476	0.529
942.500	536.804	80.003	19.994	103.112	19.998	2.564	0.510
943.000	537.063	80.003	19.994	103.113	19.999	2.501	0.517
943.500	537.313	80.004	19.994	103.114	19.999	2.476	0.522
944.000	537.570	80.002	19.994	103.117	20.001	2.369	0.508
944.500	537.832	80.003	19.994	103.118	19.998	2.543	0.513
945.000	538.090	80.003	19.994	103.118	19.999	2.491	0.519
945.500	538.365	80.003	19.994	103.118	19.998	2.560	0.526
946.000	538.582	80.002	19.995	103.116	19.999	2.480	0.513
946.500	538.861	80.003	19.994	103.112	19.999	2.472	0.494
947.000	539.144	80.004	19.994	103.116	19.999	2.464	0.529
947.500	539.407	80.003	19.994	103.120	19.999	2.447	0.554
948.000	539.660	80.002	19.993	103.119	19.999	2.484	0.531
948.500	539.939	80.003	19.995	103.121	19.999	2.482	0.524
949.000	540.213	80.003	19.995	103.125	19.999	2.510	0.543
949.500	540.452	80.003	19.992	103.121	19.999	2.488	0.533
950.000	540.701	80.004	19.993	103.119	20.001	2.305	0.500
950.500	540.982	80.003	19.993	103.118	20.000	2.416	0.509
951.000	541.237	80.003	19.993	103.119	19.999	2.474	0.533
951.500	541.492	80.003	19.994	103.121	20.000	2.380	0.523
952.000	541.754	80.003	19.993	103.126	20.000	2.409	0.514
952.500	542.006	80.004	19.993	103.127	19.999	2.447	0.516
953.000	542.221	80.004	19.994	103.130	20.003	2.177	0.490
953.500	542.507	80.004	19.994	103.130	20.001	2.357	0.484
954.000	542.751	80.003	19.994	103.127	19.999	2.474	0.516
954.500	543.003	80.003	19.994	103.122	20.002	2.276	0.513
955.000	543.216	80.004	19.994	103.121	20.000	2.395	0.480
955.500	543.526	80.003	19.994	103.119	19.996	2.660	0.494
956.000	543.766	80.004	19.994	103.116	19.998	2.533	0.536
956.500	544.017	80.004	19.994	103.112	20.001	2.353	0.520
957.000	544.292	80.003	19.994	103.111	20.003	2.221	0.508
957.500	544.527	80.003	19.993	103.108	20.003	2.173	0.518
958.000	544.805	80.003	19.995	103.112	20.001	2.367	0.511
958.500	545.033	80.002	19.995	103.116	20.000	2.432	0.509
959.000	545.275	80.001	19.995	103.117	20.000	2.399	0.488
959.500	545.539	80.001	19.995	103.116	19.998	2.551	0.488
960.000	545.795	80.001	19.995	103.117	19.998	2.518	0.513
960.500	546.056	80.002	19.995	103.119	19.998	2.564	0.518
961.000	546.323	80.002	19.993	103.116	19.999	2.461	0.523
961.500	546.575	80.001	19.993	103.116	20.002	2.242	0.524
962.000	546.849	80.003	19.994	103.116	19.999	2.443	0.523
962.500	547.082	80.002	19.994	103.114	19.999	2.472	0.517
963.000	547.365	80.003	19.996	103.109	20.005	2.018	0.511
963.500	547.607	80.003	19.996	103.107	19.999	2.484	0.521
964.000	547.891	80.001	19.996	103.107	20.000	2.409	0.525
964.500	548.149	80.002	19.995	103.109	20.001	2.313	0.533
965.000	548.398	80.002	19.993	103.111	20.001	2.302	0.525
965.500	548.651	80.002	19.994	103.111	20.005	2.025	0.505
966.000	548.904	80.001	19.994	103.111	20.004	2.154	0.504
966.500	549.143	80.002	19.994	103.110	20.003	2.165	0.499
967.000	549.435	80.002	19.993	103.113	20.002	2.230	0.511
967.500	549.646	80.003	19.994	103.117	20.002	2.280	0.517
968.000	549.927	80.003	19.993	103.120	20.002	2.230	0.497
968.500	550.172	80.002	19.993	103.123	20.003	2.206	0.509
969.000	550.424	80.002	19.995	103.124	20.003	2.177	0.511
969.500	550.677	80.001	19.995	103.120	20.000	2.376	0.501
970.000	550.912	80.002	19.994	103.120	20.002	2.240	0.497
970.500	551.184	80.002	19.993	103.121	20.003	2.217	0.498
971.000	551.448	80.001	19.995	103.118	20.004	2.156	0.522
971.500	551.685	80.003	19.994	103.118	20.003	2.211	0.518
972.000	551.976	80.003	19.993	103.121	20.005	2.019	0.514
972.500	552.175	80.002	19.995	103.117	20.006	2.006	0.509
973.000	552.460	80.002	19.994	103.115	20.003	2.184	0.487
973.500	552.693	80.002	19.994	103.117	20.003	2.190	0.501
974.000	552.958	80.002	19.994	103.120	20.001	2.307	0.508
974.500	553.189	80.003	19.995	103.122	20.004	2.113	0.497
975.001	553.485	80.003	19.995	103.125	20.000	2.424	0.512
975.501	553.758	80.003	19.995	103.127	20.000	2.386	0.548
976.000	553.988	80.002	19.995	103.127	20.002	2.231	0.536
976.500	554.249	80.003	19.994	103.124	19.999	2.449	0.497
977.000	554.471	80.001	19.995	103.120	20.002	2.263	0.487
977.500	554.738	80.002	19.995	103.115	19.999	2.455	0.486
978.000	555.021	80.000	19.994	103.111	20.000	2.428	0.519
978.500	555.284	80.000	19.994	103.109	20.000	2.386	0.548
979.000	555.496	80.002	19.994	103.114	19.999	2.474	0.511
979.500	555.788	80.004	19.994	103.122	20.002	2.274	0.490
980.000	556.074	80.001	19.994	103.124	20.001	2.355	0.541
980.500	556.301	80.001	19.995	103.124	20.001	2.353	0.545
981.000	556.537	80.001	19.995	103.124	20.003	2.213	0.487
981.500	556.796	80.001	19.994	103.119	19.999	2.503	0.479
982.000	557.012	80.002	19.995	103.112	19.996	2.656	0.486
982.500	557.284	80.002	19.995	103.108	20.001	2.355	0.481
983.000	557.550	80.003	19.995	103.108	19.998	2.537	0.512
983.500	557.758	80.003	19.996	103.107	20.001	2.361	0.506
984.000	558.044	80.001	19.995	103.106	20.001	2.315	0.484
984.500	558.288	80.000	19.994	103.107	20.001	2.315	0.512
985.000	558.575	80.002	19.996	103.107	20.000	2.409	0.531
985.500	558.837	80.002	19.994	103.107	20.002	2.299	0.540
986.000	559.109	80.000	19.994	103.113	20.000	2.413	0.541
986.500	559.342	80.002	19.995	103.119	20.003	2.196	0.519
987.000	559.626	80.000	19.995	103.122	20.002	2.234	0.511
987.500	559.872	80.000	19.994	103.127	20.002	2.246	0.524
988.000	560.133	80.002	19.994	103.132	19.999	2.480	0.519
988.501	560.383	80.001	19.995	103.126	20.002	2.259	0.509
989.001	560.606	80.001	19.994	103.120	19.999	2.480	0.492
989.501	560.865	80.002	19.995	103.116	20.003	2.202	0.478
990.001	561.106	80.002	19.996	103.112	20.002	2.240	0.491
990.500	561.392	80.001	19.996	103.108	20.002	2.259	0.514
991.000	561.639	80.001	19.996	103.112	20.000	2.401	0.530
991.500	561.914	80.002	19.996	103.118	19.998	2.545	0.528
992.000	562.160	80.001	19.996	103.119	20.000	2.424	0.521
992.500	562.391	80.002	19.995	103.122	19.999	2.508	0.499
993.000	562.652	80.001	19.995	103.121	20.000	2.399	0.484
993.500	562.926	80.001	19.996	103.116	19.999	2.462	0.513
994.000	563.193	80.000	19.995	103.111	19.999	2.499	0.538
994.500	563.421	80.001	19.995	103.111	20.002	2.267	0.518
995.000	563.681	79.999	19.996	103.111	20.001	2.351	0.491
995.500	563.932	80.001	19.993	103.111	20.004	2.144	0.500
996.000	564.169	80.001	19.994	103.114	20.000	2.430	0.500
996.500	564.433	80.000	19.995	103.116	20.000	2.382	0.495
997.000	564.661	80.000	19.995	103.117	20.000	2.409	0.496
997.500	564.941	80.002	19.995	103.115	20.001	2.370	0.500
998.000	565.221	80.002	19.996	103.115	20.001	2.305	0.534
998.500	565.466	80.002	19.996	103.114	20.001	2.303	0.542
999.000	565.726	80.000	19.994	103.112	20.001	2.322	0.515
999.500	565.994	80.002	19.994	103.112	20.001	2.332	0.516
1000.000	566.267	80.002	19.994	103.112	19.997	2.597	0.534
1000.500	566.549	80.003	19.995	103.113	20.001	2.340	0.548
1001.000	566.790	80.003	19.996	103.112	20.000	2.386	0.539
1001.500	567.014	80.004	19.995	103.112	20.003	2.159	0.494
1002.000	567.279	80.002	19.995	103.110	20.003	2.203	0.478
1002.500	567.533	80.001	19.996	103.110	20.000	2.424	0.504
1003.000	567.798	80.002	19.995	103.109	19.999	2.455	0.519
1003.500	568.044	80.003	19.994	103.109	20.001	2.361	0.514
1004.000	568.308	80.002	19.995	103.108	20.002	2.297	0.510
1004.500	568.531	80.001	19.994	103.109	20.003	2.219	0.499
1005.000	568.819	80.001	19.996	103.112	20.002	2.278	0.499
1005.500	569.067	80.002	19.995	103.114	20.001	2.321	0.523
1006.000	569.302	80.002	19.997	103.115	19.999	2.495	0.510
1006.500	569.570	80.002	19.996	103.117	20.003	2.165	0.493
1007.001	569.844	80.003	19.995	103.117	19.997	2.627	0.522
1007.501	570.123	80.003	19.995	103.113	20.000	2.430	0.547
1008.000	570.385	80.002	19.997	103.111	20.002	2.238	0.547
1008.501	570.624	80.002	19.996	103.110	20.000	2.392	0.521
1009.000	570.876	80.002	19.995	103.108	20.004	2.154	0.496
1009.500	571.092	80.002	19.995	103.107	20.001	2.366	0.480
1010.000	571.405	80.002	19.995	103.107	19.998	2.514	0.498
1010.500	571.641	80.002	19.997	103.107	20.003	2.205	0.539
1011.000	571.911	80.001	19.997	103.107	20.000	2.432	0.528
1011.500	572.151	80.000	19.996	103.108	19.999	2.503	0.508
1012.000	572.436	80.001	19.995	103.108	19.999	2.451	0.518
1012.500	572.678	80.002	19.995	103.108	20.001	2.363	0.526
1013.000	572.937	80.001	19.993	103.108	20.001	2.315	0.514
1013.500	573.189	79.999	19.996	103.108	19.998	2.524	0.506
1014.000	573.447	80.002	19.995	103.108	19.999	2.451	0.510
1014.501	573.752	80.001	19.995	103.109	19.998	2.554	0.537
1015.001	573.993	80.001	19.995	103.111	19.999	2.457	0.554
1015.500	574.254	80.000	19.997	103.111	20.001	2.319	0.524
1016.000	574.539	80.000	19.996	103.111	19.999	2.468	0.524
1016.500	574.810	80.000	19.994	103.112	19.999	2.460	0.551
1017.000	575.057	80.002	19.996	103.110	19.997	2.652	0.537
1017.500	575.291	80.000	19.995	103.112	19.997	2.646	0.500
1018.000	575.552	80.002	19.995	103.117	19.997	2.593	0.488
1018.500	575.819	80.000	19.996	103.116	19.997	2.645	0.511
1019.000	576.076	80.001	19.996	103.115	19.995	2.738	0.526
1019.500	576.308	80.001	19.996	103.115	20.000	2.435	0.507
1020.000	576.586	80.002	19.995	103.112	19.999	2.456	0.499
1020.500	576.832	80.001	19.996	103.108	19.999	2.455	0.517
1021.000	577.079	80.002	19.994	103.109	19.999	2.456	0.509
1021.500	577.348	80.001	19.996	103.108	20.000	2.387	0.505
1022.000	577.611	80.004	19.995	103.109	19.996	2.706	0.524
1022.500	577.868	80.001	19.995	103.111	19.998	2.514	0.526
1023.000	578.129	80.003	19.994	103.113	20.002	2.288	0.519
1023.500	578.388	80.004	19.995	103.113	20.003	2.196	0.519
1024.000	578.656	80.000	19.994	103.112	20.003	2.194	0.523
1024.500	578.915	80.004	19.995	103.111	20.002	2.263	0.526
1025.000	579.143	80.002	19.994	103.108	20.003	2.228	0.507
1025.501	579.400	80.004	19.994	103.110	20.002	2.299	0.486
1026.001	579.680	80.004	19.995	103.110	20.000	2.378	0.511
1026.500	579.922	80.005	19.994	103.110	20.003	2.213	0.530
1027.000	580.167	80.004	19.994	103.110	19.998	2.531	0.505
1027.500	580.480	80.002	19.993	103.110	20.002	2.299	0.522
1028.000	580.679	80.004	19.993	103.108	19.997	2.604	0.535
1028.500	580.933	80.004	19.994	103.107	20.001	2.357	0.483
1029.000	581.189	80.004	19.994	103.107	20.000	2.439	0.482
1029.500	581.433	80.002	19.994	103.108	20.001	2.305	0.505
1030.000	581.713	80.006	19.994	103.106	20.000	2.430	0.512
1030.500	581.965	80.006	19.994	103.104	19.998	2.531	0.528
1031.000	582.216	80.005	19.994	103.104	20.001	2.341	0.517
1031.500	582.476	80.003	19.993	103.103	20.003	2.211	0.507
1032.000	582.710	80.004	19.994	103.102	20.002	2.244	0.503
1032.500	582.983	80.003	19.995	103.104	20.000	2.399	0.501
1033.001	583.248	80.005	19.993	103.102	20.000	2.401	0.523
1033.501	583.500	80.003	19.993	103.101	19.998	2.531	0.527
1034.000	583.754	80.003	19.995	103.101	19.998	2.554	0.512
1034.500	584.042	80.004	19.993	103.101	19.998	2.577	0.524
1035.000	584.277	80.003	19.994	103.101	20.001	2.341	0.532
1035.500	584.520	80.003	19.994	103.102	20.000	2.389	0.500
1036.000	584.796	80.003	19.994	103.104	20.001	2.359	0.499
1036.501	585.042	80.003	19.995	103.104	19.999	2.466	0.521
1037.001	585.303	80.002	19.994	103.104	19.998	2.527	0.514
1037.500	585.581	80.002	19.996	103.104	19.997	2.593	0.523
1038.000	585.812	80.004	19.995	103.105	20.003	2.180	0.524
1038.500	586.074	80.004	19.995	103.105	19.999	2.460	0.501
1039.000	586.361	80.000	19.993	103.105	20.000	2.408	0.521
1039.500	586.610	80.000	19.995	103.107	19.999	2.468	0.542
1040.000	586.834	80.002	19.993	103.107	19.998	2.539	0.504
1040.500	587.118	80.001	19.996	103.107	20.000	2.383	0.491
1041.000	587.357	80.002	19.994	103.108	20.000	2.426	0.516
1041.500	587.628	80.000	19.995	103.107	19.999	2.458	0.516
1042.001	587.867	80.002	19.995	103.106	20.000	2.435	0.510
1042.501	588.133	80.001	19.995	103.106	20.000	2.378	0.508
1043.001	588.380	80.000	19.994	103.106	20.000	2.393	0.509
1043.501	588.628	80.001	19.994	103.107	19.996	2.690	0.504
1044.001	588.899	80.003	19.994	103.108	19.999	2.501	0.507
1044.500	589.156	80.003	19.993	103.108	19.997	2.604	0.523
1045.000	589.411	80.004	19.994	103.108	20.002	2.288	0.520
1045.500	589.660	80.002	19.995	103.108	19.998	2.522	0.508
1046.000	589.955	79.999	19.996	103.107	20.002	2.295	0.524
1046.500	590.167	80.002	19.995	103.106	20.000	2.428	0.526
1047.000	590.420	80.001	19.995	103.105	20.000	2.378	0.486
1047.500	590.684	80.003	19.994	103.105	20.000	2.416	0.491
1048.000	590.908	80.002	19.993	103.102	19.998	2.528	0.503
1048.500	591.191	80.002	19.995	103.101	20.001	2.363	0.498
1049.001	591.459	80.001	19.994	103.099	20.001	2.349	0.529
1049.501	591.694	80.002	19.995	103.097	20.004	2.155	0.527
1050.000	591.988	80.002	19.994	103.096	20.003	2.182	0.516
1050.500	592.207	80.002	19.994	103.096	19.994	2.798	0.521
1051.000	592.444	80.002	19.994	103.096	20.001	2.328	0.484
1051.500	592.740	80.001	19.996	103.099	20.002	2.280	0.494
1052.000	592.989	80.002	19.995	103.101	20.001	2.367	0.539
1052.500	593.232	80.000	19.994	103.103	19.998	2.574	0.519
1053.000	593.471	80.003	19.995	103.106	19.998	2.554	0.487
1053.501	593.768	80.001	19.995	103.106	19.999	2.499	0.508
1054.001	594.045	80.001	19.994	103.106	20.001	2.355	0.554
1054.500	594.329	80.002	19.994	103.106	19.998	2.520	0.567
1055.000	594.567	79.999	19.994	103.105	19.999	2.460	0.542
1055.501	594.805	80.001	19.994	103.106	19.998	2.526	0.499
1056.001	595.047	80.003	19.994	103.106	20.003	2.225	0.478
1056.500	595.364	80.000	19.994	103.107	20.000	2.407	0.520
1057.000	595.586	80.002	19.995	103.107	19.996	2.675	0.549
1057.500	595.847	80.001	19.994	103.109	19.994	2.821	0.511
1058.001	596.087	80.002	19.994	103.110	19.995	2.737	0.492
1058.501	596.336	80.002	19.995	103.109	19.998	2.516	0.495
1059.000	596.632	80.003	19.994	103.109	20.001	2.309	0.517
1059.500	596.920	80.002	19.994	103.109	19.997	2.591	0.565
1060.000	597.173	80.003	19.995	103.108	19.997	2.618	0.562
1060.500	597.418	80.000	19.994	103.107	19.997	2.593	0.519
1061.000	597.668	80.001	19.994	103.109	20.003	2.194	0.497
1061.500	597.959	80.003	19.994	103.110	20.000	2.424	0.518
1062.000	598.195	80.002	19.995	103.111	19.997	2.585	0.534
1062.500	598.462	80.003	19.994	103.111	20.002	2.246	0.515
1063.000	598.720	80.002	19.994	103.111	19.997	2.643	0.514
1063.500	598.967	80.001	19.994	103.111	19.999	2.483	0.515
1064.000	599.269	80.002	19.994	103.110	19.999	2.510	0.527
1064.500	599.466	80.002	19.994	103.111	20.002	2.282	0.524
1065.000	599.762	80.002	19.995	103.111	19.999	2.483	0.496
1065.500	600.019	80.002	19.995	103.111	20.000	2.401	0.523
1066.000	600.225	80.002	19.994	103.110	20.002	2.273	0.508
1066.500	600.521	80.000	19.994	103.111	20.004	2.129	0.483
1067.000	600.781	80.002	19.994	103.111	19.998	2.553	0.529
1067.500	601.021	80.001	19.993	103.111	19.999	2.447	0.528
1068.000	601.295	80.003	19.997	103.111	19.999	2.462	0.507
1068.500	601.580	80.002	19.994	103.111	20.000	2.388	0.536
1069.000	601.819	80.002	19.995	103.110	20.001	2.322	0.542
1069.500	602.076	80.000	19.994	103.109	20.002	2.246	0.510
1070.000	602.343	80.001	19.995	103.109	20.001	2.349	0.510
1070.500	602.564	80.002	19.994	103.109	20.001	2.370	0.506
1071.000	602.810	80.000	19.995	103.109	20.000	2.378	0.478
1071.500	603.046	80.000	19.995	103.109	20.002	2.259	0.474
1072.001	603.350	80.002	19.994	103.109	20.005	2.063	0.511
1072.501	603.580	80.001	19.994	103.110	20.000	2.432	0.537
1073.000	603.860	80.002	19.995	103.110	20.001	2.338	0.522
1073.500	604.117	80.000	19.994	103.108	20.001	2.351	0.523
1074.000	604.361	79.999	19.996	103.106	20.004	2.150	0.519
1074.500	604.625	79.999	19.993	103.106	20.003	2.211	0.505
1075.000	604.888	80.002	19.995	103.105	19.999	2.487	0.517
1075.500	605.156	80.000	19.995	103.106	20.002	2.238	0.529
1076.001	605.422	80.001	19.994	103.108	20.000	2.409	0.533
1076.501	605.704	80.001	19.994	103.111	19.998	2.543	0.541
1077.000	605.941	80.000	19.995	103.111	19.999	2.497	0.534
1077.500	606.189	80.000	19.995	103.112	20.004	2.153	0.502
1078.001	606.431	80.000	19.994	103.111	20.003	2.213	0.487
1078.501	606.653	80.001	19.995	103.111	20.003	2.161	0.477
1079.000	606.934	80.002	19.994	103.111	20.004	2.127	0.483
1079.500	607.205	80.002	19.994	103.111	20.005	2.059	0.527
1080.001	607.456	80.001	19.995	103.111	20.000	2.382	0.537
1080.501	607.701	80.003	19.996	103.112	20.005	2.017	0.509
1081.000	607.958	80.001	19.994	103.112	20.001	2.330	0.499
1081.500	608.257	80.001	19.994	103.115	20.000	2.422	0.529
1082.001	608.495	80.001	19.995	103.113	20.002	2.242	0.546
1082.501	608.756	80.002	19.995	103.112	20.000	2.382	0.518
1083.000	608.999	80.002	19.994	103.110	20.002	2.238	0.502
1083.500	609.263	80.004	19.996	103.108	20.003	2.186	0.506
1084.000	609.528	80.003	19.996	103.105	20.000	2.386	0.518
1084.500	609.782	80.004	19.996	103.106	19.998	2.514	0.523
1085.001	610.029	80.003	19.995	103.107	20.000	2.420	0.510
1085.501	610.298	80.002	19.995	103.107	20.003	2.177	0.509
1086.001	610.563	80.002	19.995	103.107	20.000	2.416	0.525
1086.500	610.792	80.002	19.994	103.106	20.001	2.347	0.514
1087.001	611.051	80.003	19.994	103.103	20.000	2.382	0.491
1087.501	611.324	80.004	19.995	103.102	20.003	2.192	0.510
1088.000	611.581	80.003	19.995	103.102	20.002	2.232	0.531
1088.500	611.811	80.003	19.996	103.099	20.001	2.370	0.509
1089.000	612.071	80.003	19.993	103.097	20.006	1.988	0.489
1089.500	612.317	80.003	19.994	103.099	19.998	2.552	0.498
1090.000	612.572	80.004	19.995	103.099	20.002	2.255	0.504
1090.500	612.829	80.004	19.995	103.101	20.000	2.376	0.507
1091.000	613.075	80.004	19.994	103.105	20.000	2.376	0.508
1091.500	613.363	80.002	19.995	103.109	20.002	2.286	0.519
1092.000	613.615	80.004	19.995	103.109	19.999	2.445	0.537
1092.500	613.866	80.004	19.996	103.108	20.002	2.265	0.521
1093.000	614.115	80.002	19.994	103.106	20.001	2.349	0.501
1093.500	614.361	80.003	19.995	103.106	20.003	2.209	0.498
1094.000	614.638	80.003	19.995	103.103	20.000	2.410	0.509
1094.500	614.925	80.002	19.995	103.104	19.998	2.566	0.544
1095.001	615.164	80.001	19.995	103.105	20.005	2.069	0.545
1095.501	615.408	80.002	19.995	103.105	20.004	2.157	0.505
1096.000	615.646	80.002	19.995	103.105	20.004	2.146	0.482
1096.500	615.909	80.002	19.995	103.106	20.001	2.353	0.491
1097.000	616.175	80.002	19.995	103.106	20.000	2.435	0.515
1097.500	616.439	80.002	19.995	103.105	20.000	2.414	0.529
1098.000	616.678	80.001	19.996	103.101	20.000	2.376	0.517
1098.500	616.914	80.002	19.995	103.100	20.002	2.292	0.490
1099.000	617.177	80.001	19.994	103.098	20.002	2.274	0.487
1099.500	617.409	80.002	19.996	103.098	20.003	2.194	0.497
1100.000	617.680	80.001	19.996	103.098	20.004	2.123	0.499
1100.500	617.986	80.002	19.994	103.101	20.004	2.155	0.540
1101.000	618.210	80.003	19.994	103.101	20.005	2.046	0.554
1101.500	618.491	80.004	19.994	103.102	20.003	2.203	0.518
1102.000	618.736	80.004	19.995	103.102	20.005	2.077	0.516
1102.500	618.958	80.000	19.995	103.102	20.003	2.215	0.496
1103.000	619.217	80.002	19.996	103.102	20.004	2.107	0.474
1103.500	619.480	80.001	19.996	103.100	20.001	2.339	0.501
1104.000	619.733	80.002	19.995	103.099	20.003	2.221	0.519
1104.500	619.997	80.002	19.994	103.099	20.002	2.236	0.517
1105.000	620.192	80.005	19.994	103.099	20.003	2.207	0.488
1105.501	620.464	80.004	19.996	103.099	20.003	2.224	0.462
1106.001	620.673	80.002	19.996	103.102	20.004	2.144	0.474
1106.500	620.955	80.004	19.996	103.102	20.001	2.316	0.486
1107.000	621.229	80.002	19.995	103.102	20.003	2.211	0.523
1107.500	621.476	80.003	19.995	103.103	20.004	2.157	0.538
1108.000	621.697	80.004	19.995	103.104	20.002	2.244	0.495
1108.500	621.966	80.003	19.995	103.104	20.000	2.420	0.479
1109.000	622.216	80.004	19.996	103.104	20.002	2.234	0.505
1109.500	622.475	80.004	19.995	103.104	20.002	2.240	0.514
1110.000	622.764	80.003	19.995	103.105	20.003	2.176	0.528
1110.500	622.979	80.004	19.994	103.108	20.005	2.052	0.526
1111.000	623.217	80.005	19.992	103.108	20.004	2.092	0.479
1111.500	623.479	80.005	19.994	103.108	20.005	2.071	0.477
1112.000	623.745	80.004	19.994	103.107	20.004	2.088	0.514
1112.500	623.972	80.003	19.994	103.104	20.003	2.188	0.510
1113.000	624.222	80.003	19.994	103.100	20.004	2.134	0.485
1113.500	624.496	80.004	19.994	103.100	20.000	2.416	0.501
1114.000	624.789	80.004	19.995	103.101	19.997	2.585	0.546
1114.500	625.016	80.006	19.995	103.100	19.997	2.606	0.544
1115.000	625.246	80.003	19.996	103.101	20.000	2.418	0.489
1115.500	625.564	80.003	19.996	103.102	19.997	2.589	0.502
1116.000	625.817	80.004	19.995	103.102	20.000	2.416	0.559
1116.500	626.042	80.003	19.994	103.101	20.001	2.338	0.525
1117.000	626.298	80.003	19.995	103.101	19.998	2.545	0.479
1117.500	626.550	80.002	19.994	103.101	20.000	2.441	0.494
1118.000	626.782	80.002	19.995	103.102	20.001	2.355	0.496
1118.500	627.027	80.004	19.994	103.102	20.002	2.297	0.481
1119.001	627.279	80.003	19.995	103.103	20.001	2.341	0.487
1119.501	627.548	80.002	19.993	103.103	19.998	2.531	0.509
1120.001	627.772	80.001	19.994	103.102	19.999	2.499	0.508
1120.500	628.065	80.002	19.993	103.100	19.998	2.537	0.505
1121.000	628.311	80.001	19.993	103.098	20.003	2.221	0.528
1121.501	628.607	80.002	19.993	103.099	19.999	2.447	0.540
1122.001	628.823	79.998	19.994	103.100	20.000	2.376	0.527
1122.501	629.075	80.004	19.994	103.100	20.002	2.246	0.490
1123.000	629.317	80.002	19.994	103.099	20.002	2.240	0.481
1123.500	629.605	80.001	19.995	103.101	20.001	2.330	0.512
1124.000	629.839	80.001	19.995	103.099	19.999	2.493	0.526
1124.500	630.112	80.004	19.995	103.100	20.007	1.933	0.514
1125.000	630.386	80.001	19.995	103.101	20.002	2.234	0.526
1125.500	630.620	80.002	19.995	103.104	20.003	2.223	0.527
1126.000	630.895	80.003	19.995	103.105	20.001	2.326	0.509
1126.500	631.131	80.001	19.994	103.103	20.001	2.332	0.510
1127.000	631.375	80.003	19.994	103.102	20.001	2.330	0.495
1127.500	631.606	80.002	19.996	103.103	19.999	2.451	0.477
1128.000	631.875	80.003	19.993	103.101	20.002	2.255	0.487
1128.500	632.116	80.000	19.994	103.101	20.003	2.199	0.505
1129.000	632.356	80.002	19.993	103.104	20.000	2.433	0.496
1129.500	632.613	80.002	19.994	103.105	20.001	2.326	0.489
1130.000	632.873	80.002	19.995	103.104	20.001	2.324	0.507
1130.500	633.131	80.001	19.995	103.106	20.001	2.360	0.517
1131.000	633.377	80.000	19.993	103.106	20.004	2.150	0.511
1131.500	633.636	80.001	19.994	103.106	20.004	2.117	0.505
1132.000	633.947	80.001	19.993	103.107	20.004	2.146	0.538
1132.500	634.173	80.002	19.994	103.108	20.005	2.038	0.553
1133.000	634.480	80.002	19.995	103.109	20.007	1.931	0.534
1133.500	634.716	80.002	19.995	103.108	20.006	1.977	0.538
1134.001	634.950	80.001	19.994	103.108	20.005	2.084	0.507
1134.501	635.191	80.003	19.993	103.107	20.003	2.173	0.473
1135.000	635.446	80.000	19.993	103.107	20.007	1.908	0.486
1135.500	635.704	80.000	19.994	103.106	20.005	2.017	0.504
1136.000	636.001	80.002	19.992	103.106	20.001	2.361	0.534
1136.500	636.255	80.000	19.995	103.104	20.001	2.362	0.553
1137.000	636.491	80.002	19.994	103.103	20.010	1.724	0.521
1137.500	636.762	80.002	19.993	103.103	20.002	2.293	0.498
1138.000	637.005	80.001	19.994	103.104	20.005	2.044	0.511
1138.500	637.283	80.003	19.995	103.105	20.007	1.902	0.518
1139.000	637.525	80.003	19.995	103.103	20.006	1.975	0.521
1139.501	637.781	80.001	19.996	103.101	20.008	1.843	0.509
1140.001	638.010	80.001	19.994	103.097	20.002	2.249	0.491
1140.500	638.292	80.001	19.993	103.097	20.002	2.236	0.498
1141.000	638.510	79.999	19.995	103.098	20.001	2.328	0.505
1141.500	638.773	80.001	19.995	103.100	20.004	2.127	0.491
1142.000	639.035	80.001	19.994	103.103	20.002	2.276	0.503
1142.500	639.262	79.999	19.994	103.107	20.003	2.201	0.507
1143.001	639.525	80.001	19.994	103.105	19.999	2.464	0.490
1143.501	639.792	80.000	19.995	103.105	20.002	2.242	0.510
1144.001	640.045	80.001	19.994	103.106	20.003	2.180	0.525
1144.500	640.317	80.002	19.994	103.104	20.004	2.123	0.523
1145.000	640.580	80.004	19.995	103.103	20.006	1.948	0.530
1145.500	640.829	80.002	19.994	103.104	20.002	2.286	0.523
1146.000	641.090	80.000	19.994	103.104	20.001	2.353	0.511
1146.500	641.370	80.002	19.994	103.103	20.008	1.873	0.526
1147.000	641.621	79.999	19.994	103.102	20.002	2.230	0.536
1147.500	641.853	80.000	19.995	103.103	20.002	2.266	0.507
1148.000	642.126	80.001	19.994	103.104	20.005	2.034	0.494
1148.500	642.394	80.004	19.993	103.103	20.000	2.389	0.523
1149.000	642.622	80.003	19.996	103.100	20.001	2.334	0.518
1149.500	642.876	80.002	19.994	103.099	20.002	2.268	0.489
1150.000	643.138	80.001	19.994	103.093	19.998	2.554	0.499
1150.500	643.378	80.001	19.994	103.093	20.000	2.401	0.509
1151.000	643.664	80.004	19.995	103.093	20.002	2.278	0.513
1151.500	643.885	79.999	19.995	103.093	20.003	2.215	0.517
1152.000	644.142	80.002	19.994	103.096	20.004	2.155	0.493
1152.500	644.403	80.003	19.995	103.101	20.005	2.044	0.498
1153.000	644.643	80.002	19.994	103.102	20.007	1.946	0.509
1153.500	644.908	80.003	19.995	103.103	20.002	2.244	0.503
1154.000	645.218	80.001	19.994	103.107	20.007	1.939	0.540
1154.500	645.399	80.003	19.994	103.106	20.002	2.244	0.533
1155.001	645.630	79.999	19.994	103.107	20.004	2.121	0.451
1155.501	645.867	80.001	19.995	103.107	20.007	1.919	0.440
1156.000	646.171	80.000	19.994	103.107	20.007	1.914	0.505
1156.500	646.415	80.000	19.995	103.105	19.999	2.468	0.545
1157.000	646.647	80.001	19.994	103.101	20.004	2.113	0.512
1157.501	646.896	80.003	19.995	103.101	20.004	2.111	0.478
1158.001	647.186	80.003	19.995	103.101	20.004	2.117	0.510
1158.500	647.442	80.001	19.993	103.098	20.002	2.276	0.543
1159.000	647.709	80.003	19.994	103.095	20.006	1.977	0.535
1159.500	647.928	80.000	19.994	103.099	20.002	2.263	0.504
1160.000	648.177	80.002	19.994	103.099	20.006	2.014	0.477
1160.500	648.449	80.004	19.994	103.099	20.006	1.966	0.495
1161.000	648.702	80.000	19.993	103.102	20.004	2.096	0.523
1161.501	648.999	80.000	19.994	103.106	20.006	2.000	0.537
1162.001	649.264	80.004	19.995	103.106	20.000	2.406	0.557
1162.501	649.475	80.003	19.994	103.105	20.001	2.349	0.519
1163.001	649.747	80.004	19.995	103.104	20.007	1.938	0.479
1163.500	649.994	80.003	19.994	103.103	20.004	2.155	0.501
1164.000	650.229	80.003	19.995	103.102	20.007	1.940	0.501
1164.500	650.492	80.004	19.996	103.101	20.005	2.034	0.490
1165.000	650.776	80.004	19.995	103.104	20.005	2.021	0.522
1165.500	651.005	80.002	19.995	103.104	20.002	2.274	0.530
1166.000	651.299	80.004	19.995	103.101	20.005	2.065	0.518
1166.500	651.555	80.004	19.995	103.098	20.005	2.074	0.537
1167.000	651.786	80.005	19.996	103.097	20.007	1.910	0.519
1167.500	652.074	80.004	19.995	103.094	20.007	1.921	0.503
1168.000	652.329	80.005	19.996	103.094	20.006	1.973	0.531
1168.501	652.579	80.004	19.996	103.099	20.006	1.990	0.524
1169.001	652.823	80.003	19.996	103.104	20.008	1.864	0.500
1169.500	653.074	80.002	19.996	103.111	20.005	2.059	0.495
1170.000	653.317	80.005	19.996	103.113	20.008	1.860	0.494
1170.500	653.581	80.002	19.994	103.112	20.006	1.994	0.501
1171.000	653.823	80.004	19.997	103.111	20.008	1.810	0.507
1171.500	654.123	80.002	19.995	103.109	20.005	2.069	0.524
1172.000	654.376	80.003	19.996	103.101	20.007	1.944	0.547
1172.501	654.592	80.002	19.994	103.095	20.006	2.009	0.511
1173.001	654.864	80.003	19.995	103.092	20.006	2.015	0.479
1173.500	655.135	80.001	19.996	103.090	20.006	1.973	0.516
1174.000	655.387	80.003	19.995	103.087	20.005	2.054	0.533
1174.500	655.672	80.002	19.995	103.089	20.005	2.017	0.530
1175.000	655.920	80.000	19.994	103.095	20.007	1.910	0.535
1175.500	656.133	79.999	19.994	103.096	20.006	2.006	0.497
1176.000	656.406	80.003	19.995	103.092	20.005	2.019	0.473
1176.500	656.658	80.002	19.995	103.089	20.006	1.967	0.506
1177.000	656.905	80.002	19.994	103.081	20.006	1.958	0.512
1177.500	657.176	80.003	19.995	103.080	20.004	2.148	0.508
1178.000	657.422	80.002	19.996	103.082	20.003	2.161	0.517
1178.500	657.657	80.004	19.995	103.084	20.003	2.170	0.499
1179.000	657.935	80.001	19.995	103.091	20.002	2.280	0.497
1179.500	658.219	80.002	19.995	103.092	20.001	2.310	0.537
1180.000	658.444	80.000	19.994	103.088	20.000	2.383	0.535
1180.500	658.689	80.001	19.995	103.086	20.002	2.264	0.490
1181.000	658.957	79.999	19.994	103.090	20.003	2.201	0.492
1181.500	659.214	79.999	19.994	103.088	20.004	2.128	0.519
1182.000	659.502	80.002	19.995	103.089	20.005	2.042	0.535
1182.500	659.752	80.001	19.994	103.094	20.005	2.023	0.542
1183.000	659.958	80.002	19.995	103.095	20.004	2.105	0.497
1183.500	660.237	80.003	19.995	103.095	20.001	2.351	0.470
1184.000	660.491	80.003	19.995	103.097	20.009	1.795	0.509
1184.500	660.741	80.002	19.993	103.100	20.007	1.883	0.519
1185.000	660.984	80.002	19.993	103.101	20.005	2.063	0.499
1185.500	661.222	80.002	19.996	103.101	20.007	1.917	0.487
1186.001	661.507	80.004	19.995	103.101	20.007	1.946	0.502
1186.501	661.731	80.004	19.995	103.102	20.006	1.987	0.516
1187.001	661.980	80.002	19.995	103.101	20.004	2.096	0.491
1187.501	662.236	80.001	19.995	103.101	20.006	1.984	0.489
1188.001	662.491	80.002	19.993	103.102	20.006	1.992	0.508
1188.501	662.774	80.004	19.995	103.096	20.008	1.846	0.525
1189.000	663.019	80.003	19.994	103.093	20.006	1.975	0.533
1189.500	663.241	80.003	19.994	103.092	20.008	1.858	0.497
1190.000	663.551	80.004	19.995	103.090	20.006	1.956	0.499
1190.500	663.764	80.005	19.995	103.088	20.008	1.833	0.527
1191.000	664.007	80.004	19.994	103.093	20.010	1.695	0.489
1191.501	664.269	80.003	19.995	103.092	20.007	1.889	0.481
1192.001	664.504	80.005	19.994	103.095	20.008	1.816	0.502
1192.500	664.773	80.004	19.994	103.098	20.007	1.883	0.501
1193.000	665.019	80.005	19.994	103.096	20.006	2.011	0.509
1193.500	665.233	80.002	19.995	103.093	20.007	1.902	0.487
1194.000	665.481	80.004	19.996	103.096	20.006	2.013	0.461
1194.500	665.737	80.003	19.996	103.094	20.010	1.678	0.483
1195.000	666.051	80.002	19.995	103.092	20.006	1.994	0.537
1195.501	666.313	80.003	19.996	103.096	20.004	2.113	0.573
1196.001	666.571	80.003	19.995	103.100	20.004	2.100	0.548
1196.500	666.783	80.002	19.994	103.096	20.008	1.871	0.495
1197.000	667.061	80.000	19.995	103.094	20.006	1.950	0.480
1197.500	667.316	80.003	19.994	103.097	20.006	1.989	0.511
1198.000	667.596	80.004	19.997	103.094	20.007	1.904	0.534
1198.500	667.835	80.003	19.995	103.091	20.007	1.933	0.527
1199.000	668.086	80.002	19.995	103.091	20.009	1.801	0.505
1199.500	668.325	80.001	19.996	103.092	20.008	1.814	0.490
1200.000	668.559	80.001	19.996	103.092	20.005	2.038	0.482
1200.500	668.832	80.000	19.994	103.095	20.006	2.002	0.490
1201.001	669.085	79.998	19.995	103.099	20.007	1.904	0.516
1201.501	669.303	80.000	19.995	103.102	20.004	2.153	0.498
1202.001	669.570	80.002	19.995	103.104	20.004	2.127	0.478
1202.501	669.835	80.000	19.995	103.102	20.006	1.987	0.509
1203.001	670.108	80.002	19.995	103.097	20.006	1.968	0.535
1203.500	670.344	80.000	19.996	103.089	20.005	2.084	0.523
1204.000	670.599	80.000	19.995	103.084	20.006	2.010	0.500
1204.500	670.848	80.000	19.994	103.083	20.006	2.006	0.498
1205.000	671.092	80.000	19.994	103.083	20.010	1.724	0.498
1205.500	671.380	80.000	19.994	103.086	20.004	2.106	0.512
1206.000	671.571	79.999	19.995	103.087	20.004	2.102	0.506
1206.500	671.869	80.000	19.995	103.091	20.003	2.203	0.484
1207.000	672.107	80.002	19.994	103.093	20.006	2.015	0.512
1207.500	672.373	79.999	19.994	103.096	20.002	2.286	0.521
1208.000	672.632	80.001	19.995	103.098	19.998	2.531	0.515
1208.500	672.857	80.000	19.995	103.105	20.003	2.169	0.504
1209.000	673.118	80.001	19.994	103.107	20.003	2.165	0.485
1209.500	673.410	80.003	19.994	103.107	20.006	1.963	0.519
1210.000	673.634	80.000	19.993	103.107	20.006	1.989	0.534
1210.500	673.902	80.002	19.994	103.104	20.005	2.029	0.504
1211.000	674.159	80.002	19.994	103.101	20.005	2.025	0.509
1211.501	674.387	80.001	19.995	103.100	20.007	1.891	0.505
1212.001	674.660	80.002	19.994	103.101	20.004	2.106	0.493
1212.501	674.948	80.001	19.994	103.101	20.005	2.019	0.530
1213.001	675.163	80.002	19.995	103.103	20.003	2.165	0.532
1213.500	675.449	80.001	19.995	103.104	20.008	1.873	0.502
1214.000	675.690	80.002	19.994	103.105	20.005	2.054	0.515
1214.500	675.950	80.001	19.993	103.104	20.006	1.954	0.514
1215.000	676.227	80.001	19.994	103.103	20.005	2.081	0.519
1215.500	676.488	80.001	19.992	103.103	20.002	2.259	0.537
1216.000	676.696	80.001	19.993	103.104	20.005	2.056	0.504
1216.500	676.956	80.002	19.993	103.104	20.003	2.174	0.468
1217.000	677.227	80.002	19.994	103.105	20.001	2.360	0.499
1217.500	677.461	80.002	19.994	103.104	20.000	2.416	0.518
1218.000	677.716	80.003	19.994	103.100	20.004	2.099	0.497
1218.500	677.967	80.001	19.995	103.094	20.001	2.353	0.497
1219.001	678.226	80.001	19.995	103.091	20.000	2.406	0.509
1219.501	678.465	80.001	19.993	103.091	20.001	2.305	0.504
1220.000	678.726	80.003	19.994	103.091	19.998	2.523	0.499
1220.500	678.976	80.002	19.994	103.095	20.001	2.339	0.506
1221.000	679.202	80.000	19.994	103.101	20.004	2.146	0.493
1221.500	679.431	80.003	19.993	103.103	20.005	2.040	0.465
1222.001	679.714	80.001	19.993	103.103	19.998	2.517	0.483
1222.501	679.956	80.002	19.994	103.104	19.999	2.468	0.519
1223.000	680.214	80.003	19.995	103.102	20.001	2.330	0.513
1223.500	680.465	80.002	19.995	103.102	20.002	2.247	0.504
1224.000	680.699	80.001	19.994	103.102	20.001	2.349	0.497
1224.500	680.965	80.001	19.995	103.102	20.005	2.033	0.493
1225.001	681.215	80.000	19.994	103.102	20.001	2.328	0.508
1225.501	681.538	80.002	19.994	103.103	20.003	2.228	0.545
1226.000	681.830	80.001	19.995	103.102	20.001	2.324	0.594
1226.500	682.028	80.001	19.994	103.099	19.999	2.504	0.552
1227.000	682.211	80.001	19.995	103.095	20.001	2.316	0.435
1227.500	682.502	80.001	19.996	103.089	20.001	2.366	0.428
1228.000	682.771	80.000	19.995	103.086	19.999	2.462	0.517
1228.500	682.997	79.999	19.995	103.082	20.001	2.320	0.527
1229.000	683.264	80.000	19.994	103.083	20.000	2.414	0.494
1229.500	683.509	80.000	19.995	103.088	20.002	2.286	0.502
1230.000	683.750	80.001	19.995	103.093	20.002	2.232	0.499
1230.500	684.010	79.999	19.995	103.096	20.000	2.383	0.494
1231.000	684.258	80.000	19.994	103.100	19.996	2.723	0.504
1231.500	684.500	80.000	19.994	103.097	19.999	2.452	0.499
1232.000	684.771	79.999	19.994	103.093	20.000	2.385	0.502
1232.500	684.995	80.001	19.995	103.090	19.997	2.593	0.504
1233.000	685.234	80.000	19.994	103.090	20.001	2.362	0.479
1233.500	685.519	80.000	19.994	103.093	20.002	2.282	0.493
1234.000	685.746	80.000	19.995	103.095	20.002	2.249	0.518
1234.500	686.008	80.000	19.994	103.100	20.001	2.343	0.501
1235.000	686.226	80.001	19.995	103.103	19.998	2.512	0.485
1235.500	686.521	80.001	19.993	103.103	20.000	2.430	0.496
1236.000	686.748	80.001	19.994	103.103	19.997	2.612	0.517
1236.500	686.990	80.000	19.995	103.103	20.004	2.144	0.495
1237.001	687.271	80.002	19.994	103.102	20.000	2.433	0.496
1237.501	687.548	80.000	19.995	103.099	20.003	2.205	0.541
1238.000	687.772	80.002	19.994	103.100	20.001	2.324	0.530
1238.500	688.041	80.000	19.995	103.100	20.000	2.374	0.497
1239.000	688.298	80.001	19.994	103.101	19.999	2.474	0.509
1239.500	688.538	80.001	19.995	103.103	19.999	2.449	0.511
1240.000	688.810	80.002	19.995	103.106	20.000	2.380	0.504
1240.500	689.042	80.001	19.995	103.104	19.998	2.547	0.508
1241.000	689.290	80.001	19.994	103.099	20.004	2.127	0.492
1241.500	689.565	80.002	19.995	103.099	19.998	2.554	0.501
1242.000	689.823	80.001	19.993	103.096	19.998	2.575	0.528
1242.500	690.087	80.002	19.995	103.095	20.001	2.305	0.528
1243.000	690.327	80.002	19.993	103.096	20.003	2.192	0.513
1243.500	690.581	80.005	19.994	103.101	20.005	2.086	0.499
1244.001	690.827	80.002	19.995	103.101	20.000	2.376	0.497
1244.501	691.077	80.001	19.993	103.103	20.004	2.142	0.498
1245.000	691.352	80.003	19.995	103.104	20.000	2.437	0.511
1245.500	691.570	80.002	19.994	103.104	19.999	2.454	0.509
1246.000	691.855	80.003	19.993	103.102	19.999	2.464	0.498
1246.500	692.122	80.003	19.994	103.100	20.000	2.385	0.528
1247.000	692.343	80.004	19.994	103.100	20.004	2.157	0.520
1247.500	692.618	80.002	19.994	103.100	20.002	2.232	0.492
1248.001	692.883	80.001	19.994	103.101	20.001	2.316	0.518
1248.501	693.168	80.003	19.994	103.104	20.004	2.099	0.545
1249.001	693.386	80.001	19.995	103.106	20.003	2.203	0.527
1249.501	693.629	80.002	19.994	103.106	20.002	2.261	0.482
1250.000	693.903	80.002	19.993	103.107	20.003	2.194	0.489
1250.500	694.138	80.003	19.995	103.107	20.006	1.950	0.513
1251.000	694.387	80.002	19.994	103.106	20.003	2.175	0.496
1251.500	694.653	80.003	19.995	103.107	20.003	2.219	0.500
1252.000	694.952	80.002	19.995	103.106	20.001	2.343	0.540
1252.500	695.175	80.002	19.994	103.107	20.001	2.322	0.543
1253.000	695.417	80.002	19.994	103.104	20.000	2.418	0.494
1253.500	695.691	80.003	19.993	103.098	19.999	2.483	0.491
1254.000	695.973	80.001	19.994	103.095	20.004	2.119	0.536
1254.500	696.227	80.002	19.994	103.092	20.002	2.238	0.546
1255.000	696.464	80.003	19.995	103.089	20.000	2.430	0.513
1255.500	696.694	80.002	19.995	103.091	20.003	2.203	0.479
1256.000	696.983	80.003	19.993	103.095	20.002	2.288	0.493
1256.500	697.220	80.001	19.995	103.094	20.000	2.432	0.523
1257.000	697.470	80.002	19.995	103.095	19.998	2.537	0.507
1257.500	697.733	80.003	19.996	103.094	20.001	2.303	0.500
1258.000	697.986	80.000	19.993	103.093	20.003	2.190	0.514
1258.500	698.291	80.001	19.995	103.090	20.002	2.244	0.537
1259.000	698.508	80.004	19.994	103.090	20.004	2.150	0.540
1259.501	698.768	80.001	19.994	103.089	19.998	2.574	0.499
1260.001	698.998	80.002	19.995	103.091	20.000	2.403	0.483
1260.500	699.264	80.000	19.996	103.092	20.000	2.439	0.493
1261.000	699.542	80.002	19.994	103.095	19.997	2.593	0.520
1261.500	699.792	80.003	19.996	103.098	20.002	2.271	0.536
1262.000	700.072	80.002	19.995	103.101	20.004	2.096	0.529
1262.500	700.303	80.001	19.994	103.102	20.001	2.315	0.520
1263.000	700.546	80.002	19.995	103.102	20.004	2.155	0.493
1263.500	700.828	80.003	19.995	103.105	20.002	2.265	0.499
1264.001	701.072	80.002	19.995	103.104	20.006	1.962	0.525
1264.501	701.333	80.003	19.995	103.104	20.005	2.058	0.516
1265.001	701.545	80.002	19.995	103.103	20.005	2.019	0.489
1265.500	701.860	80.000	19.994	103.103	20.005	2.031	0.500
1266.000	702.069	80.002	19.996	103.101	20.005	2.023	0.525
1266.500	702.293	80.001	19.995	103.102	20.004	2.129	0.478
1267.001	702.562	80.003	19.995	103.103	20.002	2.267	0.463
1267.501	702.847	80.002	19.994	103.103	19.999	2.458	0.524
1268.000	703.099	80.004	19.996	103.104	20.002	2.238	0.546
1268.500	703.324	80.004	19.995	103.106	20.001	2.301	0.507
1269.000	703.604	80.003	19.995	103.107	20.005	2.069	0.491
1269.500	703.830	80.005	19.996	103.108	20.000	2.378	0.506
1270.000	704.116	80.003	19.994	103.108	20.005	2.069	0.509
1270.500	704.355	80.003	19.993	103.108	20.003	2.211	0.518
1271.000	704.588	80.004	19.992	103.108	20.003	2.192	0.498
1271.500	704.864	80.004	19.994	103.108	20.000	2.416	0.491
1272.000	705.085	80.004	19.994	103.108	20.001	2.335	0.503
1272.500	705.347	80.004	19.993	103.107	20.002	2.247	0.490
1273.000	705.619	80.006	19.994	103.106	19.999	2.481	0.508
1273.500	705.840	80.004	19.995	103.105	20.002	2.297	0.514
1274.000	706.103	80.005	19.995	103.104	20.000	2.405	0.489
1274.500	706.374	80.003	19.994	103.104	20.003	2.184	0.509
1275.000	706.603	80.003	19.994	103.103	20.001	2.305	0.517
1275.500	706.858	80.002	19.994	103.102	20.000	2.395	0.492
1276.000	707.125	80.004	19.993	103.102	20.002	2.297	0.503
1276.500	707.375	80.003	19.993	103.104	20.003	2.188	0.519
1277.000	707.610	80.004	19.994	103.102	20.004	2.140	0.501
1277.500	707.887	80.002	19.995	103.103	19.999	2.443	0.499
1278.000	708.111	80.003	19.995	103.104	20.006	1.994	0.506
1278.500	708.346	80.002	19.993	103.104	20.002	2.253	0.480
1279.000	708.646	80.003	19.995	103.103	20.002	2.272	0.497
1279.500	708.859	80.002	19.995	103.105	19.997	2.635	0.524
1280.001	709.099	80.001	19.995	103.103	19.997	2.600	0.483
1280.501	709.359	80.000	19.994	103.103	20.000	2.412	0.477
1281.001	709.586	80.002	19.995	103.100	20.003	2.170	0.494
1281.500	709.862	80.000	19.995	103.099	19.999	2.454	0.495
1282.000	710.095	80.001	19.995	103.098	20.001	2.318	0.505
1282.500	710.345	80.002	19.996	103.096	20.004	2.109	0.496
1283.000	710.572	80.000	19.996	103.094	20.001	2.330	0.481
1283.500	710.828	80.001	19.997	103.097	20.002	2.247	0.480
1284.000	711.090	80.002	19.995	103.098	20.002	2.267	0.500
1284.500	711.367	80.002	19.996	103.098	20.003	2.205	0.528
1285.000	711.596	80.000	19.996	103.100	20.002	2.236	0.522
1285.500	711.854	80.000	19.995	103.103	20.011	1.663	0.496
1286.001	712.097	80.001	19.996	103.103	20.002	2.234	0.494
1286.501	712.355	79.999	19.995	103.102	20.002	2.290	0.502
1287.001	712.589	79.997	19.994	103.100	19.999	2.462	0.497
1287.501	712.847	80.001	19.996	103.097	19.997	2.592	0.491
1288.000	713.078	80.002	19.997	103.095	19.997	2.585	0.490
1288.500	713.349	80.001	19.997	103.095	19.996	2.696	0.495
1289.000	713.573	80.000	19.997	103.094	19.997	2.615	0.499
1289.501	713.837	80.003	19.995	103.095	19.997	2.635	0.492
1290.002	714.067	80.001	19.996	103.096	19.998	2.543	0.491
1290.501	714.341	80.000	19.998	103.093	20.000	2.416	0.499
1291.000	714.602	80.001	19.996	103.090	20.000	2.380	0.519
1291.500	714.876	80.000	19.997	103.092	20.000	2.397	0.536
1292.000	715.080	80.000	19.995	103.091	19.998	2.543	0.507
1292.500	715.329	79.999	19.996	103.093	19.997	2.642	0.465
1293.000	715.599	79.999	19.995	103.099	20.000	2.403	0.486
1293.501	715.865	80.000	19.994	103.101	19.999	2.445	0.528
1294.001	716.071	79.999	19.995	103.101	19.998	2.545	0.504
1294.501	716.357	80.001	19.995	103.103	20.001	2.366	0.482
1295.001	716.607	79.999	19.996	103.102	20.002	2.236	0.514
1295.501	716.828	80.001	19.997	103.102	19.998	2.541	0.503
1296.001	717.125	80.002	19.997	103.101	20.001	2.357	0.495
1296.500	717.366	80.001	19.997	103.101	19.995	2.792	0.528
1297.000	717.608	80.002	19.997	103.101	20.001	2.363	0.511
1297.500	717.841	80.001	19.995	103.101	20.000	2.435	0.479
1298.000	718.092	80.002	19.995	103.096	20.002	2.270	0.479
1298.500	718.346	80.001	19.995	103.094	20.000	2.389	0.494
1299.000	718.567	80.002	19.995	103.095	19.998	2.575	0.490
1299.500	718.899	80.004	19.994	103.090	19.995	2.740	0.514
1300.000	719.012	80.004	19.995	103.091	19.999	2.485	0.499
1300.501	719.306	80.002	19.994	103.097	19.996	2.685	0.426
1301.001	719.534	80.001	19.993	103.100	20.000	2.410	0.464
1301.501	719.817	80.002	19.993	103.100	19.994	2.863	0.517
1302.001	720.052	80.002	19.995	103.104	19.994	2.832	0.514
1302.501	720.295	80.002	19.994	103.101	19.996	2.713	0.498
1303.000	720.545	80.002	19.995	103.098	19.995	2.771	0.486
1303.500	720.795	80.001	19.994	103.099	19.996	2.673	0.497
1304.000	721.046	80.003	19.994	103.096	20.001	2.353	0.501
1304.500	721.299	80.001	19.994	103.095	19.998	2.556	0.503
1305.000	721.587	80.001	19.996	103.099	20.000	2.388	0.523
1305.500	721.853	80.003	19.996	103.101	19.997	2.635	0.548
1306.000	722.043	80.000	19.994	103.101	19.996	2.667	0.505
1306.500	722.302	80.004	19.994	103.105	19.996	2.723	0.452
1307.000	722.571	80.001	19.994	103.106	19.998	2.554	0.488
1307.500	722.794	80.002	19.995	103.106	19.996	2.692	0.510
1308.000	723.067	80.002	19.993	103.106	19.998	2.556	0.494
1308.500	723.274	80.002	19.995	103.106	19.998	2.566	0.488
1309.000	723.564	80.000	19.996	103.106	20.000	2.424	0.488
1309.500	723.781	80.001	19.995	103.107	19.997	2.606	0.502
1310.001	724.027	80.000	19.996	103.106	19.995	2.777	0.485
1310.501	724.263	79.999	19.995	103.107	19.992	2.955	0.472
1311.001	724.500	80.000	19.994	103.106	19.997	2.635	0.477
1311.500	724.780	80.000	19.995	103.107	19.998	2.531	0.495
1312.000	725.025	80.003	19.996	103.105	19.995	2.752	0.521
1312.500	725.294	80.001	19.995	103.104	20.000	2.397	0.520
1313.001	725.526	80.000	19.995	103.104	20.000	2.409	0.508
1313.501	725.759	80.000	19.996	103.105	19.997	2.593	0.483
1314.000	726.011	80.000	19.996	103.106	19.992	2.940	0.475
1314.500	726.278	80.000	19.994	103.108	19.993	2.882	0.502
1315.000	726.565	80.002	19.995	103.110	19.993	2.867	0.537
1315.500	726.775	80.000	19.994	103.110	19.994	2.857	0.525
1316.000	727.045	80.002	19.994	103.109	19.996	2.694	0.488
1316.500	727.314	80.001	19.993	103.107	19.994	2.863	0.510
1317.000	727.547	80.000	19.994	103.105	19.996	2.710	0.520
1317.500	727.851	80.000	19.995	103.104	19.995	2.754	0.519
1318.000	728.118	80.001	19.995	103.104	19.994	2.857	0.554
1318.501	728.337	80.001	19.995	103.103	19.991	3.059	0.528
1319.001	728.607	80.001	19.994	103.104	19.994	2.853	0.487
1319.500	728.840	80.000	19.995	103.105	19.992	2.974	0.496
1320.000	729.073	80.001	19.995	103.106	19.992	2.999	0.485
1320.500	729.292	80.001	19.994	103.106	19.990	3.124	0.459
1321.000	729.581	79.999	19.995	103.110	19.987	3.325	0.480
1321.500	729.839	80.003	19.996	103.110	19.989	3.189	0.527
1322.000	730.122	80.002	19.995	103.109	19.994	2.850	0.544
1322.500	730.371	80.003	19.994	103.109	19.991	3.070	0.537
1323.000	730.608	80.003	19.996	103.108	19.993	2.903	0.509
1323.500	730.855	80.003	19.996	103.107	19.992	2.961	0.485
1324.000	731.058	80.003	19.995	103.107	19.992	2.940	0.466
1324.500	731.323	80.003	19.994	103.107	19.989	3.210	0.459
1325.001	731.573	80.002	19.995	103.107	19.992	2.971	0.492
1325.501	731.856	80.003	19.995	103.109	19.992	2.946	0.524
1326.000	732.132	80.004	19.994	103.111	19.997	2.610	0.546
1326.500	732.349	80.004	19.994	103.111	19.993	2.926	0.526
1327.000	732.653	80.002	19.993	103.111	19.994	2.854	0.507
1327.500	732.893	80.004	19.995	103.112	19.992	2.984	0.532
1328.001	733.112	80.002	19.995	103.110	19.992	2.976	0.501
1328.501	733.357	80.001	19.993	103.109	19.991	3.034	0.462
1329.000	733.624	80.003	19.992	103.110	19.993	2.880	0.488
1329.500	733.888	80.004	19.993	103.107	19.993	2.936	0.521
1330.000	734.098	80.002	19.994	103.106	19.997	2.606	0.502
1330.500	734.401	80.002	19.994	103.106	19.993	2.886	0.494
1331.000	734.634	80.003	19.995	103.106	19.996	2.712	0.525
1331.500	734.902	80.002	19.995	103.105	19.993	2.907	0.518
1332.000	735.153	80.003	19.993	103.107	19.992	3.005	0.510
1332.500	735.396	80.004	19.995	103.109	19.994	2.857	0.506
1333.000	735.654	80.002	19.993	103.109	19.994	2.828	0.497
1333.500	735.891	80.003	19.994	103.110	19.996	2.719	0.498
1334.000	736.166	80.002	19.994	103.110	19.993	2.886	0.503
1334.501	736.391	80.002	19.993	103.110	19.989	3.160	0.506
1335.001	736.647	80.002	19.993	103.110	19.995	2.788	0.491
1335.500	736.932	80.003	19.994	103.110	19.995	2.734	0.511
1336.001	737.158	80.003	19.995	103.109	19.994	2.817	0.527
1336.501	737.445	80.002	19.993	103.109	19.993	2.934	0.512
1337.001	737.679	80.001	19.994	103.109	19.996	2.681	0.516
1337.501	737.943	80.001	19.994	103.108	19.995	2.792	0.509
1338.001	738.201	80.001	19.994	103.108	19.993	2.882	0.510
1338.501	738.470	80.001	19.992	103.107	19.994	2.798	0.525
1339.002	738.702	80.002	19.994	103.105	19.993	2.888	0.514
1339.501	738.937	80.003	19.994	103.104	19.997	2.633	0.484
1340.000	739.240	80.004	19.993	103.103	19.994	2.865	0.503
1340.500	739.457	80.002	19.994	103.103	19.992	2.974	0.529
1341.000	739.718	80.004	19.994	103.103	19.993	2.913	0.499
1341.500	740.001	80.002	19.994	103.104	19.989	3.185	0.511
1342.000	740.231	80.001	19.994	103.105	19.991	3.018	0.529
1342.500	740.487	79.999	19.993	103.101	19.993	2.901	0.499
1343.000	740.749	80.003	19.995	103.097	19.992	2.980	0.502
1343.500	741.010	80.003	19.995	103.094	19.992	2.978	0.521
1344.000	741.252	80.002	19.994	103.091	19.989	3.176	0.513
1344.500	741.473	80.003	19.993	103.088	19.995	2.746	0.483
1345.000	741.772	80.003	19.994	103.092	19.992	2.990	0.492
1345.500	742.019	80.003	19.994	103.095	19.991	3.026	0.533
1346.000	742.255	80.003	19.994	103.097	19.993	2.932	0.514
1346.500	742.521	80.003	19.994	103.100	19.988	3.256	0.492
1347.000	742.785	80.003	19.994	103.102	19.993	2.898	0.516
1347.500	743.047	80.003	19.994	103.103	19.993	2.915	0.528
1348.000	743.310	80.004	19.994	103.106	19.988	3.243	0.525
1348.500	743.541	80.002	19.994	103.105	19.990	3.099	0.509
1349.000	743.777	80.003	19.994	103.104	19.993	2.936	0.480
