Sample ID:	C:\MCC\MCC Cal\Test\PlasticB_MCC_30K_min_211021_R2.txt
Sample Weight (mg):	4.3
Heating Rate (C/s):	0.5
Combustor Temp (C):	900
N2 Flow Rate (cc/min):	80
O2 Flow Rate (cc/min):	20
Calibration File:	C:\MCC\MCC Cal\Coeff1 JN10440_30_210304.txt.txt
T Correction Coefficients:	0	1.024463	0
Time Shift (s):	14
*
Time (s)	Temperature (C)	N2 flow rate (cc/min)	O2 flow rate (cc/min)	Flow Rate (cc/min)	Oxygen (%)	HRR (W/g)	Heating rate (C/s)
0.001	107.657	80.001	19.997	103.057	20.170	-0.435	-0.011
0.501	107.664	80.002	19.997	103.062	20.168	-0.246	-0.012
1.001	107.695	80.003	19.996	103.068	20.170	-0.422	0.017
1.502	107.673	80.003	19.996	103.069	20.168	-0.277	0.023
2.001	107.679	80.003	19.996	103.069	20.165	-0.021	-0.003
2.500	107.662	80.003	19.996	103.069	20.167	-0.153	-0.014
3.000	107.666	80.004	19.996	103.064	20.169	-0.296	-0.012
3.500	107.689	80.004	19.995	103.063	20.169	-0.306	0.007
4.000	107.691	80.004	19.996	103.062	20.170	-0.404	0.026
4.500	107.712	80.004	19.995	103.067	20.169	-0.298	0.024
5.000	107.642	80.004	19.996	103.067	20.168	-0.222	-0.013
5.500	107.672	80.006	19.996	103.068	20.168	-0.269	-0.045
6.000	107.665	80.004	19.995	103.064	20.169	-0.333	-0.009
6.500	107.670	80.004	19.995	103.063	20.169	-0.315	0.011
7.000	107.676	80.003	19.994	103.063	20.168	-0.261	0.005
7.500	107.658	80.005	19.996	103.063	20.167	-0.159	-0.000
8.001	107.656	80.005	19.995	103.065	20.167	-0.209	-0.016
8.501	107.640	80.004	19.995	103.069	20.166	-0.095	-0.019
9.001	107.663	80.003	19.995	103.070	20.166	-0.124	-0.005
9.502	107.648	80.004	19.996	103.068	20.167	-0.211	0.008
10.002	107.700	80.003	19.996	103.068	20.165	-0.060	0.023
10.501	107.650	80.003	19.995	103.070	20.165	-0.010	0.019
11.000	107.692	80.003	19.995	103.071	20.166	-0.106	-0.004
11.501	107.676	80.003	19.996	103.074	20.167	-0.172	0.009
12.002	107.655	80.003	19.995	103.077	20.165	-0.025	-0.006
12.501	107.697	80.003	19.994	103.077	20.165	-0.025	-0.008
13.001	107.700	80.003	19.995	103.077	20.165	-0.041	0.033
13.502	107.659	80.002	19.995	103.077	20.166	-0.131	0.004
14.002	107.674	80.002	19.995	103.079	20.169	-0.305	-0.032
14.502	107.694	80.003	19.996	103.082	20.164	0.010	0.005
15.001	107.685	80.002	19.995	103.085	20.164	0.029	0.023
15.500	107.703	80.002	19.995	103.089	20.167	-0.145	0.010
16.001	107.681	80.001	19.996	103.092	20.165	0.008	0.002
16.500	107.700	80.003	19.997	103.097	20.161	0.290	-0.004
17.001	107.699	80.002	19.996	103.103	20.161	0.294	0.007
17.501	107.701	80.002	19.997	103.106	20.160	0.375	0.010
18.000	107.734	80.003	19.997	103.110	20.160	0.313	0.018
18.501	107.764	80.003	19.997	103.115	20.159	0.406	0.049
19.001	107.673	80.002	19.997	103.121	20.157	0.539	0.001
19.500	107.739	80.003	19.996	103.129	20.156	0.669	-0.043
20.000	107.747	80.002	19.997	103.137	20.156	0.632	0.025
20.500	107.756	80.002	19.997	103.146	20.154	0.830	0.045
21.001	107.782	80.001	19.997	103.153	20.155	0.757	0.026
21.502	107.763	80.002	19.995	103.154	20.153	0.861	0.021
22.001	107.817	80.002	19.996	103.153	20.151	1.004	0.021
22.501	107.816	80.002	19.996	103.152	20.152	0.978	0.044
23.002	107.858	80.003	19.997	103.151	20.149	1.184	0.047
23.501	107.825	80.003	19.995	103.150	20.152	0.939	0.025
24.000	107.859	80.003	19.996	103.154	20.148	1.273	0.005
24.500	107.896	80.003	19.996	103.161	20.148	1.264	0.036
25.000	107.916	80.003	19.997	103.171	20.146	1.370	0.064
25.500	107.901	80.003	19.995	103.179	20.144	1.523	0.031
26.001	107.975	80.003	19.996	103.187	20.144	1.561	0.032
26.502	108.010	80.004	19.996	103.193	20.146	1.418	0.084
27.002	108.047	80.004	19.996	103.193	20.142	1.669	0.090
27.502	108.042	80.005	19.997	103.169	20.141	1.756	0.052
28.001	108.094	80.004	19.997	103.150	20.140	1.825	0.040
28.500	108.150	80.004	19.996	103.136	20.139	1.889	0.077
29.000	108.171	80.004	19.995	103.123	20.141	1.752	0.092
29.501	108.216	80.004	19.995	103.121	20.143	1.648	0.071
30.001	108.247	80.005	19.996	103.144	20.141	1.775	0.072
30.501	108.286	80.004	19.996	103.191	20.139	1.912	0.073
31.001	108.348	80.004	19.995	103.232	20.142	1.701	0.085
31.500	108.361	80.004	19.997	103.251	20.141	1.802	0.088
32.000	108.382	80.004	19.996	103.254	20.138	1.979	0.054
32.500	108.426	80.003	19.996	103.256	20.138	2.000	0.050
33.000	108.499	80.004	19.996	103.227	20.138	1.987	0.091
33.500	108.538	80.004	19.995	103.203	20.139	1.894	0.114
34.000	108.595	80.004	19.996	103.196	20.140	1.873	0.104
34.500	108.622	80.004	19.995	103.198	20.136	2.143	0.090
35.000	108.679	80.003	19.995	103.196	20.138	1.960	0.084
35.500	108.703	80.004	19.997	103.196	20.137	2.085	0.082
36.000	108.783	80.003	19.996	103.195	20.134	2.271	0.093
36.501	108.830	80.003	19.996	103.195	20.137	2.095	0.115
37.001	108.872	80.003	19.996	103.197	20.135	2.213	0.108
37.501	108.953	80.003	19.996	103.201	20.134	2.315	0.107
38.001	109.004	80.002	19.996	103.209	20.133	2.390	0.128
38.500	109.047	80.002	19.996	103.216	20.134	2.257	0.113
39.001	109.130	80.002	19.997	103.223	20.133	2.363	0.110
39.502	109.212	80.001	19.995	103.229	20.134	2.313	0.146
40.002	109.256	80.001	19.996	103.233	20.134	2.278	0.146
40.501	109.315	80.000	19.996	103.234	20.136	2.145	0.114
41.000	109.391	80.002	19.995	103.237	20.133	2.388	0.118
41.501	109.438	80.001	19.996	103.242	20.130	2.566	0.129
42.001	109.556	80.001	19.994	103.246	20.131	2.537	0.144
42.500	109.609	80.000	19.997	103.254	20.131	2.512	0.168
43.000	109.727	80.001	19.997	103.262	20.128	2.765	0.171
43.500	109.768	80.001	19.997	103.268	20.129	2.682	0.165
44.000	109.857	80.000	19.997	103.270	20.128	2.743	0.145
44.500	109.945	80.000	19.996	103.273	20.128	2.736	0.154
45.000	110.035	80.001	19.996	103.273	20.128	2.751	0.178
45.501	110.114	80.001	19.997	103.272	20.129	2.643	0.173
46.001	110.209	80.001	19.997	103.272	20.128	2.751	0.171
46.501	110.291	80.001	19.997	103.272	20.127	2.817	0.175
47.001	110.387	80.001	19.996	103.272	20.128	2.755	0.177
47.500	110.473	80.002	19.997	103.274	20.123	3.087	0.180
48.000	110.591	80.001	19.996	103.276	20.124	3.024	0.193
48.500	110.717	80.003	19.996	103.277	20.124	3.010	0.224
49.000	110.761	80.001	19.996	103.280	20.123	3.091	0.207
49.501	110.860	80.001	19.996	103.281	20.124	3.068	0.157
50.001	110.993	80.001	19.997	103.282	20.124	3.037	0.188
50.500	111.080	80.001	19.997	103.280	20.123	3.127	0.226
51.000	111.181	80.001	19.997	103.280	20.123	3.133	0.203
51.501	111.274	80.001	19.996	103.282	20.122	3.177	0.191
52.002	111.445	80.001	19.996	103.281	20.123	3.135	0.229
52.502	111.506	80.000	19.997	103.279	20.126	2.925	0.248
53.001	111.634	80.002	19.996	103.278	20.122	3.212	0.211
53.500	111.776	80.001	19.997	103.279	20.121	3.257	0.229
54.000	111.904	80.001	19.996	103.277	20.122	3.210	0.270
54.500	112.000	80.002	19.997	103.281	20.124	3.064	0.247
55.001	112.113	80.002	19.997	103.284	20.120	3.378	0.217
55.502	112.218	80.001	19.996	103.284	20.124	3.038	0.214
56.001	112.347	80.001	19.996	103.281	20.121	3.245	0.226
56.500	112.455	80.001	19.997	103.279	20.123	3.089	0.235
57.000	112.561	80.001	19.997	103.275	20.123	3.135	0.226
57.500	112.657	80.000	19.997	103.273	20.120	3.320	0.208
58.000	112.849	80.002	19.997	103.273	20.119	3.442	0.245
58.500	112.930	80.001	19.996	103.275	20.123	3.116	0.280
59.001	113.054	80.002	19.996	103.275	20.123	3.114	0.239
59.501	113.187	80.003	19.996	103.278	20.123	3.131	0.231
60.000	113.358	80.001	19.997	103.283	20.121	3.303	0.280
60.500	113.475	80.002	19.996	103.289	20.120	3.367	0.296
61.000	113.597	80.001	19.996	103.294	20.119	3.448	0.263
61.501	113.752	80.001	19.996	103.300	20.122	3.230	0.258
62.002	113.856	80.001	19.996	103.304	20.122	3.210	0.269
62.501	113.984	80.002	19.997	103.304	20.124	3.077	0.246
63.001	114.109	80.002	19.996	103.300	20.118	3.523	0.242
63.501	114.282	80.002	19.995	103.296	20.119	3.394	0.276
64.001	114.409	80.002	19.996	103.292	20.119	3.395	0.299
64.501	114.508	80.002	19.995	103.291	20.120	3.326	0.262
65.002	114.687	80.002	19.995	103.292	20.122	3.206	0.252
65.501	114.785	80.002	19.995	103.293	20.116	3.633	0.278
66.001	114.966	80.002	19.995	103.296	20.121	3.260	0.278
66.501	115.091	80.002	19.995	103.301	20.118	3.527	0.293
67.001	115.282	80.002	19.995	103.301	20.120	3.345	0.312
67.501	115.390	80.002	19.996	103.300	20.120	3.341	0.308
68.000	115.525	80.002	19.996	103.297	20.121	3.264	0.271
68.501	115.685	80.000	19.995	103.294	20.118	3.511	0.269
69.002	115.838	80.002	19.996	103.289	20.117	3.602	0.304
69.502	116.009	80.002	19.996	103.286	20.119	3.430	0.318
70.001	116.159	80.001	19.995	103.287	20.122	3.216	0.323
70.500	116.298	80.002	19.996	103.291	20.119	3.424	0.305
71.001	116.462	79.999	19.995	103.295	20.120	3.364	0.295
71.500	116.604	80.001	19.996	103.296	20.119	3.439	0.304
72.000	116.740	80.001	19.996	103.296	20.119	3.420	0.293
72.500	116.926	80.001	19.995	103.293	20.118	3.459	0.300
73.001	117.092	80.001	19.996	103.292	20.120	3.316	0.337
73.502	117.247	80.001	19.997	103.291	20.119	3.383	0.336
74.001	117.385	80.001	19.997	103.295	20.117	3.565	0.307
74.501	117.580	80.001	19.996	103.299	20.116	3.673	0.313
75.002	117.717	80.001	19.997	103.305	20.117	3.538	0.332
75.501	117.895	80.001	19.995	103.307	20.113	3.905	0.324
76.001	118.077	80.000	19.996	103.310	20.117	3.532	0.338
76.501	118.252	80.002	19.996	103.309	20.119	3.401	0.358
77.000	118.405	80.001	19.995	103.307	20.120	3.380	0.342
77.500	118.576	80.001	19.995	103.306	20.119	3.389	0.326
78.000	118.704	80.001	19.997	103.305	20.117	3.540	0.311
78.500	118.912	80.001	19.995	103.305	20.117	3.590	0.318
79.000	119.091	80.001	19.996	103.306	20.115	3.729	0.362
79.500	119.233	80.001	19.996	103.307	20.117	3.567	0.354
80.001	119.392	80.001	19.996	103.303	20.119	3.420	0.311
80.502	119.586	80.001	19.995	103.304	20.116	3.609	0.327
81.002	119.757	80.001	19.996	103.304	20.120	3.353	0.359
81.501	119.906	80.001	19.995	103.305	20.118	3.511	0.342
82.001	120.105	80.002	19.996	103.309	20.118	3.482	0.334
82.501	120.290	80.001	19.997	103.318	20.115	3.689	0.366
83.000	120.472	80.001	19.995	103.319	20.117	3.592	0.376
83.500	120.636	80.002	19.996	103.318	20.115	3.689	0.356
84.000	120.829	80.002	19.995	103.317	20.118	3.488	0.351
84.501	120.983	80.003	19.996	103.314	20.117	3.584	0.352
85.002	121.176	80.001	19.996	103.311	20.112	3.918	0.347
85.501	121.369	80.002	19.996	103.309	20.117	3.577	0.366
86.000	121.564	80.002	19.996	103.309	20.117	3.594	0.387
86.500	121.776	80.004	19.995	103.310	20.116	3.650	0.397
87.000	121.938	80.002	19.995	103.310	20.115	3.690	0.390
87.500	122.106	80.003	19.996	103.309	20.115	3.692	0.352
88.000	122.299	80.002	19.995	103.310	20.113	3.858	0.346
88.500	122.505	80.002	19.996	103.310	20.114	3.764	0.380
89.000	122.673	80.002	19.997	103.309	20.115	3.748	0.387
89.500	122.841	80.002	19.995	103.309	20.114	3.795	0.355
90.000	123.070	80.003	19.996	103.309	20.112	3.961	0.366
90.500	123.250	80.002	19.995	103.314	20.114	3.762	0.403
91.000	123.467	80.004	19.995	103.313	20.118	3.524	0.403
91.500	123.620	80.003	19.996	103.314	20.113	3.854	0.384
92.000	123.889	80.003	19.995	103.314	20.115	3.702	0.396
92.500	124.015	80.002	19.996	103.314	20.113	3.874	0.408
93.000	124.233	80.003	19.996	103.308	20.116	3.681	0.370
93.500	124.454	80.003	19.997	103.309	20.114	3.808	0.392
94.000	124.622	80.004	19.995	103.309	20.111	3.982	0.414
94.500	124.837	80.003	19.994	103.309	20.111	3.988	0.385
95.000	125.029	80.003	19.996	103.309	20.111	4.020	0.395
95.500	125.231	80.003	19.995	103.311	20.114	3.831	0.401
96.000	125.444	80.002	19.995	103.311	20.113	3.837	0.405
96.500	125.692	80.003	19.996	103.311	20.113	3.851	0.438
97.000	125.839	80.002	19.996	103.312	20.114	3.758	0.428
97.501	126.082	80.003	19.995	103.312	20.114	3.812	0.392
98.001	126.244	80.002	19.996	103.313	20.117	3.602	0.397
98.500	126.466	80.002	19.995	103.312	20.115	3.694	0.394
99.000	126.664	80.002	19.996	103.313	20.115	3.717	0.402
99.500	126.858	80.003	19.996	103.312	20.113	3.841	0.406
100.000	127.077	80.003	19.995	103.312	20.114	3.768	0.403
100.500	127.295	80.003	19.995	103.311	20.114	3.800	0.425
101.001	127.484	80.003	19.995	103.312	20.113	3.856	0.421
101.502	127.691	80.004	19.995	103.314	20.115	3.752	0.401
102.001	127.891	80.003	19.995	103.314	20.114	3.773	0.402
102.500	128.126	80.004	19.995	103.315	20.111	4.032	0.421
103.000	128.299	80.002	19.995	103.314	20.115	3.756	0.421
103.500	128.561	80.004	19.995	103.312	20.114	3.760	0.422
104.001	128.761	80.003	19.995	103.311	20.113	3.849	0.449
104.502	128.960	80.002	19.996	103.311	20.112	3.924	0.431
105.002	129.187	80.004	19.994	103.311	20.114	3.818	0.413
105.502	129.403	80.003	19.996	103.313	20.113	3.887	0.434
106.001	129.619	80.002	19.996	103.313	20.115	3.737	0.437
106.501	129.810	80.003	19.994	103.313	20.113	3.858	0.420
107.001	130.035	80.004	19.995	103.313	20.116	3.642	0.412
107.500	130.257	80.003	19.995	103.314	20.117	3.559	0.432
108.001	130.447	80.002	19.996	103.314	20.116	3.652	0.429
108.501	130.636	80.004	19.995	103.314	20.119	3.418	0.395
109.000	130.902	80.004	19.996	103.314	20.115	3.723	0.417
109.500	131.157	80.004	19.995	103.314	20.115	3.685	0.488
110.001	131.339	80.003	19.996	103.314	20.116	3.667	0.479
110.501	131.569	80.003	19.995	103.313	20.115	3.743	0.424
111.000	131.773	80.004	19.996	103.314	20.116	3.625	0.423
111.500	132.012	80.005	19.995	103.314	20.118	3.515	0.439
112.001	132.229	80.004	19.995	103.315	20.117	3.604	0.450
112.501	132.460	80.006	19.996	103.315	20.114	3.831	0.452
113.001	132.660	80.003	19.996	103.314	20.117	3.563	0.439
113.501	132.918	80.004	19.996	103.314	20.115	3.686	0.444
114.001	133.136	80.005	19.995	103.313	20.114	3.769	0.467
114.501	133.356	80.004	19.995	103.312	20.117	3.607	0.457
115.001	133.576	80.004	19.996	103.313	20.122	3.221	0.439
115.500	133.793	80.005	19.995	103.313	20.119	3.445	0.438
116.000	134.020	80.005	19.996	103.313	20.117	3.603	0.441
116.501	134.195	80.004	19.995	103.313	20.120	3.368	0.424
117.002	134.481	80.006	19.996	103.313	20.116	3.627	0.431
117.501	134.692	80.004	19.997	103.312	20.115	3.694	0.479
118.001	134.925	80.004	19.996	103.312	20.118	3.474	0.471
118.501	135.137	80.003	19.996	103.311	20.117	3.576	0.445
119.000	135.355	80.003	19.996	103.310	20.118	3.499	0.437
119.500	135.604	80.002	19.996	103.309	20.115	3.690	0.448
120.001	135.831	80.004	19.996	103.309	20.117	3.563	0.471
120.501	136.056	80.003	19.997	103.308	20.114	3.760	0.463
121.000	136.276	80.003	19.996	103.309	20.116	3.619	0.448
121.501	136.527	80.002	19.996	103.310	20.116	3.675	0.459
122.001	136.743	80.001	19.996	103.311	20.116	3.669	0.470
122.500	136.995	80.003	19.996	103.311	20.118	3.511	0.467
123.001	137.207	80.003	19.996	103.312	20.115	3.692	0.465
123.501	137.451	80.002	19.997	103.316	20.114	3.806	0.460
124.001	137.684	80.001	19.996	103.320	20.112	3.937	0.467
124.501	137.908	80.001	19.996	103.320	20.117	3.592	0.467
125.000	138.159	80.001	19.996	103.320	20.114	3.772	0.466
125.501	138.379	80.002	19.996	103.323	20.117	3.542	0.473
126.001	138.639	80.001	19.995	103.321	20.116	3.660	0.476
126.501	138.850	80.002	19.996	103.318	20.117	3.602	0.475
127.001	139.048	80.001	19.996	103.318	20.115	3.717	0.440
127.500	139.351	80.000	19.997	103.318	20.115	3.721	0.455
128.001	139.568	80.001	19.997	103.316	20.115	3.756	0.510
128.500	139.810	80.002	19.997	103.313	20.114	3.799	0.490
129.000	140.061	80.003	19.996	103.314	20.114	3.766	0.477
129.501	140.308	80.001	19.996	103.314	20.113	3.893	0.496
130.001	140.534	80.000	19.996	103.314	20.115	3.691	0.485
130.501	140.765	80.001	19.996	103.315	20.115	3.714	0.465
131.000	140.994	80.001	19.996	103.316	20.116	3.681	0.458
131.500	141.227	80.002	19.996	103.316	20.118	3.530	0.461
132.000	141.494	80.001	19.996	103.316	20.117	3.604	0.481
132.500	141.707	80.002	19.995	103.315	20.116	3.611	0.490
133.000	141.958	80.001	19.996	103.316	20.116	3.627	0.472
133.500	142.217	80.003	19.996	103.317	20.116	3.637	0.487
134.000	142.413	80.001	19.996	103.317	20.119	3.403	0.483
134.500	142.666	80.001	19.996	103.316	20.117	3.575	0.452
135.000	142.887	80.002	19.996	103.315	20.115	3.708	0.461
135.500	143.179	80.001	19.995	103.312	20.118	3.486	0.493
136.000	143.377	80.001	19.995	103.310	20.116	3.640	0.501
136.500	143.632	80.001	19.997	103.310	20.120	3.339	0.472
137.000	143.887	80.001	19.995	103.311	20.116	3.654	0.482
137.500	144.109	80.003	19.997	103.312	20.119	3.453	0.493
138.000	144.343	80.002	19.996	103.313	20.119	3.426	0.467
138.500	144.636	80.002	19.996	103.312	20.118	3.484	0.491
139.000	144.854	80.003	19.996	103.309	20.116	3.679	0.518
139.500	145.083	80.002	19.997	103.307	20.117	3.548	0.479
140.001	145.350	80.003	19.997	103.307	20.117	3.563	0.472
140.502	145.566	80.002	19.996	103.307	20.118	3.519	0.490
141.002	145.810	80.002	19.996	103.307	20.119	3.384	0.471
141.502	146.100	80.001	19.996	103.309	20.117	3.550	0.497
142.001	146.338	80.002	19.996	103.309	20.119	3.411	0.531
142.501	146.557	80.001	19.996	103.309	20.120	3.341	0.493
143.000	146.769	80.002	19.996	103.309	20.114	3.824	0.444
143.500	147.017	80.002	19.996	103.309	20.116	3.616	0.445
144.001	147.259	80.001	19.997	103.309	20.117	3.554	0.475
144.501	147.516	80.002	19.997	103.306	20.117	3.589	0.494
145.000	147.762	80.000	19.997	103.306	20.117	3.542	0.501
145.500	148.015	80.001	19.996	103.306	20.117	3.564	0.501
146.001	148.274	80.003	19.997	103.305	20.115	3.707	0.505
146.501	148.515	80.002	19.997	103.303	20.117	3.593	0.506
147.001	148.751	80.001	19.997	103.306	20.117	3.539	0.489
147.501	149.011	80.001	19.997	103.306	20.117	3.595	0.487
148.001	149.298	80.001	19.997	103.306	20.118	3.473	0.521
148.500	149.519	80.001	19.996	103.307	20.119	3.450	0.527
149.000	149.806	80.002	19.997	103.307	20.116	3.633	0.508
149.501	150.032	80.001	19.998	103.307	20.120	3.378	0.511
150.001	150.273	80.001	19.997	103.307	20.120	3.336	0.490
150.501	150.518	80.001	19.997	103.304	20.116	3.633	0.477
151.002	150.732	80.001	19.996	103.300	20.120	3.349	0.472
151.502	151.018	80.002	19.996	103.301	20.117	3.579	0.480
152.002	151.233	80.002	19.997	103.300	20.118	3.475	0.501
152.502	151.486	80.000	19.996	103.299	20.117	3.541	0.485
153.001	151.727	80.000	19.997	103.302	20.119	3.446	0.481
153.500	152.014	80.002	19.997	103.305	20.120	3.352	0.510
154.001	152.231	80.000	19.996	103.302	20.118	3.469	0.516
154.501	152.516	80.002	19.996	103.298	20.117	3.566	0.503
155.001	152.731	80.001	19.996	103.298	20.118	3.512	0.501
155.501	152.975	80.002	19.996	103.295	20.117	3.562	0.480
156.001	153.250	80.001	19.996	103.296	20.116	3.633	0.489
156.502	153.522	80.002	19.996	103.291	20.120	3.309	0.533
157.001	153.728	80.002	19.996	103.290	20.118	3.481	0.512
157.501	153.975	80.001	19.995	103.283	20.120	3.354	0.465
158.002	154.198	80.000	19.996	103.280	20.119	3.450	0.462
158.501	154.458	80.001	19.996	103.276	20.115	3.713	0.477
159.001	154.706	80.001	19.996	103.282	20.117	3.572	0.495
159.502	154.917	80.001	19.996	103.284	20.119	3.425	0.483
160.002	155.192	80.001	19.995	103.292	20.118	3.487	0.473
160.502	155.425	80.003	19.996	103.298	20.117	3.593	0.497
161.002	155.664	80.002	19.997	103.299	20.116	3.641	0.490
161.502	155.952	80.001	19.996	103.298	20.117	3.545	0.500
162.002	156.149	80.002	19.996	103.295	20.117	3.560	0.507
162.501	156.442	80.001	19.995	103.288	20.116	3.628	0.487
163.001	156.695	80.001	19.997	103.283	20.121	3.288	0.518
163.501	156.962	80.001	19.996	103.284	20.117	3.539	0.533
164.001	157.204	80.003	19.996	103.280	20.117	3.593	0.515
164.501	157.422	80.002	19.996	103.283	20.117	3.602	0.484
165.001	157.730	80.003	19.997	103.290	20.119	3.452	0.493
165.501	157.943	80.002	19.995	103.293	20.119	3.452	0.523
166.001	158.185	80.003	19.996	103.291	20.117	3.566	0.488
166.500	158.443	80.003	19.996	103.290	20.119	3.406	0.478
167.000	158.686	80.002	19.996	103.286	20.119	3.419	0.501
167.501	158.931	80.002	19.995	103.280	20.119	3.398	0.495
168.001	159.212	80.003	19.997	103.276	20.119	3.394	0.507
168.501	159.386	80.002	19.996	103.277	20.117	3.556	0.490
169.002	159.677	80.002	19.996	103.277	20.118	3.489	0.460
169.501	159.928	80.004	19.998	103.279	20.119	3.386	0.503
170.001	160.164	80.003	19.996	103.282	20.120	3.332	0.514
170.501	160.443	80.003	19.996	103.280	20.122	3.211	0.501
171.000	160.680	80.004	19.995	103.277	20.119	3.419	0.516
171.501	160.896	80.003	19.995	103.280	20.120	3.379	0.485
172.001	161.152	80.004	19.996	103.279	20.121	3.261	0.462
172.501	161.427	80.004	19.995	103.276	20.120	3.315	0.501
173.001	161.708	80.002	19.995	103.277	20.119	3.444	0.543
173.501	161.900	80.003	19.996	103.279	20.118	3.458	0.514
174.001	162.167	80.003	19.995	103.279	20.120	3.373	0.466
174.502	162.403	80.002	19.996	103.282	20.119	3.437	0.481
175.002	162.667	80.003	19.996	103.284	20.118	3.464	0.502
175.501	162.897	80.004	19.996	103.288	20.119	3.450	0.497
176.001	163.164	80.005	19.995	103.292	20.119	3.441	0.495
176.502	163.398	80.002	19.996	103.290	20.118	3.518	0.499
177.001	163.708	80.003	19.996	103.287	20.115	3.709	0.522
177.501	163.928	80.003	19.996	103.285	20.119	3.418	0.537
178.001	164.185	80.002	19.995	103.283	20.120	3.325	0.504
178.501	164.428	80.003	19.996	103.281	20.119	3.447	0.488
179.001	164.714	80.003	19.996	103.283	20.117	3.545	0.514
179.501	164.943	80.003	19.996	103.282	20.118	3.520	0.522
180.001	165.209	80.002	19.994	103.282	20.118	3.456	0.505
180.501	165.419	80.002	19.996	103.281	20.119	3.402	0.485
181.001	165.709	80.002	19.995	103.277	20.120	3.363	0.488
181.501	165.962	80.002	19.995	103.275	20.117	3.568	0.521
182.001	166.210	80.002	19.995	103.275	20.122	3.192	0.522
182.501	166.485	80.002	19.995	103.278	20.119	3.418	0.512
183.001	166.731	80.002	19.996	103.279	20.121	3.275	0.522
183.502	166.971	80.001	19.996	103.278	20.117	3.591	0.503
184.001	167.259	80.002	19.995	103.278	20.116	3.613	0.507
184.501	167.471	80.001	19.995	103.278	20.120	3.350	0.514
185.001	167.691	80.002	19.995	103.275	20.118	3.462	0.466
185.500	167.949	80.001	19.996	103.273	20.118	3.483	0.455
186.001	168.184	80.002	19.995	103.273	20.120	3.352	0.486
186.501	168.479	80.003	19.995	103.273	20.121	3.276	0.511
187.001	168.690	80.004	19.995	103.274	20.118	3.499	0.518
187.501	168.925	80.002	19.995	103.273	20.119	3.416	0.476
188.000	169.201	80.003	19.996	103.270	20.118	3.468	0.478
188.500	169.393	80.002	19.995	103.271	20.122	3.217	0.490
189.000	169.697	80.002	19.995	103.270	20.118	3.491	0.482
189.500	169.947	80.003	19.995	103.271	20.120	3.360	0.525
190.001	170.210	80.001	19.995	103.272	20.118	3.510	0.534
190.501	170.424	80.003	19.996	103.274	20.122	3.178	0.495
191.001	170.668	80.002	19.995	103.274	20.122	3.163	0.467
191.502	170.944	80.003	19.995	103.274	20.123	3.120	0.488
192.002	171.178	80.003	19.995	103.273	20.122	3.217	0.514
192.501	171.435	80.003	19.996	103.272	20.117	3.534	0.500
193.001	171.644	80.003	19.996	103.272	20.122	3.184	0.479
193.501	171.915	80.004	19.996	103.271	20.123	3.117	0.474
194.001	172.187	80.005	19.996	103.271	20.121	3.234	0.512
194.501	172.429	80.003	19.995	103.271	20.119	3.439	0.528
195.001	172.660	80.004	19.995	103.272	20.123	3.124	0.493
195.501	172.883	80.004	19.994	103.274	20.120	3.358	0.463
196.001	173.208	80.003	19.995	103.276	20.120	3.345	0.501
196.501	173.412	80.004	19.995	103.276	20.119	3.408	0.539
197.001	173.662	80.005	19.995	103.277	20.121	3.254	0.492
197.501	173.957	80.004	19.995	103.277	20.120	3.379	0.499
198.001	174.156	80.004	19.996	103.275	20.121	3.273	0.519
198.501	174.438	80.004	19.995	103.275	20.120	3.364	0.487
199.001	174.638	80.005	19.996	103.275	20.120	3.323	0.482
199.501	174.914	80.004	19.996	103.274	20.119	3.400	0.479
200.001	175.161	80.005	19.995	103.274	20.119	3.451	0.500
200.501	175.433	80.005	19.995	103.274	20.119	3.412	0.521
201.002	175.610	80.005	19.995	103.273	20.116	3.644	0.484
201.501	175.893	80.004	19.995	103.270	20.119	3.441	0.454
202.000	176.137	80.004	19.995	103.269	20.120	3.358	0.493
202.501	176.411	80.004	19.996	103.265	20.119	3.404	0.523
203.001	176.656	80.003	19.995	103.261	20.120	3.343	0.519
203.501	176.888	80.004	19.995	103.261	20.121	3.231	0.498
204.001	177.095	80.004	19.995	103.264	20.123	3.152	0.458
204.501	177.411	80.003	19.995	103.263	20.122	3.196	0.481
205.001	177.638	80.005	19.996	103.265	20.123	3.102	0.533
205.501	177.872	80.004	19.995	103.264	20.121	3.268	0.502
206.001	178.145	80.004	19.995	103.261	20.122	3.179	0.483
206.500	178.351	80.002	19.995	103.259	20.121	3.291	0.493
207.000	178.605	80.003	19.996	103.259	20.121	3.241	0.470
207.500	178.854	80.002	19.996	103.257	20.127	2.847	0.482
208.000	179.088	80.001	19.996	103.260	20.124	3.065	0.493
208.500	179.387	80.003	19.996	103.263	20.124	3.026	0.508
209.000	179.564	80.002	19.995	103.264	20.125	2.997	0.504
209.500	179.847	80.002	19.996	103.263	20.122	3.229	0.468
210.000	180.090	80.002	19.996	103.266	20.124	3.059	0.494
210.500	180.353	80.002	19.995	103.265	20.123	3.146	0.516
211.000	180.580	80.002	19.996	103.262	20.125	2.999	0.498
211.500	180.790	80.000	19.996	103.263	20.123	3.154	0.464
212.000	181.068	80.001	19.997	103.264	20.121	3.247	0.462
212.500	181.320	80.002	19.997	103.264	20.123	3.125	0.508
213.000	181.556	80.002	19.996	103.261	20.122	3.204	0.509
213.500	181.782	80.000	19.997	103.259	20.124	3.078	0.476
214.000	182.038	80.001	19.997	103.255	20.123	3.128	0.472
214.500	182.312	80.002	19.996	103.254	20.122	3.215	0.505
215.000	182.510	80.001	19.996	103.250	20.123	3.148	0.501
215.500	182.768	80.002	19.996	103.248	20.122	3.189	0.464
216.000	183.027	80.002	19.997	103.248	20.121	3.285	0.487
216.500	183.282	80.001	19.996	103.246	20.121	3.299	0.516
217.000	183.525	80.000	19.996	103.243	20.122	3.196	0.506
217.500	183.781	80.001	19.996	103.245	20.120	3.308	0.498
218.000	184.032	80.001	19.996	103.246	20.122	3.217	0.503
218.500	184.312	80.001	19.996	103.250	20.122	3.209	0.519
219.000	184.515	80.001	19.997	103.248	20.122	3.186	0.507
219.500	184.752	80.002	19.997	103.248	20.119	3.414	0.461
220.000	184.992	80.001	19.996	103.246	20.121	3.248	0.458
220.500	185.230	80.001	19.996	103.248	20.122	3.215	0.477
221.000	185.555	80.001	19.997	103.245	20.121	3.235	0.521
221.500	185.775	80.002	19.997	103.246	20.120	3.325	0.554
222.000	186.010	80.002	19.997	103.244	20.120	3.378	0.501
222.500	186.296	80.001	19.996	103.242	20.123	3.142	0.489
223.000	186.543	80.002	19.996	103.244	20.121	3.245	0.527
223.500	186.793	80.002	19.997	103.248	20.122	3.159	0.515
224.000	187.007	80.003	19.996	103.252	20.124	3.017	0.480
224.500	187.252	80.001	19.995	103.258	20.124	3.049	0.461
225.000	187.510	80.002	19.996	103.260	20.123	3.113	0.481
225.501	187.738	80.002	19.997	103.254	20.122	3.177	0.495
226.001	187.966	80.002	19.995	103.249	20.127	2.804	0.472
226.501	188.219	80.003	19.995	103.244	20.120	3.347	0.468
227.001	188.476	80.002	19.997	103.241	20.121	3.231	0.495
227.500	188.686	80.003	19.997	103.245	20.123	3.082	0.489
228.001	188.942	80.002	19.997	103.252	20.122	3.177	0.467
228.502	189.232	80.002	19.996	103.256	20.125	2.990	0.505
229.001	189.460	80.003	19.997	103.257	20.124	3.017	0.532
229.500	189.665	80.003	19.997	103.258	20.123	3.113	0.476
230.000	189.910	80.002	19.998	103.257	20.121	3.268	0.441
230.500	190.180	80.002	19.997	103.255	20.121	3.289	0.482
231.001	190.399	80.003	19.997	103.256	20.122	3.198	0.502
231.501	190.659	80.004	19.996	103.256	20.124	3.057	0.484
232.000	190.885	80.002	19.997	103.255	20.123	3.138	0.483
232.501	191.145	80.003	19.996	103.254	20.122	3.188	0.485
233.002	191.401	80.002	19.998	103.249	20.123	3.109	0.500
233.501	191.601	80.003	19.997	103.243	20.121	3.258	0.486
234.001	191.879	80.002	19.997	103.245	20.122	3.219	0.467
234.502	192.113	80.002	19.996	103.250	20.119	3.407	0.495
235.001	192.342	80.002	19.996	103.248	20.117	3.530	0.487
235.500	192.597	80.001	19.998	103.248	20.121	3.250	0.474
236.000	192.794	80.003	19.998	103.250	20.119	3.436	0.468
236.500	193.090	80.001	19.998	103.248	20.122	3.221	0.473
237.000	193.356	80.002	19.996	103.244	20.120	3.324	0.528
237.500	193.595	80.001	19.996	103.244	20.121	3.272	0.534
238.001	193.824	80.001	19.997	103.244	20.117	3.558	0.486
238.502	194.073	80.001	19.997	103.246	20.118	3.498	0.473
239.002	194.308	80.001	19.996	103.244	20.118	3.457	0.481
239.501	194.577	80.002	19.997	103.241	20.115	3.719	0.494
240.000	194.813	80.000	19.997	103.240	20.116	3.665	0.505
240.500	195.025	80.001	19.997	103.240	20.120	3.331	0.477
241.001	195.306	80.001	19.998	103.242	20.122	3.188	0.470
241.500	195.571	80.001	19.998	103.245	20.117	3.561	0.519
242.000	195.763	80.000	19.997	103.250	20.120	3.331	0.501
242.501	196.019	80.000	19.998	103.251	20.118	3.465	0.453
243.001	196.262	79.999	19.998	103.256	20.118	3.517	0.474
243.501	196.470	80.000	19.998	103.253	20.118	3.519	0.475
244.000	196.742	80.001	19.998	103.252	20.120	3.324	0.466
244.500	197.009	80.001	19.997	103.250	20.118	3.486	0.510
245.000	197.236	80.000	19.997	103.253	20.118	3.474	0.516
245.500	197.457	80.001	19.997	103.252	20.119	3.451	0.471
246.000	197.719	80.000	19.998	103.252	20.117	3.543	0.465
246.500	197.942	80.000	19.997	103.252	20.119	3.383	0.484
247.000	198.231	80.000	19.997	103.248	20.119	3.405	0.499
247.500	198.396	79.999	19.997	103.244	20.122	3.188	0.483
248.001	198.671	80.000	19.998	103.240	20.119	3.397	0.446
248.501	198.933	80.000	19.998	103.238	20.122	3.175	0.489
249.001	199.172	80.000	19.997	103.237	20.121	3.281	0.519
249.501	199.411	80.001	19.996	103.240	20.118	3.511	0.489
250.001	199.659	80.001	19.997	103.247	20.119	3.444	0.483
250.501	199.916	80.002	19.997	103.253	20.119	3.453	0.496
251.001	200.154	80.001	19.997	103.256	20.118	3.486	0.500
251.501	200.383	80.001	19.997	103.258	20.117	3.529	0.481
252.001	200.652	80.002	19.996	103.255	20.119	3.426	0.483
252.501	200.911	80.002	19.996	103.251	20.118	3.525	0.513
253.000	201.146	80.003	19.997	103.248	20.117	3.554	0.511
253.500	201.338	80.001	19.997	103.243	20.117	3.552	0.460
254.000	201.635	80.003	19.997	103.242	20.116	3.650	0.458
254.501	201.855	80.003	19.997	103.243	20.115	3.718	0.504
255.001	202.125	80.002	19.996	103.248	20.115	3.710	0.504
255.501	202.358	80.001	19.996	103.250	20.113	3.874	0.496
256.000	202.565	80.003	19.996	103.255	20.114	3.760	0.471
256.500	202.859	80.003	19.996	103.255	20.115	3.741	0.470
257.000	203.087	80.003	19.996	103.260	20.115	3.687	0.512
257.501	203.337	80.004	19.996	103.257	20.119	3.403	0.501
258.002	203.555	80.003	19.996	103.254	20.116	3.625	0.473
258.501	203.849	80.003	19.994	103.250	20.114	3.770	0.490
259.000	204.109	80.003	19.995	103.250	20.115	3.683	0.533
259.500	204.328	80.003	19.995	103.245	20.116	3.635	0.517
260.000	204.555	80.003	19.996	103.242	20.115	3.693	0.463
260.501	204.816	80.001	19.996	103.240	20.117	3.548	0.467
261.001	205.050	80.003	19.996	103.239	20.116	3.670	0.491
261.500	205.318	80.001	19.996	103.239	20.115	3.701	0.498
262.000	205.577	80.002	19.995	103.239	20.120	3.378	0.515
262.501	205.798	80.002	19.997	103.239	20.118	3.515	0.504
263.001	206.079	80.002	19.996	103.239	20.117	3.573	0.491
263.500	206.309	80.004	19.995	103.238	20.117	3.564	0.506
264.000	206.534	80.003	19.997	103.237	20.117	3.544	0.483
264.500	206.804	80.003	19.996	103.237	20.114	3.799	0.475
265.000	207.053	80.003	19.996	103.238	20.117	3.536	0.507
265.501	207.282	80.002	19.995	103.238	20.116	3.627	0.499
266.001	207.504	80.001	19.994	103.240	20.113	3.898	0.464
266.500	207.802	80.002	19.995	103.240	20.116	3.645	0.485
267.001	208.040	80.003	19.996	103.241	20.114	3.786	0.528
267.502	208.292	80.002	19.995	103.240	20.117	3.573	0.513
268.002	208.505	80.002	19.995	103.240	20.114	3.828	0.477
268.502	208.745	80.002	19.995	103.238	20.115	3.720	0.459
269.002	209.009	80.003	19.996	103.237	20.115	3.741	0.478
269.502	209.203	80.002	19.995	103.236	20.114	3.780	0.481
270.001	209.472	80.002	19.996	103.235	20.117	3.564	0.461
270.500	209.725	80.002	19.996	103.234	20.114	3.801	0.493
271.000	209.975	80.002	19.996	103.234	20.118	3.506	0.512
271.501	210.227	80.001	19.996	103.234	20.117	3.554	0.502
272.002	210.478	80.002	19.996	103.234	20.114	3.821	0.502
272.502	210.708	80.003	19.996	103.234	20.115	3.707	0.493
273.001	210.953	80.002	19.996	103.234	20.115	3.687	0.478
273.500	211.193	80.002	19.996	103.234	20.116	3.635	0.480
274.000	211.450	80.001	19.996	103.233	20.118	3.506	0.491
274.501	211.685	80.002	19.996	103.234	20.116	3.647	0.495
275.000	211.942	80.003	19.996	103.235	20.114	3.770	0.492
275.500	212.188	80.004	19.996	103.237	20.113	3.898	0.497
276.000	212.431	80.004	19.996	103.238	20.112	3.952	0.496
276.500	212.675	80.003	19.996	103.238	20.113	3.840	0.488
277.000	212.938	80.002	19.995	103.238	20.115	3.741	0.497
277.500	213.176	80.004	19.995	103.235	20.117	3.600	0.504
278.001	213.427	80.002	19.996	103.234	20.116	3.641	0.495
278.501	213.728	80.005	19.996	103.234	20.116	3.637	0.521
279.001	213.923	80.004	19.996	103.233	20.117	3.579	0.524
279.502	214.185	80.003	19.995	103.232	20.113	3.894	0.476
280.002	214.422	80.003	19.995	103.232	20.116	3.664	0.478
280.502	214.645	80.003	19.995	103.232	20.113	3.871	0.479
281.002	214.913	80.003	19.996	103.231	20.113	3.882	0.475
281.502	215.157	80.003	19.996	103.231	20.115	3.689	0.502
282.002	215.399	80.004	19.995	103.232	20.115	3.741	0.499
282.501	215.665	80.003	19.994	103.231	20.114	3.778	0.497
283.001	215.883	80.005	19.995	103.231	20.114	3.763	0.496
283.500	216.104	80.004	19.995	103.231	20.113	3.832	0.462
284.000	216.394	80.003	19.995	103.231	20.113	3.869	0.475
284.501	216.626	80.004	19.995	103.231	20.114	3.759	0.517
285.001	216.872	80.004	19.996	103.232	20.111	3.979	0.500
285.500	217.116	80.003	19.995	103.232	20.113	3.832	0.484
286.001	217.357	80.004	19.995	103.232	20.114	3.782	0.488
286.502	217.602	80.004	19.996	103.231	20.113	3.838	0.486
287.002	217.833	80.004	19.996	103.231	20.113	3.846	0.481
287.501	218.143	80.004	19.996	103.231	20.111	4.029	0.508
288.000	218.373	80.002	19.995	103.230	20.111	4.039	0.540
288.501	218.613	80.002	19.996	103.231	20.111	4.016	0.505
289.002	218.801	80.003	19.995	103.231	20.109	4.168	0.450
289.501	219.060	80.003	19.995	103.231	20.108	4.243	0.438
290.000	219.283	80.004	19.995	103.232	20.112	3.969	0.464
290.500	219.556	80.004	19.995	103.230	20.111	4.002	0.489
291.001	219.782	80.001	19.996	103.230	20.110	4.081	0.497
291.501	220.017	80.001	19.995	103.230	20.114	3.793	0.480
292.001	220.304	80.001	19.996	103.230	20.113	3.902	0.492
292.501	220.559	80.002	19.995	103.230	20.112	3.969	0.532
293.001	220.727	80.001	19.996	103.232	20.115	3.722	0.482
293.501	221.054	80.002	19.996	103.231	20.113	3.832	0.459
294.000	221.260	80.002	19.996	103.231	20.111	3.985	0.514
294.500	221.507	80.001	19.996	103.232	20.111	4.037	0.493
295.000	221.770	80.002	19.996	103.232	20.113	3.830	0.481
295.501	221.991	80.002	19.996	103.232	20.110	4.095	0.497
296.001	222.230	80.002	19.996	103.235	20.111	3.996	0.472
296.500	222.491	80.003	19.997	103.235	20.113	3.838	0.480
297.000	222.738	80.000	19.996	103.235	20.110	4.089	0.504
297.500	222.974	80.002	19.995	103.235	20.110	4.068	0.495
298.000	223.220	80.002	19.995	103.234	20.109	4.143	0.482
298.500	223.458	80.002	19.996	103.234	20.114	3.811	0.483
299.000	223.682	80.002	19.996	103.234	20.113	3.855	0.473
299.500	223.931	80.000	19.996	103.235	20.113	3.857	0.467
300.000	224.195	80.002	19.995	103.235	20.111	3.996	0.493
300.501	224.435	80.002	19.996	103.235	20.113	3.863	0.509
301.001	224.673	80.003	19.996	103.234	20.112	3.967	0.492
301.501	224.896	80.001	19.996	103.234	20.111	4.046	0.470
302.001	225.158	80.003	19.996	103.234	20.113	3.846	0.473
302.501	225.354	80.003	19.996	103.234	20.112	3.927	0.472
303.001	225.621	80.000	19.995	103.234	20.109	4.162	0.461
303.501	225.857	80.001	19.997	103.234	20.108	4.228	0.483
304.000	226.143	80.000	19.997	103.234	20.109	4.129	0.513
304.500	226.378	80.002	19.996	103.234	20.107	4.350	0.521
305.000	226.634	80.000	19.996	103.236	20.109	4.168	0.505
305.501	226.857	80.002	19.997	103.237	20.111	3.998	0.485
306.001	227.103	80.001	19.996	103.237	20.113	3.894	0.474
306.500	227.371	80.001	19.996	103.237	20.110	4.064	0.491
307.000	227.613	80.001	19.997	103.237	20.111	4.046	0.512
307.501	227.843	80.000	19.997	103.236	20.113	3.890	0.491
308.002	228.092	80.000	19.996	103.235	20.109	4.182	0.475
308.501	228.310	80.001	19.997	103.235	20.109	4.139	0.473
309.000	228.571	80.002	19.997	103.235	20.112	3.938	0.474
309.500	228.794	80.000	19.997	103.235	20.112	3.923	0.482
310.001	229.067	80.001	19.995	103.235	20.108	4.240	0.490
310.501	229.349	80.002	19.997	103.235	20.111	4.031	0.525
311.000	229.581	80.002	19.996	103.235	20.112	3.929	0.535
311.500	229.812	80.001	19.997	103.235	20.113	3.884	0.488
312.000	230.124	80.002	19.996	103.235	20.107	4.282	0.503
312.500	230.339	80.001	19.996	103.235	20.111	4.044	0.535
313.001	230.572	80.002	19.997	103.235	20.110	4.124	0.487
313.501	230.851	80.002	19.996	103.236	20.113	3.884	0.480
314.000	231.092	80.002	19.996	103.237	20.112	3.946	0.517
314.501	231.329	80.001	19.996	103.237	20.112	3.921	0.499
315.001	231.582	80.001	19.996	103.236	20.108	4.253	0.484
315.501	231.844	80.002	19.996	103.235	20.110	4.097	0.502
316.001	232.072	80.001	19.996	103.234	20.110	4.064	0.503
316.501	232.266	80.002	19.996	103.234	20.109	4.182	0.456
317.000	232.556	80.000	19.996	103.234	20.110	4.108	0.453
317.500	232.771	80.002	19.997	103.234	20.110	4.083	0.495
318.000	233.012	80.001	19.996	103.234	20.110	4.102	0.481
318.501	233.270	80.000	19.996	103.234	20.111	3.990	0.477
319.001	233.540	80.001	19.997	103.234	20.111	4.048	0.514
319.501	233.777	80.001	19.997	103.233	20.111	4.044	0.518
320.001	234.009	80.001	19.996	103.233	20.110	4.085	0.488
320.500	234.302	80.002	19.997	103.234	20.108	4.241	0.497
321.001	234.545	80.002	19.996	103.234	20.107	4.352	0.531
321.501	234.790	80.003	19.997	103.235	20.106	4.406	0.512
322.000	235.052	80.003	19.996	103.237	20.108	4.245	0.497
322.501	235.283	80.000	19.997	103.237	20.109	4.149	0.500
323.001	235.552	80.003	19.996	103.237	20.106	4.411	0.497
323.501	235.772	80.001	19.996	103.237	20.112	3.929	0.495
324.001	236.034	80.001	19.997	103.237	20.109	4.203	0.485
324.501	236.257	80.001	19.996	103.237	20.106	4.384	0.484
325.001	236.524	80.000	19.996	103.236	20.108	4.255	0.488
325.501	236.742	80.000	19.996	103.236	20.108	4.249	0.487
326.002	237.014	80.001	19.996	103.236	20.106	4.369	0.487
326.501	237.257	80.001	19.997	103.236	20.107	4.296	0.502
327.001	237.479	80.001	19.997	103.237	20.105	4.466	0.490
327.501	237.748	80.000	19.996	103.237	20.113	3.880	0.478
328.000	238.060	80.001	19.997	103.237	20.104	4.522	0.536
328.500	238.266	80.000	19.997	103.237	20.111	4.045	0.550
329.000	238.513	80.000	19.996	103.237	20.108	4.209	0.486
329.501	238.754	80.000	19.996	103.237	20.102	4.703	0.471
330.001	239.039	80.001	19.996	103.238	20.107	4.352	0.507
330.501	239.209	80.001	19.996	103.237	20.103	4.582	0.490
331.001	239.504	80.001	19.996	103.238	20.104	4.557	0.460
331.501	239.740	80.001	19.997	103.237	20.105	4.435	0.498
332.002	239.999	80.002	19.997	103.236	20.107	4.294	0.513
332.501	240.208	80.001	19.997	103.236	20.104	4.516	0.482
333.001	240.495	80.001	19.996	103.236	20.107	4.350	0.482
333.500	240.706	80.001	19.997	103.236	20.102	4.713	0.497
334.000	241.031	80.003	19.997	103.236	20.111	4.024	0.517
334.500	241.202	80.001	19.996	103.236	20.101	4.748	0.516
335.000	241.517	80.001	19.997	103.235	20.105	4.439	0.491
335.500	241.710	80.002	19.996	103.235	20.104	4.570	0.497
336.001	242.019	80.002	19.997	103.234	20.102	4.657	0.505
336.502	242.191	80.002	19.999	103.233	20.105	4.470	0.492
337.001	242.512	80.000	19.997	103.232	20.102	4.692	0.487
337.500	242.728	80.002	19.997	103.231	20.105	4.499	0.515
338.000	243.007	80.001	19.997	103.231	20.099	4.891	0.516
338.500	243.239	80.003	19.997	103.231	20.101	4.752	0.503
339.001	243.523	80.001	19.996	103.230	20.102	4.677	0.514
339.501	243.754	80.001	19.997	103.230	20.103	4.609	0.515
340.000	244.039	80.000	19.997	103.229	20.104	4.545	0.515
340.500	244.250	80.003	19.997	103.229	20.105	4.499	0.506
341.001	244.438	80.003	19.997	103.228	20.100	4.806	0.447
341.501	244.777	80.003	19.997	103.229	20.109	4.188	0.463
342.001	244.857	80.005	19.997	103.230	20.106	4.404	0.473
342.502	245.347	80.001	19.996	103.230	20.106	4.358	0.494
343.002	245.256	80.004	19.997	103.229	20.106	4.392	0.484
343.501	245.727	80.003	19.997	103.225	20.103	4.609	0.390
344.001	245.974	80.000	19.996	103.222	20.105	4.441	0.549
344.502	246.177	80.002	19.997	103.219	20.104	4.543	0.584
345.001	246.653	80.004	19.997	103.219	20.105	4.468	0.565
345.501	246.905	80.002	19.996	103.220	20.103	4.580	0.704
346.002	247.097	80.004	19.997	103.224	20.103	4.644	0.586
346.502	247.163	80.004	19.996	103.224	20.103	4.605	0.351
347.002	247.638	80.002	19.997	103.226	20.104	4.522	0.399
347.502	247.524	80.000	19.996	103.225	20.103	4.599	0.451
348.001	247.997	80.003	19.998	103.220	20.104	4.534	0.360
348.500	248.208	80.001	19.997	103.218	20.100	4.862	0.522
349.000	248.439	80.002	19.996	103.220	20.101	4.762	0.563
349.501	248.705	80.002	19.996	103.219	20.099	4.899	0.470
350.002	248.909	80.001	19.997	103.219	20.099	4.907	0.484
350.501	249.204	80.003	19.995	103.219	20.099	4.930	0.484
351.001	249.403	80.001	19.996	103.218	20.099	4.906	0.496
351.501	249.665	80.003	19.997	103.218	20.102	4.705	0.478
352.000	249.935	80.002	19.997	103.221	20.100	4.841	0.497
352.500	250.202	80.003	19.996	103.222	20.100	4.827	0.534
353.001	250.414	80.003	19.995	103.226	20.102	4.659	0.508
353.501	250.700	80.003	19.996	103.230	20.102	4.709	0.488
354.001	250.981	79.999	19.996	103.231	20.100	4.852	0.532
354.501	251.163	80.003	19.996	103.230	20.099	4.897	0.515
355.001	251.468	80.001	19.996	103.226	20.102	4.676	0.476
355.501	251.777	80.003	19.996	103.227	20.103	4.634	0.551
356.001	251.958	80.002	19.995	103.226	20.098	4.967	0.552
356.501	252.212	80.004	19.996	103.225	20.099	4.916	0.462
357.001	252.471	80.003	19.995	103.225	20.099	4.943	0.474
357.502	252.691	80.003	19.996	103.226	20.096	5.104	0.496
358.001	252.967	80.004	19.997	103.223	20.099	4.926	0.488
358.500	253.139	80.001	19.996	103.223	20.100	4.829	0.472
359.000	253.439	80.002	19.996	103.222	20.098	4.974	0.460
359.500	253.669	80.003	19.996	103.216	20.101	4.768	0.501
360.001	253.943	80.003	19.996	103.215	20.101	4.781	0.517
360.502	254.186	80.003	19.996	103.216	20.103	4.613	0.510
361.001	254.438	80.004	19.996	103.216	20.098	4.980	0.506
361.501	254.685	80.003	19.996	103.218	20.102	4.694	0.497
362.002	254.933	80.003	19.996	103.225	20.098	4.997	0.497
362.501	255.167	80.003	19.995	103.227	20.099	4.893	0.489
363.000	255.411	80.005	19.996	103.227	20.099	4.947	0.480
363.501	255.673	80.004	19.995	103.227	20.100	4.860	0.492
364.001	255.893	80.004	19.996	103.226	20.099	4.933	0.494
364.501	256.154	80.005	19.995	103.226	20.103	4.595	0.482
365.000	256.422	80.004	19.995	103.228	20.099	4.924	0.505
365.501	256.666	80.005	19.995	103.229	20.099	4.908	0.520
366.001	256.929	80.006	19.994	103.228	20.099	4.897	0.510
366.500	257.138	80.004	19.995	103.221	20.100	4.814	0.489
367.001	257.367	80.004	19.996	103.219	20.099	4.916	0.455
367.501	257.696	80.003	19.995	103.218	20.101	4.729	0.498
368.000	257.945	80.004	19.995	103.218	20.098	5.018	0.568
368.501	258.146	80.003	19.995	103.219	20.098	4.968	0.514
369.002	258.407	80.004	19.995	103.224	20.101	4.796	0.455
369.501	258.653	80.006	19.995	103.221	20.102	4.717	0.484
370.001	258.924	80.006	19.994	103.220	20.099	4.937	0.512
370.501	259.156	80.004	19.995	103.217	20.099	4.904	0.510
371.001	259.397	80.004	19.996	103.217	20.098	4.953	0.488
371.501	259.660	80.004	19.996	103.217	20.098	5.015	0.488
372.001	259.881	80.003	19.995	103.222	20.098	4.984	0.495
372.502	260.176	80.004	19.995	103.225	20.099	4.903	0.500
373.001	260.398	80.003	19.995	103.228	20.096	5.107	0.516
373.500	260.634	80.002	19.996	103.229	20.097	5.032	0.487
374.000	260.895	80.003	19.996	103.230	20.098	4.984	0.477
374.500	261.145	80.004	19.997	103.232	20.103	4.642	0.504
375.001	261.385	80.002	19.996	103.232	20.098	4.957	0.501
375.500	261.640	80.002	19.996	103.231	20.099	4.893	0.493
376.001	261.881	80.001	19.995	103.227	20.097	5.088	0.495
376.501	262.130	80.000	19.996	103.222	20.099	4.937	0.493
377.001	262.374	80.001	19.996	103.221	20.098	4.966	0.492
377.502	262.606	80.001	19.996	103.219	20.102	4.711	0.484
378.001	262.887	80.001	19.996	103.221	20.099	4.889	0.495
378.500	263.131	80.001	19.997	103.224	20.097	5.045	0.519
379.000	263.372	80.000	19.996	103.227	20.096	5.105	0.505
379.500	263.658	80.002	19.996	103.228	20.099	4.896	0.506
380.000	263.874	80.001	19.997	103.231	20.095	5.178	0.514
380.500	264.155	80.002	19.997	103.231	20.100	4.835	0.499
381.001	264.411	80.001	19.996	103.232	20.097	5.068	0.517
381.501	264.653	80.001	19.995	103.232	20.096	5.142	0.518
382.001	264.875	80.001	19.996	103.227	20.098	4.989	0.481
382.502	265.115	80.001	19.996	103.225	20.098	5.007	0.463
383.001	265.370	80.002	19.996	103.223	20.098	4.982	0.479
383.500	265.597	80.001	19.996	103.222	20.096	5.107	0.489
384.000	265.865	80.001	19.995	103.223	20.100	4.858	0.488
384.500	266.111	80.000	19.996	103.225	20.096	5.107	0.505
385.001	266.360	80.001	19.995	103.225	20.100	4.837	0.504
385.501	266.594	80.000	19.996	103.225	20.099	4.881	0.489
386.000	266.825	80.002	19.996	103.224	20.094	5.283	0.474
386.500	267.109	80.002	19.996	103.224	20.098	4.984	0.490
387.000	267.353	80.002	19.996	103.226	20.095	5.218	0.521
387.500	267.566	80.001	19.997	103.224	20.094	5.266	0.493
388.000	267.871	80.002	19.996	103.225	20.097	5.075	0.488
388.501	268.143	80.000	19.996	103.226	20.096	5.135	0.547
389.001	268.377	80.001	19.996	103.226	20.095	5.208	0.541
389.501	268.603	80.002	19.995	103.229	20.092	5.465	0.483
390.001	268.851	80.002	19.995	103.233	20.098	5.005	0.468
390.500	269.115	80.002	19.996	103.232	20.096	5.137	0.493
391.001	269.360	80.001	19.996	103.234	20.092	5.423	0.510
391.501	269.599	80.002	19.996	103.232	20.095	5.201	0.497
392.000	269.890	80.002	19.997	103.232	20.098	5.004	0.507
392.500	270.119	80.002	19.995	103.232	20.097	5.091	0.524
393.000	270.349	80.001	19.996	103.231	20.093	5.340	0.489
393.500	270.650	79.999	19.995	103.228	20.093	5.334	0.495
394.001	270.871	80.001	19.997	103.225	20.091	5.544	0.526
394.501	271.142	80.001	19.995	103.224	20.093	5.351	0.507
395.000	271.455	80.001	19.996	103.224	20.094	5.270	0.538
395.500	271.671	80.001	19.996	103.224	20.095	5.245	0.556
396.000	271.958	80.002	19.994	103.224	20.094	5.293	0.516
396.501	272.166	80.001	19.996	103.229	20.096	5.114	0.499
397.001	272.443	80.001	19.995	103.225	20.095	5.214	0.490
397.500	272.673	80.000	19.995	103.221	20.091	5.508	0.496
398.001	272.937	80.002	19.997	103.218	20.096	5.135	0.501
398.502	273.182	80.001	19.996	103.214	20.092	5.450	0.501
399.001	273.460	80.002	19.995	103.211	20.093	5.340	0.516
399.500	273.699	80.001	19.998	103.211	20.094	5.263	0.520
400.001	273.936	80.002	19.997	103.212	20.092	5.454	0.497
400.501	274.187	80.001	19.996	103.212	20.092	5.408	0.482
401.001	274.432	80.002	19.996	103.214	20.093	5.392	0.492
401.502	274.689	80.000	19.996	103.211	20.090	5.618	0.499
402.002	274.962	80.002	19.996	103.211	20.090	5.564	0.516
402.501	275.226	80.001	19.996	103.207	20.091	5.547	0.533
403.000	275.469	80.001	19.997	103.204	20.092	5.429	0.522
403.500	275.729	80.002	19.997	103.206	20.091	5.529	0.505
404.000	275.964	80.001	19.997	103.211	20.094	5.315	0.499
404.500	276.212	80.002	19.997	103.210	20.094	5.313	0.489
405.001	276.453	80.001	19.996	103.214	20.093	5.350	0.486
405.501	276.726	80.002	19.998	103.216	20.092	5.446	0.501
406.001	276.984	80.000	19.998	103.217	20.092	5.413	0.523
406.501	277.245	80.001	19.999	103.214	20.090	5.562	0.525
407.001	277.439	80.001	19.998	103.211	20.092	5.431	0.487
407.502	277.737	79.999	19.997	103.205	20.094	5.280	0.474
408.002	277.975	80.000	19.996	103.206	20.093	5.328	0.514
408.501	278.244	80.003	19.998	103.203	20.089	5.670	0.521
409.000	278.484	80.001	19.996	103.201	20.090	5.589	0.508
409.500	278.742	80.001	19.996	103.201	20.092	5.419	0.504
410.000	279.002	80.002	19.997	103.204	20.087	5.787	0.508
410.501	279.258	80.002	19.998	103.201	20.090	5.595	0.517
411.001	279.516	80.003	19.998	103.201	20.089	5.661	0.515
411.501	279.806	80.001	19.996	103.202	20.090	5.585	0.531
412.002	280.017	79.998	19.997	103.203	20.090	5.552	0.524
412.501	280.278	80.003	19.998	103.203	20.090	5.602	0.487
413.001	280.523	80.002	19.996	103.205	20.087	5.786	0.488
413.501	280.773	80.000	19.997	103.205	20.090	5.604	0.500
414.001	281.015	80.003	19.998	103.205	20.092	5.423	0.494
414.501	281.295	79.999	19.997	103.205	20.090	5.600	0.507
415.000	281.531	80.002	19.998	103.206	20.090	5.558	0.519
415.500	281.725	80.003	19.996	103.204	20.088	5.715	0.473
416.000	282.045	80.002	19.996	103.206	20.088	5.715	0.472
416.500	282.297	80.000	19.997	103.205	20.087	5.796	0.543
417.001	282.532	80.005	19.997	103.207	20.089	5.642	0.529
417.501	282.780	80.002	19.996	103.208	20.085	5.936	0.485
418.000	283.059	80.002	19.997	103.208	20.087	5.794	0.505
418.500	283.339	80.002	19.996	103.209	20.089	5.642	0.543
419.001	283.581	80.002	19.997	103.208	20.088	5.711	0.540
419.501	283.822	80.001	19.995	103.205	20.088	5.749	0.502
420.001	284.096	80.003	19.996	103.205	20.088	5.703	0.499
420.501	284.322	80.002	19.996	103.203	20.090	5.558	0.508
421.000	284.603	80.004	19.996	103.200	20.088	5.738	0.504
421.500	284.835	80.004	19.997	103.203	20.090	5.570	0.510
422.001	285.085	80.003	19.996	103.206	20.090	5.563	0.497
422.501	285.310	80.003	19.997	103.205	20.090	5.561	0.478
423.001	285.563	80.004	19.996	103.209	20.091	5.514	0.477
423.501	285.830	80.002	19.997	103.213	20.088	5.706	0.499
424.001	286.080	80.006	19.996	103.210	20.090	5.584	0.518
424.502	286.348	80.004	19.996	103.213	20.090	5.607	0.518
425.002	286.659	80.004	19.997	103.215	20.088	5.769	0.549
425.502	286.874	80.003	19.996	103.213	20.087	5.804	0.553
426.002	287.114	80.003	19.996	103.210	20.087	5.785	0.490
426.502	287.342	80.004	19.996	103.210	20.084	6.023	0.461
427.002	287.580	80.003	19.996	103.204	20.089	5.679	0.467
427.502	287.880	80.002	19.996	103.199	20.087	5.775	0.503
428.001	288.139	80.002	19.997	103.196	20.087	5.775	0.548
428.501	288.405	80.001	19.996	103.196	20.088	5.708	0.542
429.002	288.623	80.001	19.996	103.198	20.088	5.729	0.505
429.501	288.846	80.003	19.997	103.199	20.088	5.735	0.463
430.000	289.111	80.002	19.996	103.205	20.088	5.744	0.464
430.500	289.379	80.003	19.996	103.209	20.089	5.653	0.510
431.001	289.598	80.000	19.996	103.208	20.088	5.756	0.510
431.501	289.863	80.003	19.996	103.206	20.086	5.881	0.485
432.000	290.111	80.002	19.997	103.208	20.087	5.846	0.498
432.500	290.383	80.003	19.997	103.204	20.084	6.009	0.517
433.001	290.680	80.002	19.997	103.198	20.089	5.688	0.545
433.501	290.906	80.001	19.995	103.198	20.084	6.050	0.546
434.000	291.185	80.001	19.996	103.200	20.089	5.677	0.514
434.500	291.396	80.002	19.998	103.196	20.086	5.858	0.498
435.000	291.669	80.001	19.997	103.195	20.086	5.920	0.487
435.501	291.904	80.002	19.997	103.196	20.084	6.063	0.496
436.001	292.169	80.001	19.996	103.196	20.085	5.963	0.504
436.501	292.445	80.001	19.997	103.194	20.086	5.858	0.521
437.002	292.704	80.002	19.998	103.196	20.083	6.079	0.538
437.502	292.967	80.002	19.999	103.195	20.087	5.816	0.529
438.002	293.216	80.002	19.997	103.196	20.086	5.903	0.517
438.502	293.443	80.001	19.998	103.196	20.087	5.798	0.494
439.001	293.718	80.001	19.997	103.195	20.087	5.829	0.489
439.501	293.950	80.001	19.996	103.195	20.086	5.891	0.504
440.001	294.203	80.002	19.997	103.195	20.084	6.040	0.496
440.501	294.440	80.002	19.996	103.195	20.084	6.034	0.488
441.002	294.725	80.002	19.997	103.197	20.084	6.038	0.506
441.502	294.951	80.002	19.997	103.201	20.085	5.953	0.517
442.001	295.217	80.003	19.997	103.201	20.080	6.330	0.502
442.500	295.448	80.002	19.995	103.200	20.082	6.202	0.495
443.001	295.694	80.001	19.996	103.200	20.083	6.141	0.487
443.500	295.973	80.002	19.995	103.199	20.082	6.222	0.501
444.000	296.213	80.001	19.995	103.196	20.079	6.396	0.522
444.501	296.451	80.003	19.997	103.195	20.078	6.467	0.498
445.001	296.704	80.003	19.995	103.196	20.079	6.432	0.484
445.500	296.933	80.003	19.996	103.196	20.080	6.359	0.486
446.000	297.203	80.004	19.995	103.196	20.079	6.384	0.491
446.501	297.457	80.006	19.995	103.196	20.079	6.386	0.512
447.002	297.684	80.005	19.995	103.194	20.076	6.629	0.503
447.502	297.953	80.004	19.995	103.194	20.079	6.422	0.489
448.002	298.233	80.006	19.995	103.193	20.075	6.720	0.522
448.501	298.491	80.004	19.995	103.194	20.075	6.674	0.543
449.000	298.723	80.005	19.996	103.194	20.077	6.596	0.514
449.500	298.984	80.006	19.995	103.195	20.074	6.774	0.491
450.001	299.210	80.003	19.995	103.195	20.075	6.691	0.490
450.502	299.496	80.004	19.995	103.195	20.073	6.847	0.500
451.002	299.746	80.001	19.995	103.194	20.072	6.950	0.524
451.501	300.001	80.006	19.996	103.194	20.076	6.618	0.520
452.000	300.229	80.001	19.995	103.195	20.074	6.811	0.494
452.500	300.475	80.004	19.996	103.195	20.073	6.844	0.479
453.001	300.776	80.005	19.996	103.195	20.076	6.616	0.511
453.501	301.009	80.005	19.995	103.195	20.074	6.803	0.541
454.001	301.227	80.004	19.994	103.193	20.071	7.037	0.493
454.500	301.483	80.004	19.994	103.193	20.074	6.815	0.462
455.000	301.772	80.002	19.995	103.193	20.072	6.962	0.509
455.500	301.959	80.003	19.996	103.193	20.073	6.838	0.511
456.000	302.237	80.003	19.995	103.193	20.072	6.958	0.470
456.500	302.477	80.003	19.995	103.195	20.072	6.942	0.491
457.000	302.730	80.001	19.995	103.196	20.071	7.024	0.506
457.500	302.963	80.002	19.995	103.196	20.071	7.010	0.490
458.000	303.241	80.003	19.995	103.197	20.071	7.010	0.499
458.500	303.506	80.000	19.996	103.197	20.072	6.927	0.527
459.000	303.764	80.001	19.995	103.197	20.071	6.975	0.533
459.500	304.000	80.000	19.995	103.197	20.073	6.830	0.508
460.001	304.267	80.003	19.996	103.196	20.075	6.695	0.498
460.501	304.513	80.000	19.996	103.197	20.074	6.815	0.508
461.000	304.763	80.000	19.996	103.197	20.071	7.012	0.504
461.501	305.005	80.002	19.997	103.197	20.073	6.844	0.494
462.002	305.275	80.001	19.996	103.197	20.076	6.672	0.502
462.501	305.550	80.002	19.995	103.197	20.074	6.811	0.529
463.000	305.774	79.999	19.996	103.197	20.072	6.948	0.522
463.501	306.038	80.001	19.996	103.197	20.073	6.875	0.494
464.002	306.313	80.000	19.996	103.197	20.072	6.958	0.513
464.501	306.558	80.001	19.996	103.197	20.075	6.709	0.530
465.000	306.808	80.000	19.996	103.194	20.076	6.625	0.507
465.500	307.065	80.001	19.997	103.194	20.075	6.707	0.501
466.000	307.338	80.001	19.996	103.194	20.076	6.670	0.518
466.501	307.578	80.001	19.996	103.193	20.074	6.763	0.521
467.001	307.821	80.002	19.995	103.191	20.074	6.799	0.498
467.500	308.100	80.001	19.996	103.192	20.075	6.747	0.503
468.001	308.316	80.001	19.996	103.188	20.073	6.894	0.509
468.502	308.615	80.000	19.996	103.187	20.075	6.695	0.505
469.001	308.852	80.001	19.996	103.188	20.073	6.881	0.526
469.500	309.110	80.004	19.996	103.191	20.075	6.724	0.515
470.000	309.374	80.002	19.996	103.192	20.075	6.743	0.508
470.501	309.634	80.001	19.996	103.196	20.075	6.716	0.523
471.001	309.881	80.003	19.996	103.194	20.076	6.647	0.516
471.500	310.155	80.001	19.996	103.193	20.077	6.593	0.514
472.000	310.362	80.003	19.995	103.192	20.079	6.436	0.501
472.501	310.628	80.003	19.995	103.192	20.077	6.562	0.477
473.002	310.904	80.001	19.996	103.192	20.077	6.575	0.507
473.502	311.148	80.002	19.996	103.193	20.078	6.454	0.531
474.001	311.348	80.003	19.996	103.193	20.078	6.506	0.482
474.501	311.683	80.002	19.997	103.193	20.077	6.566	0.489
475.002	311.915	80.002	19.996	103.194	20.079	6.401	0.551
475.501	312.151	80.002	19.996	103.194	20.077	6.550	0.518
476.001	312.448	80.002	19.996	103.195	20.078	6.511	0.500
476.501	312.678	80.003	19.995	103.195	20.080	6.353	0.530
477.002	312.931	80.003	19.995	103.195	20.080	6.345	0.505
477.501	313.238	80.002	19.997	103.194	20.079	6.395	0.521
478.000	313.460	80.000	19.997	103.195	20.081	6.295	0.545
478.500	313.712	80.002	19.996	103.194	20.078	6.479	0.502
479.000	313.971	80.000	19.996	103.193	20.080	6.367	0.492
479.500	314.217	80.003	19.995	103.193	20.078	6.461	0.508
480.000	314.487	80.004	19.995	103.194	20.082	6.164	0.510
480.500	314.699	80.001	19.995	103.194	20.081	6.262	0.499
481.000	314.965	80.003	19.995	103.195	20.081	6.237	0.480
481.500	315.232	80.000	19.996	103.195	20.082	6.220	0.505
482.000	315.466	80.001	19.996	103.195	20.082	6.200	0.517
482.500	315.724	80.002	19.995	103.195	20.087	5.826	0.497
483.000	315.974	80.003	19.996	103.194	20.083	6.141	0.500
483.500	316.229	80.002	19.997	103.193	20.082	6.156	0.507
484.001	316.482	80.002	19.995	103.193	20.084	6.028	0.507
484.501	316.766	80.003	19.995	103.193	20.084	6.007	0.522
485.001	317.012	80.001	19.995	103.193	20.084	6.073	0.533
485.502	317.247	80.002	19.994	103.194	20.081	6.251	0.506
486.001	317.529	80.001	19.995	103.196	20.085	5.967	0.499
486.500	317.770	80.003	19.995	103.196	20.083	6.092	0.520
487.001	318.030	80.003	19.997	103.199	20.085	5.992	0.512
487.501	318.261	80.001	19.997	103.198	20.083	6.081	0.496
488.001	318.504	80.002	19.996	103.198	20.085	5.965	0.482
488.501	318.737	80.002	19.996	103.197	20.085	5.976	0.475
489.001	318.996	80.001	19.996	103.197	20.085	5.970	0.484
489.501	319.271	80.002	19.996	103.193	20.087	5.831	0.513
490.001	319.510	80.002	19.996	103.194	20.084	6.007	0.524
490.500	319.771	80.002	19.995	103.195	20.083	6.098	0.507
491.000	320.023	80.003	19.997	103.195	20.080	6.305	0.507
491.500	320.264	80.002	19.996	103.195	20.084	6.001	0.503
492.000	320.499	80.001	19.997	103.195	20.087	5.795	0.484
492.500	320.751	80.001	19.994	103.194	20.084	6.032	0.481
493.000	321.042	80.002	19.998	103.193	20.087	5.804	0.515
493.500	321.273	80.000	19.995	103.193	20.089	5.694	0.533
494.000	321.514	80.001	19.994	103.193	20.088	5.735	0.497
494.500	321.790	80.001	19.997	103.194	20.085	5.930	0.495
495.000	322.037	80.000	19.996	103.195	20.092	5.460	0.520
495.501	322.291	80.000	19.995	103.195	20.093	5.397	0.512
496.001	322.518	79.999	19.997	103.194	20.089	5.686	0.491
496.501	322.777	80.003	19.998	103.194	20.087	5.793	0.484
497.001	323.058	80.000	19.997	103.193	20.089	5.681	0.513
497.501	323.266	80.002	19.997	103.193	20.091	5.529	0.515
498.001	323.539	80.001	19.997	103.193	20.090	5.622	0.485
498.500	323.804	80.001	19.998	103.194	20.087	5.811	0.509
499.000	324.048	80.000	20.000	103.195	20.087	5.816	0.523
499.501	324.305	79.999	19.997	103.195	20.087	5.783	0.505
500.002	324.546	80.000	19.997	103.196	20.089	5.653	0.499
500.502	324.817	80.002	19.996	103.194	20.086	5.859	0.505
501.001	325.056	80.001	19.997	103.194	20.086	5.908	0.511
501.501	325.277	80.002	19.998	103.192	20.089	5.661	0.485
502.001	325.540	80.001	19.998	103.190	20.089	5.640	0.472
502.501	325.803	80.002	19.996	103.192	20.091	5.484	0.505
503.001	326.066	80.002	19.997	103.194	20.090	5.594	0.526
503.500	326.280	80.003	19.997	103.194	20.088	5.704	0.502
504.000	326.515	80.003	19.997	103.196	20.087	5.794	0.463
504.501	326.795	80.002	19.996	103.199	20.086	5.866	0.482
505.000	327.074	80.002	19.996	103.196	20.085	5.924	0.537
505.500	327.279	80.004	19.997	103.196	20.088	5.723	0.521
506.001	327.545	80.003	19.996	103.195	20.087	5.827	0.477
506.501	327.779	80.002	19.996	103.195	20.092	5.468	0.485
507.001	328.072	80.002	19.997	103.195	20.089	5.692	0.513
507.500	328.300	80.004	19.997	103.195	20.086	5.891	0.524
508.000	328.520	80.002	19.997	103.195	20.091	5.501	0.485
508.500	328.775	80.003	19.997	103.209	20.088	5.756	0.461
509.000	329.027	80.003	19.998	103.200	20.090	5.615	0.491
509.501	329.280	80.004	19.997	103.178	20.086	5.864	0.506
510.001	329.551	80.003	19.996	103.162	20.088	5.712	0.514
510.502	329.765	80.002	19.996	103.153	20.089	5.679	0.504
511.001	330.016	80.002	19.997	103.135	20.089	5.640	0.475
511.501	330.279	80.003	19.996	103.140	20.089	5.625	0.490
512.001	330.485	80.003	19.996	103.166	20.089	5.690	0.491
512.500	330.761	80.003	19.996	103.206	20.086	5.878	0.476
513.000	330.978	80.002	19.997	103.226	20.089	5.628	0.487
513.500	331.226	80.003	19.996	103.233	20.089	5.681	0.479
514.000	331.448	80.003	19.997	103.235	20.093	5.381	0.468
514.501	331.706	80.004	19.996	103.227	20.088	5.756	0.475
515.002	331.968	80.003	19.995	103.201	20.086	5.918	0.500
515.501	332.242	80.004	19.996	103.190	20.088	5.727	0.528
516.001	332.483	80.002	19.996	103.188	20.084	6.003	0.526
516.502	332.716	80.003	19.995	103.190	20.084	6.032	0.494
517.001	332.972	80.002	19.997	103.195	20.089	5.686	0.481
517.500	333.273	80.002	19.995	103.196	20.087	5.802	0.523
518.000	333.458	80.002	19.997	103.196	20.085	5.928	0.521
518.500	333.725	80.002	19.995	103.197	20.088	5.723	0.469
519.000	333.962	80.002	19.995	103.196	20.089	5.640	0.478
519.501	334.206	80.002	19.995	103.195	20.086	5.856	0.493
520.001	334.442	80.003	19.996	103.192	20.085	5.986	0.480
520.501	334.717	80.003	19.996	103.191	20.088	5.714	0.496
521.001	334.944	80.002	19.996	103.191	20.086	5.870	0.507
521.500	335.203	80.002	19.996	103.191	20.088	5.741	0.494
522.001	335.443	80.002	19.997	103.191	20.088	5.710	0.492
522.502	335.669	80.002	19.996	103.193	20.087	5.824	0.483
523.001	335.946	80.002	19.996	103.194	20.087	5.822	0.484
523.501	336.182	80.003	19.996	103.194	20.087	5.774	0.508
524.002	336.471	80.002	19.997	103.194	20.088	5.702	0.520
524.502	336.719	80.002	19.996	103.195	20.090	5.617	0.531
525.002	336.947	80.001	19.997	103.196	20.086	5.899	0.506
525.501	337.192	80.001	19.996	103.197	20.087	5.795	0.474
526.001	337.418	80.002	19.997	103.197	20.088	5.754	0.472
526.500	337.668	80.001	19.998	103.196	20.086	5.878	0.474
527.001	337.941	80.001	19.997	103.196	20.087	5.840	0.499
527.502	338.158	80.001	19.998	103.196	20.086	5.919	0.506
528.002	338.410	80.002	19.995	103.195	20.087	5.782	0.479
528.501	338.670	80.002	19.997	103.196	20.086	5.921	0.491
529.000	338.868	80.002	19.997	103.196	20.084	6.058	0.485
529.501	339.130	80.002	20.000	103.196	20.089	5.676	0.459
530.001	339.381	80.003	19.997	103.195	20.087	5.813	0.486
530.501	339.629	80.003	19.997	103.195	20.087	5.786	0.505
531.001	339.905	80.004	19.996	103.193	20.090	5.583	0.511
531.502	340.154	80.003	19.995	103.191	20.088	5.770	0.525
532.001	340.371	80.004	19.998	103.190	20.088	5.754	0.496
532.501	340.629	80.002	19.999	103.190	20.086	5.868	0.471
533.001	340.878	80.004	19.997	103.190	20.087	5.785	0.491
533.500	341.122	80.003	19.997	103.190	20.088	5.712	0.500
534.000	341.409	80.002	19.994	103.189	20.087	5.838	0.512
534.500	341.613	80.003	19.996	103.187	20.082	6.186	0.511
535.000	341.880	80.004	19.998	103.187	20.087	5.820	0.480
535.500	342.097	80.003	19.998	103.186	20.085	5.938	0.477
536.001	342.383	80.003	19.996	103.186	20.089	5.640	0.494
536.502	342.610	80.003	19.998	103.187	20.088	5.750	0.508
537.001	342.871	80.003	19.996	103.187	20.091	5.536	0.500
537.501	343.116	80.002	19.997	103.182	20.089	5.640	0.497
538.001	343.378	80.003	19.996	103.182	20.090	5.584	0.507
538.501	343.538	80.004	19.997	103.179	20.090	5.611	0.464
539.001	343.821	80.003	19.996	103.179	20.086	5.864	0.433
539.501	344.058	80.001	19.996	103.178	20.082	6.202	0.481
540.001	344.281	80.003	19.996	103.179	20.087	5.806	0.489
540.500	344.546	80.002	19.997	103.175	20.086	5.890	0.474
541.000	344.784	80.003	19.997	103.178	20.087	5.830	0.496
541.500	345.000	80.002	19.997	103.178	20.092	5.449	0.479
542.000	345.275	80.003	19.996	103.180	20.085	5.938	0.473
542.500	345.516	80.002	19.995	103.182	20.087	5.816	0.504
543.000	345.742	80.001	19.996	103.186	20.085	5.938	0.491
543.501	346.035	80.002	19.996	103.186	20.089	5.663	0.493
544.001	346.227	80.001	19.995	103.185	20.085	5.984	0.502
544.500	346.514	80.002	19.996	103.183	20.086	5.857	0.482
545.000	346.740	80.002	19.996	103.181	20.085	5.986	0.496
545.500	347.019	80.001	19.996	103.181	20.086	5.874	0.509
546.000	347.236	80.002	19.996	103.183	20.083	6.114	0.501
546.500	347.466	80.002	19.996	103.184	20.083	6.106	0.472
547.000	347.732	80.002	19.995	103.186	20.084	6.071	0.471
547.500	347.955	80.001	19.995	103.190	20.085	5.959	0.492
548.000	348.238	80.002	19.995	103.191	20.081	6.282	0.497
548.501	348.438	80.002	19.996	103.191	20.085	5.947	0.495
549.000	348.679	80.001	19.996	103.193	20.084	6.052	0.462
549.500	348.963	80.001	19.995	103.193	20.084	6.013	0.483
550.000	349.213	80.001	19.996	103.193	20.088	5.750	0.530
550.500	349.470	80.002	19.997	103.193	20.085	5.961	0.521
551.001	349.719	80.001	19.997	103.190	20.084	6.071	0.507
551.501	349.970	80.002	19.995	103.187	20.083	6.117	0.503
552.000	350.204	80.002	19.996	103.188	20.084	6.032	0.492
552.500	350.462	80.001	19.997	103.188	20.083	6.123	0.488
553.000	350.695	80.001	19.997	103.187	20.084	6.038	0.492
553.501	350.947	80.001	19.996	103.189	20.078	6.500	0.488
554.001	351.164	80.001	19.996	103.192	20.082	6.189	0.477
554.501	351.431	80.002	19.995	103.192	20.077	6.585	0.476
555.001	351.665	80.003	19.995	103.189	20.078	6.490	0.492
555.501	351.923	80.002	19.997	103.188	20.081	6.258	0.496
556.002	352.172	80.001	19.995	103.189	20.079	6.428	0.499
556.501	352.388	80.001	19.998	103.188	20.077	6.564	0.486
557.001	352.681	80.003	19.996	103.188	20.078	6.471	0.487
557.501	352.902	80.001	19.996	103.191	20.080	6.355	0.512
558.000	353.191	80.001	19.996	103.193	20.073	6.855	0.512
558.500	353.432	80.001	19.997	103.194	20.076	6.602	0.520
559.000	353.697	80.003	19.996	103.192	20.076	6.662	0.518
559.500	353.929	80.002	19.996	103.191	20.077	6.573	0.501
560.000	354.207	80.001	19.996	103.191	20.076	6.652	0.503
560.500	354.429	80.001	19.996	103.191	20.074	6.770	0.505
561.000	354.691	80.001	19.994	103.191	20.075	6.741	0.492
561.500	354.972	80.002	19.997	103.193	20.077	6.585	0.514
562.001	355.219	80.002	19.997	103.193	20.080	6.343	0.536
562.501	355.476	80.003	19.995	103.193	20.076	6.623	0.516
563.000	355.737	80.002	19.997	103.193	20.080	6.370	0.511
563.500	355.985	80.003	19.998	103.193	20.076	6.624	0.513
564.000	356.222	80.001	19.998	103.194	20.070	7.107	0.497
564.500	356.464	80.003	19.997	103.193	20.070	7.068	0.482
565.001	356.737	80.004	19.997	103.193	20.075	6.732	0.497
565.502	356.958	80.003	19.996	103.193	20.075	6.726	0.504
566.002	357.259	80.002	19.997	103.194	20.075	6.701	0.508
566.501	357.514	80.001	19.994	103.193	20.077	6.592	0.539
567.000	357.704	80.001	19.996	103.194	20.075	6.724	0.500
567.500	358.013	80.001	19.995	103.195	20.070	7.097	0.472
568.001	358.249	80.002	19.995	103.194	20.070	7.097	0.522
568.501	358.512	80.002	19.996	103.194	20.071	6.979	0.522
569.000	358.753	80.002	19.996	103.196	20.070	7.095	0.501
569.500	358.982	80.001	19.997	103.197	20.071	7.027	0.487
570.000	359.244	80.000	19.997	103.195	20.067	7.317	0.481
570.500	359.530	80.001	19.996	103.195	20.069	7.186	0.520
571.000	359.775	80.003	19.996	103.195	20.068	7.271	0.539
571.501	360.030	80.002	19.996	103.194	20.067	7.331	0.515
572.001	360.248	80.000	19.995	103.193	20.064	7.501	0.487
572.500	360.528	80.001	19.996	103.194	20.067	7.305	0.486
573.001	360.820	80.001	19.997	103.195	20.065	7.487	0.535
573.501	361.066	80.000	19.995	103.195	20.066	7.414	0.554
574.002	361.332	80.002	19.994	103.194	20.064	7.526	0.525
574.502	361.541	80.001	19.994	103.192	20.063	7.590	0.494
575.002	361.780	80.000	19.996	103.189	20.062	7.680	0.461
575.501	362.061	80.001	19.997	103.188	20.063	7.609	0.484
576.001	362.315	80.001	19.997	103.189	20.057	8.038	0.528
576.501	362.570	80.002	19.994	103.192	20.060	7.814	0.522
577.001	362.827	80.001	19.996	103.194	20.058	8.003	0.511
577.502	363.054	80.000	19.998	103.198	20.057	8.086	0.498
578.002	363.346	80.001	19.995	103.199	20.052	8.399	0.501
578.502	363.579	80.002	19.992	103.198	20.058	7.951	0.522
579.002	363.866	80.001	19.996	103.195	20.056	8.117	0.522
579.501	364.100	80.002	19.996	103.194	20.059	7.875	0.521
580.001	364.357	80.003	19.995	103.194	20.052	8.451	0.506
580.502	364.619	80.000	19.996	103.194	20.051	8.477	0.505
581.001	364.854	80.001	19.995	103.190	20.052	8.458	0.508
581.501	365.120	80.001	19.996	103.191	20.051	8.477	0.499
582.000	365.360	80.001	19.996	103.189	20.047	8.837	0.503
582.501	365.632	80.001	19.997	103.191	20.051	8.516	0.509
583.001	365.861	80.002	19.995	103.193	20.052	8.443	0.507
583.501	366.117	80.001	19.996	103.196	20.046	8.863	0.493
584.001	366.395	80.002	19.995	103.197	20.046	8.910	0.510
584.500	366.633	80.002	19.997	103.197	20.044	9.064	0.525
585.001	366.888	80.002	19.995	103.195	20.047	8.788	0.504
585.502	367.178	80.003	19.997	103.194	20.043	9.137	0.519
586.002	367.421	80.003	19.995	103.194	20.046	8.913	0.539
586.501	367.686	80.003	19.995	103.194	20.041	9.286	0.521
587.001	367.949	80.002	19.995	103.197	20.039	9.383	0.519
587.501	368.196	80.002	19.995	103.197	20.035	9.700	0.519
588.002	368.462	80.003	19.996	103.197	20.034	9.748	0.511
588.502	368.718	80.002	19.996	103.197	20.030	10.056	0.518
589.002	368.971	80.002	19.996	103.197	20.036	9.646	0.516
589.501	369.219	80.004	19.996	103.197	20.032	9.907	0.505
590.000	369.534	80.003	19.996	103.197	20.031	9.988	0.532
590.501	369.796	80.003	19.996	103.197	20.025	10.457	0.570
591.001	369.990	80.003	19.995	103.196	20.024	10.535	0.516
591.500	370.287	80.001	19.995	103.191	20.024	10.531	0.473
592.000	370.548	80.003	19.995	103.185	20.022	10.667	0.525
592.501	370.800	80.002	19.997	103.183	20.024	10.541	0.536
593.001	371.065	80.003	19.995	103.183	20.025	10.456	0.515
593.501	371.339	80.004	19.997	103.180	20.024	10.564	0.528
594.001	371.585	80.003	19.997	103.182	20.018	10.941	0.529
594.500	371.821	80.001	19.995	103.188	20.021	10.745	0.501
595.000	372.128	80.001	19.996	103.189	20.019	10.900	0.513
595.501	372.392	80.003	19.996	103.187	20.022	10.681	0.557
596.001	372.646	80.003	19.995	103.191	20.020	10.851	0.544
596.502	372.901	80.002	19.996	103.193	20.019	10.890	0.513
597.002	373.160	80.003	19.998	103.194	20.020	10.807	0.511
597.502	373.450	80.002	19.997	103.195	20.016	11.149	0.531
598.002	373.725	80.003	19.996	103.195	20.015	11.213	0.557
598.501	373.977	80.002	19.996	103.193	20.016	11.158	0.546
599.000	374.200	80.001	19.997	103.190	20.012	11.448	0.501
599.500	374.504	80.003	19.995	103.188	20.013	11.363	0.501
600.000	374.749	80.002	19.998	103.187	20.016	11.099	0.538
600.500	375.004	80.003	19.999	103.187	20.009	11.650	0.524
601.001	375.227	80.001	19.999	103.188	20.011	11.526	0.489
601.500	375.488	80.001	19.997	103.191	20.007	11.790	0.481
602.000	375.726	80.002	19.998	103.190	20.007	11.821	0.491
602.501	375.989	80.003	19.996	103.187	20.008	11.709	0.500
603.002	376.250	80.003	19.996	103.184	20.004	12.019	0.513
603.501	376.551	80.002	19.995	103.183	20.000	12.336	0.543
604.000	376.769	80.003	19.996	103.181	19.998	12.496	0.541
604.501	377.050	80.003	19.997	103.182	19.995	12.677	0.509
605.001	377.290	80.002	19.997	103.185	19.990	13.070	0.510
605.501	377.583	80.002	19.998	103.188	19.986	13.367	0.527
606.001	377.808	80.002	19.997	103.191	19.987	13.335	0.525
606.500	378.071	80.001	19.996	103.195	19.983	13.623	0.503
607.000	378.367	80.001	19.999	103.196	19.976	14.089	0.524
607.500	378.598	80.001	19.996	103.195	19.978	14.006	0.543
608.001	378.850	80.001	19.997	103.192	19.973	14.325	0.505
608.502	379.117	80.002	19.996	103.190	19.974	14.305	0.501
609.002	379.416	80.003	19.994	103.187	19.970	14.605	0.543
609.502	379.652	80.003	19.996	103.183	19.965	14.911	0.551
610.002	379.915	80.003	19.997	103.176	19.967	14.817	0.517
610.502	380.196	80.003	19.997	103.176	19.965	14.928	0.521
611.001	380.488	80.002	19.995	103.174	19.961	15.230	0.559
611.500	380.715	80.003	19.996	103.171	19.960	15.350	0.546
612.001	381.012	80.001	19.997	103.173	19.955	15.722	0.521
612.502	381.251	80.004	19.996	103.178	19.950	16.072	0.530
613.002	381.499	80.002	19.996	103.178	19.947	16.325	0.512
613.501	381.790	80.003	19.995	103.180	19.941	16.746	0.513
614.000	382.012	80.004	19.999	103.184	19.939	16.874	0.525
614.500	382.266	80.004	19.995	103.187	19.935	17.175	0.494
615.001	382.580	80.003	19.996	103.189	19.934	17.290	0.522
615.501	382.811	80.002	19.995	103.192	19.927	17.784	0.557
616.001	383.086	80.005	19.996	103.191	19.925	17.972	0.525
616.501	383.369	80.004	19.997	103.189	19.922	18.139	0.532
617.002	383.584	80.004	19.999	103.188	19.920	18.301	0.528
617.502	383.856	80.005	19.996	103.188	19.921	18.221	0.492
618.001	384.158	80.003	19.998	103.186	19.920	18.334	0.530
618.501	384.389	80.003	19.996	103.182	19.913	18.849	0.553
619.001	384.636	80.003	19.997	103.179	19.914	18.760	0.506
619.501	384.919	80.004	19.997	103.174	19.915	18.686	0.504
620.001	385.130	80.003	19.999	103.166	19.913	18.814	0.512
620.500	385.420	80.003	19.996	103.160	19.914	18.753	0.498
621.001	385.660	80.003	19.995	103.157	19.916	18.601	0.515
621.501	385.923	80.003	19.996	103.153	19.919	18.388	0.516
622.001	386.163	80.001	19.996	103.151	19.915	18.667	0.503
622.502	386.439	80.002	19.997	103.150	19.923	18.089	0.510
623.002	386.710	80.003	19.997	103.153	19.924	18.003	0.532
623.501	386.973	80.003	19.996	103.155	19.922	18.177	0.541
624.000	387.199	80.001	19.996	103.155	19.921	18.237	0.511
624.500	387.450	80.001	19.999	103.155	19.917	18.517	0.482
625.001	387.710	80.000	19.998	103.157	19.922	18.133	0.494
625.502	387.970	80.002	19.998	103.157	19.925	17.974	0.516
626.002	388.230	80.001	19.997	103.162	19.925	17.964	0.520
626.502	388.506	80.001	19.996	103.170	19.921	18.259	0.528
627.002	388.769	80.001	19.998	103.178	19.917	18.546	0.538
627.502	389.010	80.000	19.996	103.184	19.918	18.462	0.521
628.002	389.264	80.000	19.997	103.189	19.912	18.923	0.499
628.501	389.506	80.001	19.998	103.190	19.908	19.201	0.496
629.001	389.746	80.002	19.997	103.196	19.907	19.302	0.489
629.502	390.032	80.001	19.998	103.201	19.900	19.774	0.504
630.002	390.296	79.999	19.996	103.203	19.895	20.199	0.538
630.502	390.540	80.000	19.996	103.205	19.886	20.857	0.529
631.002	390.757	80.000	19.997	103.206	19.881	21.220	0.484
631.501	390.984	80.001	19.996	103.201	19.873	21.846	0.452
632.001	391.276	80.000	19.997	103.197	19.866	22.375	0.481
632.502	391.514	79.999	19.996	103.197	19.857	23.009	0.525
633.001	391.784	79.999	19.996	103.195	19.856	23.111	0.519
633.501	392.037	80.002	19.996	103.192	19.846	23.845	0.516
634.001	392.306	79.999	19.996	103.190	19.838	24.483	0.523
634.500	392.519	80.000	19.996	103.186	19.824	25.487	0.502
635.000	392.829	80.001	19.996	103.186	19.820	25.834	0.502
635.501	393.057	80.001	19.997	103.187	19.806	26.870	0.530
636.001	393.290	80.000	19.995	103.188	19.792	27.909	0.499
636.500	393.562	80.000	19.998	103.188	19.788	28.193	0.483
637.000	393.829	80.001	19.997	103.190	19.781	28.772	0.522
637.501	394.059	80.001	19.995	103.183	19.772	29.440	0.518
638.001	394.327	80.002	19.997	103.175	19.764	29.996	0.497
638.501	394.582	80.002	19.993	103.169	19.756	30.585	0.511
639.000	394.853	80.001	19.996	103.164	19.756	30.622	0.525
639.501	395.083	80.000	19.996	103.157	19.755	30.690	0.513
640.002	395.351	80.001	19.996	103.154	19.748	31.213	0.499
640.502	395.574	80.002	19.995	103.153	19.744	31.455	0.494
641.001	395.850	80.000	19.996	103.151	19.739	31.821	0.494
641.500	396.055	80.001	19.996	103.148	19.738	31.951	0.490
642.001	396.315	80.001	19.995	103.149	19.734	32.219	0.473
642.502	396.584	80.001	19.996	103.152	19.729	32.635	0.497
643.001	396.833	80.001	19.996	103.153	19.721	33.178	0.523
643.500	397.089	80.001	19.995	103.154	19.714	33.732	0.512
644.000	397.309	80.000	19.996	103.157	19.707	34.254	0.491
644.500	397.551	80.002	19.996	103.157	19.697	34.995	0.469
645.001	397.800	80.000	19.996	103.165	19.691	35.476	0.476
645.501	398.054	80.002	19.995	103.173	19.679	36.348	0.497
646.001	398.318	80.001	19.996	103.182	19.668	37.210	0.510
646.502	398.541	80.001	19.995	103.198	19.658	37.948	0.503
647.001	398.818	80.002	19.997	103.213	19.646	38.832	0.494
647.500	399.066	80.001	19.996	103.223	19.637	39.532	0.513
648.001	399.340	80.002	19.995	103.238	19.625	40.445	0.523
648.502	399.537	80.000	19.995	103.247	19.619	40.850	0.497
649.001	399.831	80.002	19.996	103.242	19.615	41.199	0.481
649.501	400.069	80.001	19.996	103.233	19.604	42.014	0.512
650.001	400.292	80.002	19.995	103.218	19.595	42.685	0.497
650.500	400.547	80.001	19.996	103.197	19.591	42.967	0.470
651.001	400.783	80.002	19.995	103.180	19.580	43.738	0.485
651.501	401.016	80.001	19.996	103.169	19.577	43.947	0.480
652.001	401.291	80.002	19.997	103.160	19.572	44.357	0.488
652.502	401.538	80.002	19.995	103.151	19.564	44.922	0.515
653.002	401.749	80.001	19.996	103.142	19.559	45.329	0.490
653.501	402.026	80.002	19.995	103.140	19.544	46.424	0.473
654.001	402.230	80.000	19.997	103.140	19.535	47.112	0.485
654.502	402.487	80.002	19.995	103.144	19.523	48.023	0.471
655.002	402.756	80.000	19.995	103.156	19.504	49.478	0.493
655.502	402.997	80.001	19.996	103.172	19.494	50.251	0.518
656.002	403.225	80.000	19.996	103.186	19.474	51.769	0.489
656.502	403.476	80.002	19.996	103.201	19.465	52.430	0.474
657.001	403.719	80.001	19.995	103.212	19.447	53.740	0.486
657.501	403.967	80.002	19.995	103.221	19.432	54.859	0.493
658.001	404.216	80.001	19.996	103.230	19.414	56.259	0.494
658.502	404.423	79.999	19.996	103.233	19.398	57.426	0.476
659.001	404.649	80.000	19.997	103.234	19.387	58.292	0.444
659.501	404.920	80.001	19.997	103.238	19.371	59.442	0.465
660.001	405.136	80.001	19.996	103.238	19.358	60.438	0.492
660.500	405.412	80.001	19.997	103.238	19.353	60.815	0.490
661.000	405.624	80.000	19.996	103.226	19.341	61.698	0.490
661.500	405.881	80.001	19.996	103.207	19.327	62.707	0.478
662.000	406.127	80.001	19.996	103.185	19.316	63.576	0.486
662.500	406.374	80.001	19.997	103.161	19.303	64.494	0.498
663.000	406.629	80.001	19.996	103.140	19.292	65.350	0.498
663.500	406.841	80.001	19.996	103.145	19.273	66.748	0.485
664.000	407.096	80.001	19.996	103.143	19.252	68.363	0.467
664.500	407.350	80.002	19.997	103.140	19.231	69.873	0.488
665.000	407.568	80.001	19.996	103.150	19.204	71.938	0.491
665.500	407.833	80.001	19.997	103.170	19.180	73.748	0.478
666.000	408.045	80.003	19.997	103.189	19.163	74.991	0.480
666.500	408.320	80.002	19.996	103.222	19.140	76.772	0.482
667.000	408.559	80.004	19.995	103.243	19.120	78.227	0.501
667.500	408.793	80.003	19.996	103.246	19.095	80.120	0.493
668.000	409.053	80.002	19.995	103.253	19.075	81.620	0.483
668.500	409.307	80.003	19.995	103.253	19.048	83.653	0.503
669.000	409.522	80.003	19.997	103.240	19.032	84.863	0.491
669.501	409.772	80.004	19.996	103.248	19.004	86.950	0.467
670.001	410.021	80.002	19.996	103.264	18.973	89.228	0.482
670.501	410.231	80.004	19.996	103.243	18.952	90.832	0.479
671.001	410.503	80.002	19.996	103.228	18.925	92.830	0.470
671.500	410.801	80.004	19.997	103.234	18.899	94.822	0.526
672.001	410.991	80.003	19.997	103.216	18.871	96.914	0.529
672.502	411.245	80.004	19.996	103.201	18.839	99.338	0.466
673.001	411.469	80.004	19.996	103.208	18.811	101.411	0.461
673.500	411.726	80.004	19.995	103.191	18.780	103.759	0.480
674.000	412.005	80.003	19.994	103.178	18.751	105.891	0.508
674.501	412.211	80.004	19.996	103.190	18.723	107.992	0.510
675.001	412.474	80.005	19.996	103.190	18.694	110.183	0.477
675.500	412.699	80.004	19.996	103.201	18.668	112.137	0.479
676.000	412.965	80.004	19.995	103.220	18.634	114.713	0.490
676.500	413.216	80.004	19.995	103.225	18.607	116.757	0.504
677.001	413.416	80.004	19.996	103.230	18.581	118.708	0.484
677.501	413.674	80.004	19.995	103.230	18.545	121.373	0.455
678.000	413.953	80.004	19.997	103.223	18.523	123.039	0.498
678.501	414.163	80.003	19.997	103.220	18.491	125.448	0.513
679.001	414.421	80.004	19.995	103.222	18.457	127.949	0.479
679.501	414.666	80.004	19.996	103.216	18.427	130.213	0.486
680.002	414.914	80.003	19.995	103.230	18.397	132.507	0.498
680.501	415.155	80.003	19.996	103.223	18.366	134.805	0.491
681.001	415.410	80.004	19.996	103.232	18.334	137.197	0.493
681.501	415.671	80.004	19.997	103.232	18.298	139.811	0.506
682.001	415.936	80.003	19.994	103.237	18.267	142.176	0.521
682.501	416.147	80.003	19.996	103.230	18.232	144.760	0.501
683.001	416.418	80.004	19.997	103.243	18.195	147.561	0.479
683.501	416.671	80.004	19.996	103.246	18.159	150.267	0.503
684.001	416.902	80.003	19.996	103.253	18.118	153.323	0.504
684.501	417.126	80.003	19.997	103.253	18.082	156.060	0.470
685.001	417.358	80.002	19.996	103.269	18.040	159.219	0.456
685.501	417.652	80.003	19.996	103.275	17.998	162.382	0.491
686.001	417.926	80.002	19.997	103.279	17.954	165.640	0.547
686.501	418.121	80.002	19.996	103.275	17.913	168.758	0.518
687.000	418.388	80.003	19.997	103.283	17.869	172.033	0.466
687.500	418.671	80.002	19.995	103.277	17.823	175.480	0.506
688.001	418.908	80.002	19.996	103.282	17.781	178.671	0.534
688.501	419.160	80.003	19.997	103.271	17.736	182.093	0.504
689.000	419.400	80.002	19.997	103.285	17.683	185.999	0.491
689.500	419.656	80.003	19.997	103.282	17.644	188.967	0.494
690.000	419.925	80.002	19.996	103.296	17.603	191.995	0.511
690.500	420.172	80.003	19.995	103.287	17.557	195.487	0.520
691.000	420.414	80.002	19.996	103.291	17.513	198.814	0.502
691.500	420.675	80.003	19.995	103.276	17.467	202.190	0.496
692.001	420.915	80.003	19.997	103.272	17.424	205.411	0.502
692.501	421.133	80.003	19.997	103.249	17.382	208.573	0.479
693.000	421.382	80.002	19.996	103.244	17.334	212.090	0.462
693.500	421.656	80.004	19.995	103.239	17.290	215.443	0.495
694.001	421.927	80.003	19.997	103.236	17.244	218.929	0.534
694.500	422.156	80.004	19.996	103.244	17.186	223.258	0.523
695.001	422.407	80.002	19.996	103.254	17.139	226.859	0.490
695.501	422.690	80.003	19.997	103.259	17.087	230.760	0.507
696.001	422.908	80.003	19.997	103.274	17.039	234.335	0.517
696.501	423.159	80.004	19.997	103.279	16.983	238.523	0.485
697.002	423.416	80.004	19.997	103.270	16.937	242.003	0.489
697.501	423.662	80.004	19.996	103.281	16.887	245.679	0.506
698.001	423.917	80.005	19.997	103.296	16.838	249.389	0.502
698.501	424.170	80.006	19.998	103.297	16.785	253.365	0.505
699.000	424.451	80.005	19.996	103.308	16.735	257.139	0.521
699.500	424.643	80.005	19.996	103.315	16.683	261.000	0.503
700.000	424.912	80.004	19.995	103.310	16.632	264.887	0.467
700.500	425.165	80.005	19.996	103.306	16.579	268.854	0.491
701.000	425.421	80.005	19.997	103.309	16.525	272.855	0.516
701.500	425.662	80.005	19.996	103.314	16.473	276.822	0.503
702.001	425.946	80.004	19.996	103.318	16.420	280.782	0.511
702.502	426.168	80.004	19.997	103.316	16.367	284.668	0.515
703.002	426.437	80.004	19.995	103.305	16.318	288.388	0.498
703.502	426.667	80.005	19.995	103.292	16.266	292.289	0.495
704.001	426.909	80.005	19.997	103.281	16.211	296.427	0.485
704.500	427.142	80.004	19.996	103.281	16.155	300.560	0.474
705.000	427.434	80.004	19.994	103.297	16.105	304.322	0.500
705.500	427.667	80.005	19.997	103.316	16.048	308.584	0.525
706.000	427.931	80.003	19.995	103.327	15.996	312.478	0.511
706.500	428.176	80.003	19.995	103.328	15.942	316.519	0.503
707.001	428.434	80.002	19.995	103.327	15.883	320.906	0.506
707.502	428.687	80.003	19.996	103.332	15.834	324.601	0.507
708.001	428.970	80.003	19.996	103.327	15.777	328.740	0.523
708.500	429.198	80.003	19.997	103.320	15.718	333.286	0.524
709.000	429.447	80.001	19.994	103.320	15.668	336.917	0.494
709.501	429.706	80.001	19.997	103.338	15.612	341.188	0.492
710.001	429.966	80.001	19.995	103.324	15.558	345.180	0.513
710.500	430.182	80.001	19.996	103.310	15.504	349.328	0.498
711.001	430.442	80.002	19.997	103.332	15.451	353.240	0.476
711.501	430.705	80.001	19.996	103.343	15.394	357.627	0.500
712.001	430.919	80.001	19.996	103.318	15.340	361.596	0.500
712.500	431.204	80.001	19.997	103.334	15.285	365.791	0.488
713.000	431.466	80.002	19.998	103.343	15.234	369.653	0.522
713.500	431.725	80.002	19.996	103.320	15.180	373.664	0.534
714.001	431.977	80.001	19.997	103.331	15.132	377.290	0.516
714.501	432.210	80.001	19.997	103.327	15.082	380.967	0.498
715.001	432.479	80.002	19.997	103.320	15.037	384.318	0.494
715.501	432.711	80.001	19.997	103.318	14.985	388.157	0.502
716.000	432.959	80.001	19.996	103.321	14.946	391.092	0.491
716.501	433.228	80.002	19.996	103.311	14.896	394.841	0.498
717.001	433.523	80.001	19.997	103.304	14.859	397.606	0.540
717.500	433.761	80.002	19.996	103.304	14.813	401.010	0.548
718.001	434.020	80.001	19.997	103.285	14.770	404.239	0.515
718.502	434.301	80.002	19.996	103.300	14.727	407.475	0.519
719.002	434.545	80.001	19.998	103.269	14.689	410.325	0.533
719.501	434.827	80.001	19.997	103.295	14.651	413.220	0.526
720.001	435.059	80.001	19.996	103.263	14.609	416.413	0.520
720.502	435.327	80.002	19.997	103.294	14.566	419.632	0.507
721.001	435.563	80.001	19.997	103.266	14.529	422.476	0.502
721.501	435.834	80.001	19.997	103.299	14.490	425.426	0.505
722.001	436.107	80.000	19.996	103.282	14.455	428.111	0.526
722.501	436.328	80.001	19.998	103.309	14.422	430.593	0.519
723.001	436.579	80.000	19.996	103.301	14.387	433.277	0.483
723.501	436.866	80.001	19.995	103.313	14.360	435.361	0.505
724.001	437.082	80.001	19.996	103.316	14.331	437.497	0.521
724.500	437.390	80.000	19.997	103.310	14.309	439.185	0.514
725.000	437.614	80.000	19.998	103.315	14.285	440.970	0.528
725.500	437.894	80.001	19.997	103.302	14.268	442.215	0.517
726.000	438.117	80.002	19.996	103.300	14.246	443.911	0.503
726.500	438.395	80.002	19.997	103.292	14.231	445.074	0.502
727.000	438.634	80.001	19.997	103.289	14.215	446.239	0.509
727.501	438.906	80.002	19.997	103.284	14.201	447.306	0.514
728.001	439.158	80.002	19.997	103.284	14.185	448.529	0.517
728.500	439.370	80.002	19.997	103.280	14.178	449.085	0.495
729.000	439.654	80.002	19.996	103.280	14.169	449.829	0.480
729.501	439.886	80.001	19.995	103.280	14.162	450.303	0.506
730.001	440.156	80.002	19.996	103.280	14.162	450.398	0.509
730.501	440.429	80.002	19.997	103.293	14.156	450.858	0.523
731.002	440.692	80.002	19.996	103.293	14.154	450.942	0.540
731.501	440.946	80.003	19.996	103.304	14.162	450.447	0.527
732.001	441.190	80.003	19.996	103.320	14.163	450.278	0.507
732.501	441.485	80.004	19.996	103.324	14.168	449.975	0.518
733.000	441.709	80.003	19.995	103.341	14.174	449.492	0.529
733.501	441.994	80.002	19.996	103.350	14.181	449.087	0.514
734.001	442.226	80.001	19.996	103.355	14.191	448.289	0.513
734.501	442.454	80.002	19.996	103.366	14.200	447.715	0.489
735.000	442.710	80.002	19.995	103.362	14.217	446.407	0.472
735.500	442.973	80.001	19.996	103.366	14.231	445.472	0.501
736.001	443.240	80.000	19.995	103.368	14.247	444.175	0.524
736.500	443.507	80.001	19.997	103.367	14.265	442.825	0.532
737.000	443.759	80.000	19.996	103.373	14.289	441.088	0.527
737.500	444.001	80.003	19.996	103.375	14.308	439.599	0.506
738.000	444.261	80.001	19.996	103.379	14.335	437.645	0.498
738.501	444.519	80.001	19.997	103.380	14.361	435.635	0.511
739.001	444.779	80.003	19.995	103.387	14.388	433.632	0.518
739.501	445.064	80.002	19.997	103.386	14.419	431.294	0.531
740.002	445.294	80.001	19.995	103.396	14.452	428.849	0.530
740.501	445.565	80.001	19.996	103.395	14.487	426.218	0.508
741.001	445.798	80.001	19.996	103.405	14.520	423.765	0.503
741.501	446.065	80.003	19.996	103.409	14.557	421.021	0.502
742.000	446.302	80.001	19.995	103.402	14.597	417.938	0.501
742.501	446.571	80.002	19.996	103.419	14.637	414.987	0.505
743.002	446.826	80.002	19.995	103.400	14.677	411.943	0.515
743.501	447.092	80.002	19.994	103.425	14.719	408.738	0.523
744.000	447.355	80.002	19.996	103.405	14.762	405.578	0.525
744.500	447.642	80.003	19.996	103.442	14.803	402.537	0.539
745.000	447.870	80.002	19.995	103.422	14.854	398.656	0.532
745.500	448.169	80.002	19.996	103.456	14.902	395.038	0.521
746.001	448.443	80.001	19.995	103.439	14.946	391.791	0.551
746.502	448.720	80.002	19.997	103.464	14.993	388.224	0.562
747.002	448.976	80.003	19.996	103.445	15.043	384.448	0.542
747.501	449.204	80.001	19.995	103.457	15.094	380.615	0.509
748.000	449.476	80.001	19.996	103.456	15.145	376.833	0.492
748.500	449.739	80.001	19.995	103.457	15.197	372.871	0.517
749.001	449.967	80.002	19.997	103.463	15.247	369.059	0.513
749.500	450.283	80.002	19.996	103.461	15.301	364.973	0.517
750.000	450.555	80.001	19.995	103.461	15.362	360.409	0.566
750.500	450.796	80.002	19.996	103.464	15.416	356.329	0.551
751.001	451.070	80.002	19.996	103.463	15.473	352.028	0.514
751.501	451.343	80.002	19.996	103.454	15.523	348.234	0.531
752.000	451.599	80.001	19.995	103.474	15.583	343.716	0.538
752.500	451.835	80.003	19.997	103.469	15.637	339.635	0.510
753.000	452.101	80.002	19.995	103.454	15.698	335.080	0.497
753.500	452.364	80.001	19.996	103.472	15.754	330.839	0.516
754.000	452.616	80.002	19.996	103.465	15.808	326.781	0.522
754.500	452.905	80.003	19.996	103.450	15.869	322.202	0.528
755.000	453.141	80.004	19.996	103.468	15.929	317.714	0.533
755.501	453.433	80.003	19.996	103.470	15.982	313.765	0.527
756.001	453.687	80.004	19.995	103.454	16.046	308.978	0.537
756.500	453.916	80.003	19.995	103.463	16.109	304.170	0.514
757.001	454.229	80.003	19.996	103.468	16.161	300.265	0.513
757.501	454.473	80.004	19.995	103.455	16.219	295.941	0.550
758.001	454.713	80.004	19.995	103.460	16.273	291.818	0.521
758.502	455.034	80.002	19.995	103.462	16.334	287.243	0.523
759.001	455.272	80.005	19.996	103.455	16.392	282.903	0.560
759.500	455.510	80.004	19.995	103.445	16.453	278.301	0.517
760.001	455.815	80.004	19.996	103.442	16.509	274.118	0.509
760.501	456.048	80.001	19.995	103.431	16.564	269.949	0.541
761.000	456.340	80.004	19.996	103.431	16.617	265.975	0.532
761.500	456.553	80.004	19.996	103.424	16.673	261.767	0.515
762.001	456.825	80.002	19.995	103.418	16.729	257.617	0.495
762.501	457.086	80.003	19.995	103.411	16.782	253.631	0.509
763.000	457.331	80.003	19.994	103.402	16.837	249.494	0.519
763.500	457.560	80.002	19.995	103.393	16.890	245.525	0.489
764.000	457.830	80.003	19.997	103.388	16.943	241.559	0.486
764.501	458.081	80.005	19.997	103.386	17.000	237.246	0.511
765.001	458.356	80.003	19.996	103.385	17.049	233.551	0.524
765.500	458.639	80.002	19.996	103.384	17.097	229.924	0.542
766.001	458.868	80.002	19.995	103.384	17.156	225.538	0.535
766.501	459.110	80.004	19.996	103.385	17.205	221.863	0.492
767.001	459.363	80.004	19.995	103.382	17.256	217.983	0.483
767.501	459.615	80.004	19.996	103.377	17.305	214.293	0.500
768.001	459.918	80.003	19.994	103.370	17.350	210.906	0.530
768.500	460.166	80.002	19.995	103.362	17.399	207.240	0.553
769.000	460.404	80.002	19.996	103.354	17.447	203.641	0.519
769.501	460.641	80.003	19.995	103.350	17.494	200.134	0.480
770.001	460.922	80.002	19.995	103.345	17.542	196.531	0.496
770.500	461.201	80.003	19.996	103.343	17.583	193.417	0.539
771.000	461.449	80.003	19.996	103.340	17.632	189.788	0.544
771.501	461.716	80.002	19.995	103.336	17.675	186.562	0.521
772.001	461.936	80.001	19.995	103.333	17.715	183.525	0.500
772.500	462.225	80.003	19.995	103.335	17.762	180.026	0.498
773.001	462.489	80.004	19.995	103.333	17.805	176.829	0.531
773.501	462.782	80.004	19.995	103.336	17.846	173.712	0.555
774.001	462.973	80.003	19.995	103.334	17.888	170.565	0.520
774.501	463.277	80.004	19.996	103.331	17.923	167.943	0.490
775.002	463.524	80.002	19.996	103.326	17.963	164.942	0.523
775.501	463.724	80.002	19.995	103.323	17.999	162.254	0.499
776.000	463.981	80.002	19.995	103.315	18.041	159.139	0.451
776.501	464.256	80.002	19.994	103.312	18.080	156.213	0.495
777.002	464.462	80.003	19.995	103.307	18.116	153.476	0.507
777.502	464.709	80.003	19.995	103.303	18.149	151.006	0.467
778.002	464.973	80.004	19.996	103.295	18.187	148.181	0.482
778.502	465.221	80.003	19.995	103.290	18.222	145.528	0.512
779.001	465.440	80.005	19.996	103.285	18.252	143.267	0.489
779.500	465.694	80.002	19.995	103.284	18.287	140.645	0.469
780.000	465.969	80.004	19.996	103.280	18.321	138.141	0.501
780.500	466.228	80.004	19.995	103.279	18.350	135.979	0.531
781.000	466.461	80.004	19.995	103.277	18.386	133.218	0.513
781.501	466.736	80.004	19.995	103.276	18.416	130.963	0.500
782.001	466.959	80.004	19.996	103.273	18.447	128.696	0.504
782.501	467.223	80.005	19.995	103.273	18.475	126.540	0.493
783.001	467.483	80.004	19.996	103.273	18.505	124.312	0.505
783.501	467.725	80.005	19.994	103.272	18.532	122.308	0.513
784.000	467.960	80.005	19.995	103.272	18.564	119.872	0.489
784.500	468.231	80.003	19.995	103.272	18.587	118.145	0.491
785.001	468.483	80.003	19.996	103.272	18.617	115.941	0.515
785.501	468.735	80.004	19.996	103.272	18.644	113.925	0.514
786.001	468.994	80.003	19.995	103.270	18.664	112.428	0.508
786.500	469.239	80.004	19.995	103.268	18.690	110.491	0.508
787.000	469.505	80.005	19.997	103.268	18.720	108.232	0.508
787.500	469.748	80.005	19.996	103.263	18.740	106.679	0.510
788.001	469.986	80.003	19.997	103.259	18.764	104.933	0.494
788.501	470.265	80.004	19.997	103.261	18.786	103.223	0.499
789.001	470.527	80.002	19.995	103.258	18.807	101.674	0.529
789.501	470.762	80.003	19.995	103.256	18.832	99.801	0.519
790.001	471.057	80.003	19.997	103.257	18.855	98.082	0.514
790.500	471.263	80.004	19.996	103.260	18.880	96.211	0.515
791.000	471.568	80.004	19.997	103.257	18.899	94.792	0.506
791.500	471.841	80.001	19.997	103.254	18.918	93.365	0.545
792.001	472.075	80.003	19.997	103.249	18.935	92.068	0.543
792.501	472.334	80.000	19.996	103.245	18.951	90.850	0.500
793.000	472.578	80.000	19.995	103.238	18.975	89.059	0.498
793.500	472.861	80.001	19.995	103.235	18.995	87.538	0.516
794.000	473.163	80.001	19.996	103.235	19.018	85.841	0.556
794.500	473.357	80.002	19.995	103.235	19.030	84.987	0.540
795.000	473.680	80.001	19.996	103.236	19.051	83.413	0.506
795.501	473.939	80.002	19.995	103.236	19.071	81.909	0.549
796.001	474.208	80.000	19.996	103.236	19.088	80.618	0.555
796.501	474.467	80.001	19.995	103.237	19.105	79.316	0.528
797.001	474.766	80.000	19.994	103.237	19.123	77.988	0.543
797.500	475.002	80.002	19.997	103.237	19.132	77.344	0.547
798.001	475.285	80.002	19.996	103.231	19.147	76.197	0.527
798.502	475.553	80.002	19.995	103.227	19.167	74.699	0.535
799.001	475.835	80.003	19.997	103.219	19.184	73.456	0.550
799.500	476.094	80.002	19.997	103.213	19.197	72.412	0.546
800.001	476.360	80.002	19.995	103.208	19.210	71.503	0.534
800.501	476.643	80.001	19.996	103.207	19.228	70.100	0.537
801.000	476.923	80.003	19.996	103.203	19.238	69.354	0.556
801.500	477.147	80.002	19.997	103.201	19.254	68.201	0.533
802.000	477.429	80.003	19.996	103.198	19.273	66.764	0.505
802.500	477.723	80.002	19.996	103.194	19.285	65.826	0.541
803.000	477.987	80.001	19.997	103.193	19.301	64.660	0.567
803.501	478.254	80.003	19.997	103.193	19.313	63.739	0.545
804.002	478.488	80.003	19.997	103.193	19.329	62.554	0.516
804.502	478.786	80.001	19.997	103.194	19.344	61.471	0.517
805.001	479.067	80.000	19.996	103.194	19.354	60.702	0.555
805.500	479.322	80.002	19.997	103.194	19.365	59.876	0.558
806.001	479.567	80.001	19.996	103.193	19.386	58.274	0.518
806.502	479.855	80.003	19.997	103.192	19.394	57.649	0.516
807.002	480.091	80.002	19.997	103.192	19.406	56.815	0.528
807.501	480.384	80.003	19.998	103.192	19.419	55.791	0.526
808.001	480.686	80.003	19.997	103.192	19.433	54.770	0.562
808.502	480.977	80.002	19.996	103.193	19.447	53.715	0.594
809.001	481.235	80.002	19.997	103.192	19.460	52.780	0.571
809.500	481.494	80.000	19.996	103.192	19.474	51.671	0.533
810.000	481.800	80.002	19.997	103.191	19.481	51.160	0.540
810.500	482.057	80.003	19.997	103.189	19.494	50.191	0.564
811.000	482.336	80.001	19.996	103.187	19.508	49.119	0.550
811.500	482.599	80.001	19.996	103.187	19.517	48.477	0.539
812.001	482.874	80.004	19.997	103.187	19.529	47.593	0.540
812.502	483.149	80.002	19.998	103.184	19.539	46.820	0.544
813.002	483.421	80.002	19.997	103.182	19.551	45.936	0.549
813.501	483.685	80.002	19.997	103.177	19.560	45.246	0.542
814.000	483.984	80.001	19.996	103.178	19.575	44.112	0.550
814.501	484.250	80.000	19.996	103.178	19.591	42.946	0.564
815.002	484.523	80.003	19.997	103.178	19.602	42.121	0.552
815.501	484.798	80.002	19.996	103.179	19.610	41.493	0.543
816.000	485.104	80.002	19.998	103.178	19.623	40.573	0.564
816.500	485.359	80.002	19.995	103.174	19.637	39.510	0.571
817.000	485.624	80.001	19.998	103.170	19.647	38.774	0.541
817.500	485.924	80.002	19.997	103.168	19.655	38.181	0.542
818.000	486.211	80.001	19.998	103.166	19.666	37.288	0.576
818.500	486.447	80.002	19.997	103.170	19.676	36.561	0.555
819.001	486.764	80.002	19.996	103.174	19.689	35.627	0.538
819.502	487.052	80.003	19.996	103.177	19.700	34.751	0.579
820.001	487.328	80.001	19.997	103.181	19.711	33.962	0.585
820.501	487.613	80.002	19.997	103.185	19.715	33.661	0.563
821.000	487.880	80.002	19.997	103.186	19.730	32.555	0.557
821.500	488.156	80.003	19.998	103.179	19.737	31.986	0.547
822.000	488.402	80.002	19.996	103.174	19.746	31.299	0.532
822.501	488.715	80.000	19.996	103.171	19.761	30.217	0.541
823.001	488.964	80.003	19.997	103.164	19.765	29.873	0.560
823.501	489.281	80.000	19.997	103.158	19.780	28.757	0.564
824.001	489.581	80.002	19.997	103.161	19.786	28.320	0.592
824.501	489.809	80.001	19.997	103.160	19.800	27.321	0.573
825.001	490.131	80.003	19.997	103.160	19.806	26.838	0.539
825.500	490.402	80.000	19.998	103.167	19.814	26.240	0.572
826.000	490.692	80.000	19.998	103.171	19.822	25.628	0.577
826.500	490.948	80.001	19.997	103.169	19.831	24.952	0.553
827.000	491.215	80.002	19.997	103.171	19.841	24.225	0.534
827.500	491.490	80.001	19.996	103.171	19.849	23.637	0.533
828.000	491.786	80.001	19.996	103.164	19.859	22.838	0.557
828.501	492.081	80.002	19.995	103.158	19.870	22.040	0.581
829.001	492.348	80.002	19.997	103.157	19.878	21.428	0.576
829.500	492.659	80.002	19.995	103.159	19.883	21.057	0.570
830.000	492.934	80.001	19.996	103.161	19.899	19.892	0.581
830.501	493.208	80.002	19.997	103.161	19.901	19.752	0.567
831.001	493.477	80.001	19.997	103.161	19.908	19.211	0.546
831.501	493.746	80.000	19.997	103.166	19.914	18.746	0.541
832.001	494.001	80.002	19.996	103.161	19.927	17.762	0.531
832.500	494.294	80.001	19.997	103.160	19.933	17.348	0.536
833.000	494.607	80.001	19.995	103.160	19.938	16.983	0.577
833.501	494.869	80.002	19.997	103.161	19.949	16.146	0.590
834.001	495.129	80.002	19.996	103.153	19.957	15.544	0.548
834.500	495.400	80.002	19.996	103.148	19.962	15.158	0.527
835.000	495.689	80.001	19.997	103.141	19.971	14.522	0.545
835.501	495.985	80.001	19.996	103.139	19.979	13.884	0.572
836.001	496.252	80.002	19.995	103.138	19.978	13.941	0.574
836.500	496.511	80.002	19.997	103.141	19.989	13.147	0.545
837.001	496.781	80.002	19.996	103.147	20.000	12.294	0.528
837.501	497.083	80.002	19.995	103.153	20.000	12.315	0.551
838.001	497.349	80.004	19.997	103.155	20.014	11.260	0.570
838.501	497.592	80.003	19.996	103.157	20.010	11.562	0.539
839.000	497.910	80.002	19.997	103.158	20.023	10.603	0.535
839.500	498.180	80.004	19.996	103.157	20.034	9.793	0.574
840.000	498.467	80.004	19.995	103.155	20.033	9.886	0.572
840.501	498.719	80.003	19.995	103.154	20.041	9.271	0.548
841.001	498.997	80.003	19.996	103.150	20.042	9.201	0.535
841.500	499.294	80.003	19.995	103.145	20.053	8.339	0.552
842.001	499.534	80.004	19.995	103.140	20.058	7.977	0.556
842.502	499.867	80.004	19.997	103.139	20.060	7.834	0.555
843.001	500.107	80.003	19.996	103.137	20.064	7.540	0.573
843.501	500.369	80.002	19.995	103.136	20.069	7.169	0.538
844.001	500.638	80.004	19.996	103.136	20.070	7.082	0.517
844.501	500.925	80.003	19.996	103.137	20.084	6.025	0.544
845.001	501.202	80.005	19.995	103.140	20.081	6.238	0.560
845.501	501.473	80.003	19.995	103.140	20.087	5.790	0.556
846.001	501.744	80.002	19.995	103.139	20.089	5.646	0.545
846.501	502.039	80.003	19.996	103.141	20.089	5.631	0.554
847.002	502.270	80.003	19.995	103.144	20.099	4.939	0.546
847.501	502.558	80.004	19.996	103.144	20.103	4.629	0.523
848.000	502.837	80.004	19.996	103.146	20.103	4.616	0.543
848.500	503.135	80.004	19.995	103.150	20.101	4.755	0.572
849.000	503.369	80.003	19.995	103.148	20.106	4.417	0.555
849.500	503.622	80.004	19.996	103.144	20.107	4.345	0.510
850.001	503.898	80.003	19.994	103.146	20.116	3.630	0.508
850.501	504.154	80.003	19.995	103.143	20.110	4.071	0.530
851.000	504.455	80.002	19.997	103.143	20.113	3.839	0.545
851.501	504.704	80.004	19.995	103.148	20.116	3.634	0.554
852.001	504.975	80.003	19.996	103.153	20.115	3.737	0.535
852.501	505.236	80.002	19.995	103.153	20.127	2.811	0.526
853.001	505.493	80.004	19.997	103.156	20.117	3.567	0.525
853.501	505.748	80.002	19.995	103.157	20.124	3.058	0.515
854.001	506.050	80.003	19.996	103.154	20.121	3.286	0.535
854.501	506.300	80.002	19.995	103.152	20.120	3.319	0.555
855.001	506.571	80.003	19.995	103.150	20.128	2.747	0.537
855.501	506.829	80.003	19.997	103.145	20.128	2.741	0.525
856.002	507.126	80.002	19.995	103.142	20.127	2.828	0.542
856.501	507.381	80.002	19.996	103.143	20.125	2.975	0.554
857.000	507.633	80.004	19.997	103.146	20.124	3.056	0.529
857.500	507.925	80.003	19.996	103.147	20.126	2.884	0.525
858.001	508.172	80.003	19.996	103.153	20.131	2.526	0.542
858.501	508.443	80.003	19.996	103.155	20.131	2.480	0.529
859.000	508.721	80.003	19.996	103.154	20.135	2.213	0.533
859.500	508.978	80.004	19.996	103.153	20.133	2.329	0.542
860.000	509.257	80.002	19.996	103.151	20.131	2.480	0.535
860.500	509.532	80.003	19.995	103.147	20.128	2.704	0.545
861.000	509.745	80.004	19.995	103.146	20.135	2.213	0.521
861.500	510.023	80.004	19.996	103.143	20.135	2.179	0.490
862.000	510.331	80.004	19.996	103.141	20.133	2.339	0.539
862.500	510.579	80.003	19.995	103.140	20.131	2.515	0.571
863.000	510.844	80.005	19.995	103.140	20.130	2.602	0.535
863.500	511.089	80.004	19.994	103.141	20.124	3.033	0.512
864.000	511.325	80.006	19.995	103.142	20.137	2.037	0.495
864.501	511.607	80.006	19.995	103.140	20.131	2.507	0.499
865.002	511.887	80.006	19.995	103.141	20.134	2.314	0.541
865.502	512.169	80.005	19.995	103.144	20.139	1.885	0.562
866.001	512.400	80.004	19.994	103.143	20.132	2.424	0.537
866.501	512.633	80.005	19.997	103.147	20.131	2.538	0.488
867.000	512.916	80.005	19.994	103.152	20.139	1.898	0.490
867.500	513.181	80.006	19.996	103.152	20.138	2.028	0.532
868.001	513.406	80.005	19.995	103.153	20.139	1.931	0.519
868.502	513.706	80.004	19.995	103.154	20.139	1.937	0.507
869.002	513.952	80.004	19.995	103.153	20.139	1.885	0.536
869.501	514.258	80.006	19.997	103.152	20.137	2.061	0.549
870.000	514.510	80.005	19.996	103.152	20.135	2.184	0.555
870.500	514.770	80.004	19.994	103.152	20.135	2.192	0.535
871.001	515.039	80.004	19.994	103.152	20.145	1.444	0.521
871.501	515.294	80.004	19.994	103.152	20.143	1.645	0.526
872.000	515.554	80.006	19.996	103.148	20.138	1.987	0.519
872.500	515.814	80.004	19.995	103.142	20.135	2.231	0.518
873.001	516.112	80.003	19.995	103.140	20.140	1.823	0.539
873.501	516.330	80.005	19.996	103.139	20.144	1.529	0.537
874.001	516.633	80.003	19.996	103.141	20.140	1.836	0.518
874.502	516.859	80.003	19.996	103.145	20.138	2.026	0.525
875.001	517.120	80.003	19.996	103.150	20.145	1.465	0.508
875.501	517.413	80.003	19.996	103.152	20.146	1.388	0.520
876.001	517.648	80.003	19.995	103.152	20.141	1.778	0.541
876.500	517.937	80.003	19.997	103.145	20.138	2.012	0.527
877.000	518.176	80.002	19.996	103.142	20.143	1.599	0.526
877.500	518.479	80.002	19.995	103.141	20.144	1.533	0.535
878.001	518.727	80.004	19.997	103.140	20.138	2.001	0.546
878.501	518.925	80.002	19.995	103.142	20.143	1.635	0.498
879.001	519.240	80.003	19.996	103.149	20.141	1.740	0.480
879.501	519.491	80.003	19.998	103.151	20.144	1.562	0.540
880.001	519.780	80.004	19.996	103.151	20.140	1.873	0.553
880.501	520.027	80.002	19.995	103.149	20.142	1.709	0.538
881.001	520.317	80.002	19.995	103.148	20.137	2.047	0.536
881.500	520.543	80.002	19.997	103.148	20.138	1.995	0.526
882.000	520.823	80.001	19.996	103.146	20.141	1.784	0.511
882.501	521.118	80.004	19.996	103.148	20.143	1.643	0.541
883.001	521.346	80.003	19.998	103.151	20.141	1.744	0.549
883.500	521.637	80.002	19.995	103.151	20.146	1.398	0.521
884.000	521.863	80.002	19.997	103.150	20.138	2.018	0.518
884.500	522.130	80.003	19.997	103.152	20.144	1.506	0.505
885.000	522.401	80.003	19.996	103.152	20.152	0.926	0.516
885.500	522.673	80.001	19.996	103.149	20.140	1.859	0.540
886.000	522.956	80.003	19.997	103.148	20.139	1.921	0.549
886.500	523.192	80.001	19.995	103.148	20.144	1.542	0.537
887.001	523.506	80.002	19.996	103.143	20.134	2.294	0.535
887.501	523.729	80.001	19.997	103.144	20.139	1.943	0.544
888.000	524.015	80.002	19.997	103.146	20.145	1.463	0.523
888.500	524.263	80.001	19.997	103.144	20.143	1.616	0.522
889.000	524.515	80.000	19.996	103.145	20.146	1.378	0.517
889.500	524.799	80.003	19.998	103.149	20.145	1.458	0.517
890.000	525.030	80.002	19.996	103.149	20.140	1.831	0.526
890.501	525.302	80.004	19.996	103.149	20.139	1.923	0.510
891.000	525.544	80.003	19.997	103.150	20.142	1.697	0.509
891.501	525.806	80.002	19.997	103.148	20.146	1.359	0.509
892.001	526.071	80.002	19.996	103.148	20.147	1.336	0.515
892.501	526.321	80.003	19.998	103.148	20.139	1.929	0.521
893.000	526.565	80.003	19.996	103.148	20.146	1.415	0.505
893.501	526.876	80.003	19.998	103.145	20.145	1.463	0.525
894.001	527.114	80.002	19.997	103.147	20.146	1.384	0.552
894.500	527.362	80.003	19.997	103.149	20.137	2.051	0.517
895.001	527.639	80.003	19.997	103.151	20.147	1.320	0.505
895.501	527.876	80.004	19.998	103.152	20.143	1.591	0.520
896.001	528.191	80.002	19.997	103.157	20.135	2.180	0.533
896.502	528.416	80.004	19.997	103.157	20.141	1.792	0.546
897.001	528.717	80.002	19.996	103.156	20.140	1.844	0.533
897.501	528.970	80.001	19.997	103.153	20.142	1.716	0.540
898.001	529.223	80.004	19.996	103.153	20.142	1.687	0.530
898.500	529.496	80.003	19.997	103.151	20.145	1.500	0.517
899.001	529.736	80.003	19.997	103.144	20.142	1.684	0.519
899.501	530.001	80.002	19.996	103.140	20.146	1.372	0.509
900.000	530.255	80.003	19.996	103.140	20.145	1.475	0.511
900.500	530.514	80.001	19.996	103.141	20.143	1.622	0.516
901.000	530.748	80.001	19.996	103.143	20.141	1.798	0.504
901.500	531.022	80.001	19.996	103.150	20.143	1.595	0.501
902.000	531.306	80.001	19.996	103.155	20.142	1.662	0.533
902.500	531.571	80.003	19.996	103.155	20.138	2.014	0.554
903.000	531.810	80.002	19.996	103.155	20.147	1.301	0.527
903.500	532.074	80.002	19.995	103.155	20.146	1.390	0.504
904.001	532.346	80.000	19.995	103.157	20.144	1.545	0.519
904.501	532.558	80.003	19.995	103.156	20.143	1.593	0.510
905.000	532.866	80.002	19.996	103.156	20.144	1.525	0.502
905.501	533.118	80.002	19.996	103.157	20.141	1.738	0.540
906.001	533.404	80.001	19.997	103.158	20.142	1.670	0.549
906.500	533.649	80.002	19.995	103.158	20.142	1.695	0.534
907.000	533.914	80.001	19.996	103.160	20.146	1.405	0.521
907.500	534.205	80.002	19.996	103.160	20.146	1.357	0.533
908.000	534.443	80.002	19.997	103.160	20.150	1.096	0.542
908.500	534.700	80.000	19.996	103.159	20.141	1.803	0.512
909.001	534.988	80.001	19.998	103.157	20.151	1.050	0.520
909.501	535.231	80.001	19.996	103.156	20.145	1.469	0.538
910.000	535.490	80.000	19.996	103.154	20.145	1.436	0.517
910.500	535.760	80.001	19.998	103.153	20.140	1.863	0.515
911.001	536.021	80.000	19.996	103.148	20.148	1.254	0.530
911.501	536.274	80.001	19.997	103.146	20.144	1.533	0.523
912.000	536.508	80.000	19.996	103.146	20.147	1.334	0.501
912.501	536.787	80.001	19.997	103.147	20.144	1.556	0.500
913.002	537.066	80.000	19.997	103.147	20.144	1.541	0.536
913.501	537.305	80.000	19.998	103.148	20.147	1.320	0.538
914.000	537.586	80.000	19.998	103.148	20.145	1.452	0.519
914.501	537.821	79.999	19.996	103.141	20.148	1.235	0.518
915.001	538.083	80.002	19.998	103.138	20.139	1.912	0.506
915.501	538.347	80.001	19.997	103.139	20.146	1.417	0.512
916.001	538.620	80.001	19.998	103.143	20.142	1.676	0.531
916.500	538.876	80.001	19.999	103.146	20.146	1.409	0.533
917.000	539.120	80.000	19.998	103.153	20.138	1.960	0.515
917.500	539.404	80.001	19.999	103.155	20.147	1.334	0.514
918.000	539.622	80.001	19.998	103.155	20.145	1.440	0.515
918.501	539.879	80.002	19.996	103.155	20.140	1.830	0.488
919.002	540.167	80.002	19.997	103.154	20.144	1.519	0.510
919.501	540.407	80.004	19.997	103.154	20.142	1.668	0.537
920.000	540.700	80.004	19.997	103.153	20.143	1.653	0.530
920.500	540.948	80.003	19.996	103.154	20.140	1.811	0.538
921.000	541.212	80.003	19.995	103.153	20.143	1.608	0.527
921.500	541.449	80.003	19.997	103.153	20.145	1.502	0.506
922.000	541.681	80.003	19.997	103.153	20.146	1.396	0.485
922.501	541.961	80.003	19.995	103.146	20.140	1.867	0.491
923.002	542.241	80.003	19.997	103.143	20.146	1.376	0.536
923.502	542.476	80.004	19.996	103.142	20.146	1.396	0.537
924.002	542.721	80.003	19.996	103.143	20.143	1.628	0.498
924.502	543.024	80.004	19.996	103.140	20.144	1.568	0.514
925.002	543.257	80.004	19.996	103.146	20.143	1.637	0.542
925.502	543.519	80.003	19.995	103.151	20.146	1.363	0.516
926.001	543.770	80.004	19.996	103.152	20.144	1.575	0.504
926.501	544.059	80.004	19.997	103.150	20.141	1.771	0.527
927.001	544.297	80.004	19.996	103.154	20.141	1.738	0.534
927.501	544.550	80.004	19.997	103.155	20.144	1.510	0.508
928.002	544.818	80.005	19.995	103.153	20.148	1.247	0.506
928.502	545.067	80.005	19.996	103.152	20.142	1.690	0.519
929.002	545.287	80.006	19.995	103.153	20.148	1.274	0.493
929.501	545.516	80.003	19.995	103.154	20.143	1.624	0.459
930.000	545.816	80.005	19.995	103.153	20.143	1.639	0.489
930.500	546.055	80.004	19.997	103.153	20.143	1.583	0.534
931.000	546.336	80.004	19.995	103.154	20.142	1.726	0.530
931.500	546.586	80.003	19.996	103.152	20.143	1.643	0.526
932.000	546.874	80.004	19.996	103.152	20.143	1.591	0.534
932.501	547.104	80.004	19.996	103.152	20.141	1.802	0.528
933.002	547.362	80.003	19.995	103.152	20.141	1.759	0.503
933.501	547.648	80.003	19.995	103.150	20.146	1.390	0.516
934.001	547.883	80.004	19.997	103.149	20.145	1.494	0.533
934.501	548.179	80.003	19.995	103.149	20.143	1.614	0.526
935.000	548.379	80.004	19.996	103.148	20.145	1.483	0.513
935.501	548.626	80.002	19.997	103.146	20.142	1.672	0.471
936.002	548.937	80.002	19.996	103.148	20.146	1.365	0.502
936.502	549.168	80.005	19.995	103.150	20.144	1.560	0.550
937.001	549.431	80.004	19.996	103.149	20.146	1.369	0.518
937.500	549.710	80.004	19.995	103.146	20.144	1.546	0.518
938.000	549.971	80.005	19.996	103.147	20.147	1.349	0.541
938.501	550.180	80.003	19.995	103.142	20.144	1.543	0.505
939.001	550.459	80.004	19.996	103.137	20.138	1.960	0.478
939.500	550.733	80.004	19.996	103.137	20.142	1.666	0.520
940.000	550.935	80.004	19.997	103.138	20.144	1.541	0.515
940.501	551.229	80.003	19.996	103.136	20.146	1.402	0.486
941.001	551.490	80.003	19.997	103.138	20.145	1.479	0.526
941.500	551.732	80.003	19.995	103.141	20.144	1.506	0.529
942.000	551.994	80.003	19.996	103.142	20.144	1.527	0.503
942.500	552.246	80.004	19.997	103.144	20.144	1.577	0.509
943.001	552.485	80.004	19.996	103.143	20.144	1.508	0.503
943.501	552.722	80.002	19.996	103.142	20.147	1.291	0.483
944.001	552.982	80.002	19.995	103.144	20.146	1.376	0.487
944.501	553.260	80.003	19.997	103.144	20.144	1.529	0.518
945.000	553.498	80.004	19.996	103.143	20.147	1.322	0.527
945.501	553.756	80.004	19.997	103.143	20.148	1.232	0.506
946.001	554.046	80.005	19.997	103.140	20.143	1.636	0.522
946.501	554.297	80.002	19.995	103.137	20.144	1.570	0.545
947.001	554.557	80.005	19.996	103.138	20.144	1.533	0.526
947.500	554.849	80.003	19.996	103.139	20.141	1.802	0.532
948.000	555.097	80.005	19.995	103.141	20.140	1.829	0.546
948.501	555.327	80.006	19.995	103.146	20.141	1.740	0.509
949.002	555.584	80.005	19.996	103.146	20.143	1.626	0.482
949.501	555.863	80.005	19.996	103.145	20.143	1.622	0.512
950.000	556.079	80.005	19.995	103.144	20.143	1.602	0.515
950.500	556.398	80.005	19.995	103.142	20.143	1.618	0.515
951.000	556.627	80.006	19.996	103.137	20.148	1.229	0.542
951.500	556.860	80.005	19.996	103.131	20.145	1.463	0.505
952.000	557.095	80.005	19.996	103.129	20.146	1.367	0.465
952.500	557.380	80.005	19.995	103.131	20.146	1.384	0.494
953.000	557.631	80.003	19.995	103.135	20.143	1.647	0.528
953.500	557.876	80.003	19.995	103.139	20.144	1.523	0.516
954.000	558.163	80.004	19.995	103.146	20.147	1.297	0.514
954.500	558.378	80.005	19.996	103.144	20.141	1.800	0.517
955.000	558.654	80.005	19.995	103.139	20.145	1.469	0.497
955.500	558.890	80.004	19.995	103.132	20.149	1.191	0.501
956.000	559.164	80.004	19.995	103.128	20.146	1.421	0.511
956.500	559.394	80.004	19.995	103.128	20.147	1.290	0.507
957.000	559.662	80.005	19.996	103.130	20.146	1.357	0.501
957.500	559.896	80.005	19.997	103.133	20.143	1.593	0.500
958.000	560.153	80.005	19.996	103.139	20.144	1.543	0.497
958.501	560.425	80.005	19.996	103.145	20.150	1.110	0.510
959.001	560.661	80.004	19.997	103.145	20.143	1.601	0.518
959.501	560.900	80.005	19.996	103.149	20.149	1.131	0.491
960.001	561.147	80.001	19.996	103.152	20.148	1.237	0.481
960.501	561.421	80.004	19.997	103.153	20.144	1.523	0.503
961.000	561.647	80.003	19.995	103.154	20.147	1.284	0.510
961.500	561.921	80.001	19.995	103.153	20.146	1.367	0.500
962.000	562.174	80.003	19.996	103.153	20.148	1.245	0.513
962.501	562.429	80.003	19.995	103.153	20.146	1.390	0.518
963.001	562.682	80.003	19.995	103.152	20.142	1.711	0.508
963.501	562.889	80.001	19.996	103.148	20.142	1.707	0.484
964.001	563.183	80.002	19.996	103.145	20.146	1.396	0.480
964.501	563.432	80.004	19.996	103.139	20.147	1.324	0.522
965.001	563.682	80.001	19.996	103.132	20.145	1.504	0.521
965.501	563.938	80.003	19.997	103.127	20.147	1.315	0.503
966.001	564.198	80.003	19.996	103.130	20.150	1.121	0.511
966.500	564.452	80.002	19.997	103.128	20.148	1.233	0.515
967.000	564.696	80.002	19.997	103.128	20.153	0.852	0.506
967.501	564.944	80.002	19.995	103.128	20.146	1.388	0.495
968.000	565.174	80.002	19.996	103.132	20.143	1.647	0.485
968.500	565.408	80.005	19.997	103.133	20.147	1.315	0.471
969.000	565.676	79.999	19.996	103.139	20.145	1.500	0.483
969.500	565.983	80.001	19.995	103.144	20.147	1.334	0.539
970.000	566.214	80.003	19.996	103.144	20.148	1.226	0.556
970.500	566.468	80.001	19.996	103.142	20.147	1.326	0.512
971.000	566.724	80.001	19.997	103.142	20.149	1.193	0.498
971.500	566.963	80.001	19.996	103.142	20.146	1.409	0.502
972.001	567.235	80.003	19.997	103.143	20.149	1.197	0.503
972.501	567.479	80.001	19.997	103.150	20.146	1.361	0.513
973.001	567.769	80.003	19.995	103.155	20.145	1.436	0.525
973.501	567.972	80.003	19.996	103.155	20.146	1.417	0.513
974.000	568.253	80.001	19.996	103.151	20.151	0.984	0.489
974.501	568.501	80.002	19.995	103.144	20.145	1.479	0.507
975.001	568.736	80.002	19.997	103.137	20.146	1.386	0.506
975.501	568.975	80.002	19.996	103.133	20.147	1.286	0.478
976.001	569.233	80.001	19.997	103.133	20.149	1.181	0.486
976.500	569.513	80.004	19.997	103.138	20.146	1.415	0.518
977.000	569.740	80.000	19.995	103.144	20.147	1.340	0.523
977.500	569.987	80.001	19.996	103.148	20.150	1.065	0.491
978.001	570.258	80.002	19.996	103.149	20.145	1.498	0.496
978.501	570.515	80.000	19.996	103.144	20.150	1.073	0.523
979.000	570.779	80.002	19.996	103.137	20.146	1.388	0.525
979.500	571.052	80.005	19.997	103.130	20.147	1.355	0.529
980.000	571.260	80.004	19.997	103.126	20.147	1.320	0.509
980.501	571.531	80.005	19.998	103.123	20.146	1.376	0.481
981.001	571.794	80.004	19.996	103.123	20.142	1.726	0.507
981.500	572.050	80.002	19.997	103.125	20.146	1.415	0.526
982.000	572.283	80.004	19.999	103.132	20.151	0.988	0.504
982.500	572.522	80.002	19.996	103.134	20.146	1.367	0.480
983.000	572.784	80.002	19.997	103.132	20.149	1.181	0.486
983.500	573.066	80.002	19.997	103.132	20.145	1.498	0.522
984.000	573.330	80.002	19.997	103.129	20.148	1.216	0.545
984.501	573.577	80.004	19.996	103.125	20.150	1.106	0.529
985.002	573.830	80.003	19.997	103.127	20.153	0.905	0.506
985.502	574.081	80.001	19.996	103.127	20.150	1.065	0.502
986.001	574.309	80.001	19.997	103.127	20.148	1.208	0.492
986.501	574.598	80.000	19.996	103.125	20.152	0.953	0.498
987.001	574.871	80.001	19.996	103.123	20.151	0.994	0.539
987.500	575.119	80.000	19.997	103.119	20.152	0.928	0.541
988.000	575.401	80.002	19.999	103.123	20.150	1.071	0.525
988.500	575.626	80.002	19.996	103.125	20.151	1.007	0.519
989.000	575.872	80.003	19.997	103.127	20.149	1.191	0.489
989.500	576.127	80.004	19.995	103.129	20.147	1.324	0.486
990.001	576.393	80.001	19.997	103.130	20.151	1.054	0.511
990.501	576.649	80.002	19.996	103.130	20.145	1.467	0.522
991.000	576.900	80.000	19.996	103.135	20.149	1.177	0.514
991.501	577.152	80.001	19.997	103.138	20.150	1.083	0.505
992.001	577.408	80.000	19.995	103.144	20.148	1.245	0.506
992.501	577.646	80.003	19.996	103.149	20.149	1.148	0.500
993.001	577.894	80.002	19.996	103.149	20.154	0.802	0.490
993.500	578.138	80.000	19.997	103.145	20.149	1.142	0.490
994.000	578.399	80.001	19.995	103.141	20.146	1.427	0.499
994.500	578.645	80.003	19.997	103.132	20.147	1.286	0.506
995.001	578.890	80.000	19.997	103.126	20.142	1.709	0.498
995.502	579.140	80.000	19.996	103.123	20.151	1.036	0.493
996.001	579.397	80.002	19.997	103.124	20.147	1.348	0.502
996.501	579.643	80.000	19.996	103.131	20.144	1.512	0.505
997.000	579.895	80.003	19.996	103.131	20.144	1.537	0.500
997.500	580.177	80.002	19.996	103.130	20.146	1.386	0.516
998.000	580.440	80.001	19.996	103.129	20.148	1.266	0.539
998.501	580.673	80.002	19.998	103.124	20.146	1.396	0.520
999.002	580.976	80.004	19.998	103.117	20.149	1.179	0.516
999.501	581.200	80.002	19.997	103.122	20.147	1.338	0.532
1000.000	581.481	80.004	19.997	103.126	20.149	1.166	0.515
1000.501	581.710	80.001	19.996	103.128	20.148	1.214	0.507
1001.002	582.014	80.000	19.995	103.129	20.151	1.015	0.522
1001.501	582.257	80.002	19.997	103.130	20.150	1.090	0.541
1002.000	582.501	80.005	19.997	103.126	20.147	1.282	0.517
1002.500	582.752	80.002	19.997	103.123	20.153	0.855	0.490
1003.000	582.994	80.002	19.996	103.127	20.149	1.203	0.494
1003.501	583.254	80.001	19.997	103.132	20.150	1.079	0.498
1004.001	583.491	80.001	19.997	103.138	20.151	1.004	0.500
1004.501	583.748	80.000	19.996	103.142	20.151	1.046	0.495
1005.001	584.005	80.003	19.997	103.145	20.148	1.239	0.503
1005.502	584.247	80.003	19.996	103.139	20.144	1.558	0.506
1006.001	584.514	80.002	19.997	103.134	20.148	1.257	0.504
1006.500	584.749	80.003	19.997	103.128	20.151	1.015	0.506
1007.000	585.008	80.001	19.998	103.122	20.154	0.791	0.498
1007.500	585.208	80.004	19.998	103.120	20.152	0.945	0.477
1008.001	585.447	80.000	19.996	103.125	20.148	1.278	0.449
1008.501	585.739	80.004	19.997	103.130	20.145	1.504	0.485
1009.000	585.935	80.001	19.996	103.129	20.148	1.228	0.510
1009.501	586.215	80.002	19.998	103.133	20.150	1.119	0.482
1010.001	586.458	80.004	19.998	103.132	20.149	1.135	0.499
1010.500	586.692	80.003	19.997	103.128	20.150	1.106	0.500
1011.001	586.961	80.001	19.997	103.129	20.154	0.777	0.490
1011.501	587.223	80.003	19.998	103.135	20.149	1.158	0.517
1012.000	587.490	80.004	19.997	103.133	20.156	0.646	0.531
1012.501	587.733	80.001	19.997	103.133	20.148	1.272	0.519
1013.002	587.971	80.002	19.998	103.130	20.146	1.365	0.495
1013.502	588.227	80.002	19.998	103.123	20.154	0.810	0.488
1014.002	588.490	80.003	19.997	103.116	20.150	1.063	0.507
1014.501	588.717	80.004	19.999	103.113	20.153	0.864	0.504
1015.001	588.971	80.003	19.997	103.113	20.156	0.648	0.486
1015.502	589.258	80.003	19.997	103.116	20.151	1.005	0.511
1016.001	589.440	80.002	19.997	103.119	20.152	0.959	0.505
1016.500	589.704	80.004	19.997	103.120	20.153	0.855	0.458
1017.000	589.940	80.004	19.997	103.121	20.150	1.092	0.473
1017.500	590.208	80.001	19.997	103.124	20.152	0.913	0.502
1018.001	590.453	80.001	19.996	103.123	20.146	1.392	0.508
1018.501	590.711	80.003	19.996	103.121	20.154	0.791	0.508
1019.002	590.935	80.003	19.995	103.123	20.152	0.976	0.492
1019.501	591.165	80.004	19.996	103.126	20.150	1.125	0.468
1020.001	591.416	80.002	19.996	103.123	20.151	1.050	0.468
1020.501	591.687	80.006	19.996	103.122	20.148	1.222	0.502
1021.001	591.909	80.004	19.995	103.121	20.150	1.065	0.508
1021.500	592.140	80.005	19.996	103.120	20.153	0.835	0.473
1022.001	592.429	80.005	19.997	103.122	20.147	1.303	0.486
1022.501	592.643	80.005	19.996	103.124	20.151	1.013	0.511
1023.000	592.908	80.006	19.995	103.124	20.149	1.183	0.491
1023.500	593.132	80.005	19.995	103.124	20.150	1.102	0.484
1024.000	593.374	80.006	19.996	103.124	20.149	1.199	0.477
1024.500	593.642	80.003	19.996	103.126	20.149	1.183	0.488
1025.000	593.901	80.003	19.996	103.127	20.151	1.025	0.519
1025.500	594.115	80.004	19.996	103.126	20.150	1.077	0.501
1026.001	594.419	80.003	19.996	103.126	20.148	1.235	0.495
1026.501	594.643	80.004	19.996	103.126	20.148	1.262	0.522
1027.000	594.854	80.004	19.996	103.118	20.147	1.284	0.482
1027.500	595.111	80.007	19.997	103.115	20.153	0.876	0.452
1028.000	595.357	80.004	19.995	103.117	20.151	1.038	0.485
1028.500	595.604	80.006	19.996	103.117	20.148	1.278	0.498
1029.000	595.855	80.004	19.996	103.123	20.152	0.909	0.495
1029.501	596.054	80.005	19.996	103.128	20.152	0.963	0.474
1030.002	596.345	80.005	19.995	103.130	20.149	1.183	0.470
1030.502	596.585	80.003	19.995	103.129	20.154	0.769	0.511
1031.002	596.851	80.004	19.996	103.130	20.154	0.812	0.519
1031.501	597.038	80.004	19.995	103.127	20.154	0.812	0.480
1032.002	597.304	80.005	19.996	103.125	20.152	0.978	0.453
1032.502	597.511	80.005	19.996	103.130	20.153	0.893	0.463
1033.002	597.793	80.004	19.996	103.131	20.154	0.791	0.481
1033.502	598.029	80.006	19.996	103.132	20.149	1.177	0.503
1034.002	598.279	80.003	19.996	103.131	20.153	0.897	0.502
1034.502	598.522	80.006	19.996	103.130	20.148	1.216	0.490
1035.002	598.761	80.004	19.996	103.122	20.150	1.058	0.488
1035.502	599.004	80.006	19.995	103.121	20.150	1.085	0.482
1036.001	599.231	80.003	19.995	103.121	20.150	1.071	0.476
1036.502	599.452	80.005	19.998	103.122	20.154	0.818	0.459
1037.001	599.679	80.005	19.996	103.124	20.154	0.829	0.448
1037.500	599.941	80.002	19.996	103.130	20.154	0.814	0.468
1038.000	600.186	80.004	19.996	103.134	20.150	1.106	0.498
1038.500	600.425	80.003	19.996	103.138	20.152	0.955	0.496
1039.000	600.672	80.004	19.996	103.137	20.149	1.141	0.485
1039.500	600.928	80.004	19.997	103.133	20.148	1.245	0.495
1040.000	601.178	80.004	19.996	103.129	20.147	1.309	0.505
1040.500	601.420	80.002	19.996	103.131	20.152	0.957	0.499
1041.000	601.663	80.004	19.995	103.130	20.148	1.241	0.488
1041.500	601.898	80.004	19.995	103.132	20.147	1.297	0.482
1042.000	602.124	80.002	19.995	103.136	20.150	1.117	0.469
1042.501	602.386	80.003	19.995	103.143	20.147	1.326	0.474
1043.002	602.619	80.001	19.996	103.145	20.149	1.146	0.492
1043.502	602.875	80.002	19.995	103.142	20.147	1.305	0.492
1044.002	603.143	80.003	19.997	103.140	20.142	1.674	0.507
1044.501	603.375	80.002	19.995	103.136	20.148	1.208	0.512
1045.000	603.615	79.999	19.996	103.131	20.147	1.322	0.486
1045.500	603.852	80.002	19.996	103.126	20.149	1.177	0.474
1046.000	604.088	80.003	19.996	103.128	20.146	1.402	0.475
1046.500	604.352	80.002	19.996	103.131	20.146	1.359	0.486
1047.001	604.586	80.002	19.995	103.134	20.148	1.222	0.499
1047.502	604.838	80.002	19.995	103.136	20.147	1.330	0.492
1048.001	605.095	80.003	19.996	103.139	20.151	1.050	0.498
1048.501	605.334	80.001	19.995	103.137	20.151	1.038	0.503
1049.000	605.572	80.002	19.997	103.139	20.152	0.951	0.486
1049.500	605.800	80.003	19.995	103.140	20.150	1.079	0.471
1050.001	606.047	80.001	19.995	103.140	20.147	1.305	0.470
1050.501	606.294	80.001	19.995	103.137	20.151	1.028	0.484
1051.001	606.520	80.001	19.996	103.140	20.148	1.268	0.484
1051.502	606.796	80.002	19.997	103.142	20.147	1.340	0.488
1052.001	607.040	80.004	19.995	103.144	20.147	1.324	0.511
1052.501	607.262	80.001	19.996	103.142	20.150	1.077	0.493
1053.000	607.512	80.002	19.995	103.141	20.147	1.334	0.469
1053.500	607.748	80.001	19.996	103.139	20.146	1.407	0.479
1054.000	608.005	80.000	19.996	103.139	20.151	0.982	0.489
1054.501	608.263	80.003	19.997	103.140	20.149	1.137	0.504
1055.001	608.510	79.999	19.995	103.142	20.151	1.048	0.510
1055.500	608.772	80.000	19.995	103.145	20.148	1.245	0.507
1056.001	608.989	80.002	19.996	103.145	20.154	0.781	0.494
1056.501	609.233	80.001	19.996	103.140	20.145	1.446	0.470
1057.001	609.509	80.002	19.996	103.136	20.153	0.876	0.491
1057.502	609.745	80.003	19.995	103.132	20.151	1.019	0.516
1058.001	609.973	80.002	19.995	103.129	20.151	1.050	0.488
1058.501	610.223	80.003	19.994	103.126	20.148	1.226	0.471
1059.000	610.461	80.001	19.993	103.127	20.148	1.228	0.483
1059.500	610.728	80.003	19.995	103.130	20.150	1.104	0.497
1060.000	610.989	80.001	19.995	103.131	20.151	1.048	0.517
1060.500	611.215	80.000	19.995	103.137	20.149	1.141	0.508
1061.000	611.497	80.003	19.995	103.139	20.152	0.953	0.497
1061.500	611.708	80.002	19.996	103.143	20.151	0.994	0.500
1062.001	612.000	80.001	19.996	103.144	20.149	1.166	0.498
1062.501	612.266	80.000	19.996	103.148	20.150	1.121	0.530
1063.000	612.467	80.004	19.996	103.148	20.148	1.249	0.512
1063.501	612.740	80.002	19.996	103.150	20.147	1.286	0.470
1064.001	612.991	80.003	19.997	103.145	20.145	1.502	0.499
1064.501	613.231	80.004	19.997	103.138	20.146	1.400	0.508
1065.002	613.484	80.002	19.996	103.131	20.148	1.251	0.492
1065.501	613.743	80.004	19.997	103.125	20.146	1.392	0.502
1066.000	614.030	80.005	19.995	103.124	20.148	1.249	0.529
1066.501	614.252	80.002	19.995	103.122	20.151	1.040	0.527
1067.001	614.545	80.004	19.996	103.122	20.150	1.088	0.512
1067.500	614.769	80.002	19.996	103.121	20.152	0.961	0.516
1068.000	615.020	80.000	19.998	103.120	20.151	1.032	0.496
1068.500	615.276	80.004	19.997	103.116	20.151	1.044	0.491
1069.001	615.522	80.002	19.997	103.118	20.150	1.067	0.505
1069.501	615.788	80.001	19.997	103.119	20.150	1.056	0.507
1070.001	615.996	80.003	19.996	103.124	20.149	1.158	0.493
1070.501	616.311	80.002	19.997	103.130	20.146	1.409	0.498
1071.000	616.523	80.000	19.997	103.136	20.152	0.914	0.525
1071.500	616.770	80.002	19.998	103.137	20.148	1.230	0.493
1072.000	616.997	80.001	19.997	103.140	20.151	1.027	0.467
1072.500	617.241	80.003	19.997	103.140	20.150	1.127	0.473
1073.000	617.525	80.004	19.998	103.134	20.151	1.005	0.500
1073.500	617.745	80.002	19.996	103.135	20.152	0.967	0.516
1074.000	618.008	80.001	19.998	103.136	20.150	1.059	0.494
1074.500	618.274	80.002	19.997	103.139	20.152	0.934	0.506
1075.000	618.507	80.001	19.998	103.139	20.153	0.847	0.514
1075.500	618.754	80.001	19.996	103.141	20.154	0.808	0.489
1076.000	619.008	80.002	19.997	103.138	20.153	0.833	0.490
1076.500	619.287	80.002	19.997	103.140	20.152	0.926	0.517
1077.000	619.498	80.001	19.996	103.138	20.154	0.785	0.512
1077.500	619.732	80.001	19.998	103.141	20.153	0.878	0.467
1078.000	620.019	80.002	19.997	103.147	20.155	0.748	0.483
1078.500	620.276	80.003	19.997	103.150	20.153	0.876	0.533
1079.000	620.497	80.001	19.996	103.145	20.156	0.611	0.511
1079.500	620.726	80.003	19.996	103.142	20.156	0.621	0.464
1080.000	620.995	80.000	19.997	103.136	20.158	0.505	0.474
1080.500	621.245	80.001	19.997	103.129	20.151	1.054	0.509
1081.001	621.517	80.004	19.997	103.125	20.155	0.721	0.521
1081.500	621.797	80.000	19.995	103.128	20.159	0.414	0.537
1082.000	622.040	80.002	19.997	103.132	20.152	0.924	0.537
1082.501	622.271	80.001	19.997	103.131	20.158	0.512	0.499
1083.001	622.529	80.003	19.996	103.133	20.154	0.824	0.482
1083.500	622.782	80.005	19.997	103.134	20.155	0.700	0.500
1084.000	623.043	80.002	19.996	103.130	20.155	0.735	0.512
1084.500	623.286	80.003	19.997	103.128	20.157	0.534	0.509
1085.001	623.572	80.002	19.997	103.129	20.156	0.626	0.517
1085.502	623.804	80.004	19.998	103.129	20.156	0.636	0.523
1086.002	624.031	80.000	19.995	103.128	20.155	0.713	0.489
1086.502	624.272	80.003	19.996	103.127	20.153	0.885	0.464
1087.002	624.513	80.005	19.996	103.123	20.153	0.876	0.474
1087.501	624.792	80.000	19.995	103.124	20.156	0.630	0.501
1088.001	625.079	80.003	19.996	103.121	20.156	0.655	0.543
1088.502	625.357	80.003	19.995	103.121	20.157	0.555	0.566
1089.002	625.580	80.002	19.997	103.124	20.158	0.491	0.533
1089.501	625.850	80.006	19.996	103.127	20.158	0.497	0.497
1090.000	626.098	80.004	19.996	103.129	20.159	0.385	0.506
1090.500	626.304	80.006	19.997	103.131	20.156	0.665	0.486
1091.000	626.582	80.004	19.994	103.129	20.157	0.570	0.469
1091.501	626.873	80.006	19.996	103.128	20.162	0.189	0.526
1092.002	627.052	80.005	19.996	103.129	20.155	0.729	0.519
1092.502	627.357	80.005	19.996	103.129	20.154	0.773	0.477
1093.002	627.620	80.005	19.997	103.133	20.157	0.597	0.526
1093.502	627.835	80.003	19.996	103.138	20.156	0.624	0.523
1094.002	628.153	80.004	19.997	103.136	20.160	0.373	0.506
1094.501	628.353	80.004	19.997	103.134	20.161	0.251	0.525
1095.000	628.616	80.005	19.997	103.137	20.156	0.611	0.490
1095.500	628.909	80.006	19.998	103.138	20.158	0.485	0.510
1096.000	629.157	80.004	19.996	103.140	20.154	0.762	0.549
1096.501	629.383	80.006	19.998	103.145	20.156	0.642	0.507
1097.001	629.644	80.003	19.996	103.151	20.159	0.437	0.481
1097.500	629.907	80.004	19.998	103.152	20.158	0.485	0.506
1098.001	630.134	80.003	19.997	103.150	20.161	0.294	0.507
1098.502	630.394	80.002	19.996	103.147	20.162	0.186	0.488
1099.001	630.684	80.003	19.997	103.143	20.162	0.228	0.519
1099.501	630.934	80.003	19.998	103.138	20.162	0.195	0.545
1100.001	631.203	80.002	19.997	103.134	20.158	0.514	0.529
1100.501	631.443	80.002	19.997	103.137	20.160	0.334	0.514
1101.001	631.686	80.003	19.997	103.137	20.159	0.433	0.496
1101.500	631.898	80.002	19.997	103.139	20.157	0.605	0.469
1102.000	632.222	80.003	19.996	103.145	20.157	0.555	0.495
1102.501	632.457	79.999	19.998	103.143	20.161	0.273	0.548
1103.001	632.676	80.002	19.998	103.140	20.161	0.242	0.507
1103.502	632.934	80.004	19.996	103.140	20.156	0.661	0.465
1104.002	633.220	80.002	19.997	103.142	20.157	0.561	0.510
1104.501	633.502	80.002	19.998	103.136	20.157	0.568	0.556
1105.000	633.748	80.002	19.998	103.136	20.162	0.191	0.548
1105.500	634.015	80.004	19.998	103.136	20.157	0.593	0.521
1106.001	634.235	80.002	19.997	103.136	20.159	0.435	0.500
1106.502	634.543	80.003	19.996	103.136	20.158	0.508	0.507
1107.002	634.735	80.004	19.997	103.142	20.159	0.431	0.514
1107.502	634.998	80.001	19.996	103.143	20.156	0.642	0.478
1108.002	635.300	80.005	19.998	103.143	20.159	0.435	0.510
1108.501	635.525	80.004	19.997	103.144	20.161	0.290	0.546
1109.001	635.777	80.002	19.997	103.145	20.159	0.418	0.502
1109.501	636.036	80.003	19.996	103.142	20.162	0.205	0.494
1110.001	636.303	80.005	19.997	103.139	20.160	0.342	0.518
1110.500	636.567	80.004	19.996	103.140	20.161	0.286	0.529
1111.000	636.825	80.004	19.997	103.138	20.157	0.551	0.526
1111.500	637.084	80.005	19.996	103.131	20.153	0.841	0.519
1112.000	637.326	80.004	19.997	103.127	20.156	0.669	0.509
1112.501	637.609	80.005	19.996	103.131	20.155	0.688	0.513
1113.001	637.843	80.001	19.996	103.132	20.160	0.373	0.521
1113.500	638.179	80.007	19.997	103.129	20.153	0.901	0.544
1114.000	638.372	80.006	19.997	103.133	20.161	0.284	0.549
1114.501	638.620	80.004	19.996	103.137	20.168	-0.236	0.485
1115.002	638.890	80.005	19.997	103.138	20.160	0.354	0.480
1115.501	639.114	80.006	19.994	103.136	20.167	-0.203	0.506
1116.000	639.414	80.005	19.997	103.141	20.171	-0.454	0.509
1116.500	639.654	80.007	19.996	103.144	20.173	-0.636	0.531
1117.000	639.942	80.005	19.996	103.148	20.173	-0.632	0.534
1117.500	640.164	80.003	19.995	103.150	20.166	-0.081	0.519
1118.000	640.402	80.004	19.995	103.153	20.164	0.017	0.485
1118.501	640.686	80.005	19.995	103.154	20.154	0.820	0.491
1119.001	640.972	80.005	19.993	103.152	20.152	0.972	0.546
1119.502	641.190	80.005	19.996	103.146	20.152	0.943	0.537
1120.002	641.395	80.006	19.995	103.145	20.154	0.798	0.464
1120.502	641.693	80.006	19.994	103.142	20.152	0.909	0.463
1121.002	641.989	80.003	19.995	103.142	20.152	0.936	0.549
1121.501	642.257	80.002	19.995	103.144	20.154	0.779	0.580
1122.000	642.538	80.004	19.995	103.147	20.152	0.959	0.557
1122.501	642.808	80.004	19.996	103.149	20.153	0.880	0.550
1123.002	643.006	80.005	19.995	103.152	20.152	0.924	0.509
1123.501	643.321	80.001	19.995	103.153	20.154	0.793	0.490
1124.001	643.535	80.005	19.995	103.154	20.162	0.211	0.521
1124.502	643.723	80.002	19.995	103.156	20.153	0.891	0.466
1125.001	644.015	80.004	19.996	103.156	20.158	0.518	0.441
1125.500	644.278	80.001	19.995	103.155	20.153	0.887	0.517
1126.001	644.532	80.004	19.996	103.155	20.153	0.878	0.536
1126.501	644.835	80.002	19.996	103.153	20.152	0.916	0.537
1127.000	645.024	80.002	19.996	103.148	20.156	0.673	0.525
1127.500	645.294	80.002	19.995	103.141	20.155	0.742	0.476
1128.001	645.540	80.002	19.996	103.137	20.153	0.878	0.488
1128.501	645.778	80.002	19.997	103.134	20.151	1.005	0.500
1129.000	646.082	80.002	19.995	103.134	20.155	0.756	0.513
1129.500	646.314	80.003	19.996	103.135	20.154	0.806	0.539
1130.001	646.588	80.001	19.995	103.139	20.153	0.833	0.521
1130.501	646.851	80.001	19.996	103.139	20.167	-0.160	0.522
1131.001	647.097	80.003	19.995	103.138	20.174	-0.694	0.523
1131.502	647.343	80.001	19.995	103.134	20.157	0.559	0.500
1132.001	647.609	80.003	19.996	103.136	20.158	0.524	0.502
1132.500	647.919	80.002	19.996	103.137	20.155	0.756	0.544
1133.000	648.168	80.002	19.996	103.138	20.158	0.458	0.567
1133.500	648.392	80.003	19.995	103.139	20.162	0.178	0.516
1134.000	648.670	80.001	19.995	103.143	20.155	0.690	0.488
1134.500	648.949	80.002	19.997	103.141	20.161	0.263	0.530
1135.001	649.140	80.004	19.997	103.138	20.156	0.657	0.513
1135.501	649.423	80.002	19.996	103.136	20.159	0.445	0.472
1136.001	649.705	80.002	19.996	103.131	20.158	0.495	0.520
1136.501	650.005	80.004	19.997	103.125	20.160	0.325	0.573
1137.000	650.390	80.002	19.997	103.122	20.162	0.230	0.633
1137.500	650.717	80.002	19.997	103.122	20.159	0.456	0.698
1138.000	650.744	80.001	19.997	103.122	20.159	0.398	0.533
1138.500	651.070	80.003	19.996	103.129	20.158	0.464	0.354
1139.000	651.340	80.003	19.996	103.132	20.156	0.640	0.474
1139.500	651.592	80.002	19.996	103.139	20.158	0.520	0.559
1140.000	651.763	80.003	19.998	103.141	20.162	0.215	0.473
1140.500	652.073	80.002	19.997	103.140	20.155	0.744	0.452
1141.001	652.357	80.003	19.996	103.138	20.157	0.595	0.538
1141.501	652.714	80.003	19.996	103.140	20.160	0.319	0.618
1142.000	652.811	80.002	19.996	103.137	20.156	0.613	0.548
1142.500	653.081	80.002	19.997	103.133	20.160	0.311	0.410
1143.001	653.338	80.003	19.996	103.131	20.161	0.296	0.447
1143.501	653.596	80.002	19.997	103.130	20.157	0.537	0.521
1144.001	653.857	80.002	19.995	103.133	20.159	0.418	0.517
1144.500	654.102	80.003	19.995	103.136	20.162	0.197	0.513
1145.001	654.357	80.004	19.995	103.140	20.164	0.052	0.503
1145.502	654.641	80.004	19.994	103.144	20.164	0.046	0.519
1146.002	654.866	80.003	19.996	103.139	20.170	-0.408	0.524
1146.501	655.147	80.004	19.996	103.131	20.162	0.209	0.508
1147.000	655.417	80.004	19.995	103.126	20.158	0.508	0.528
1147.501	655.671	80.005	19.995	103.126	20.153	0.891	0.537
1148.001	655.929	80.004	19.997	103.129	20.154	0.827	0.518
1148.501	656.184	80.004	19.996	103.134	20.153	0.899	0.513
1149.001	656.444	80.002	19.996	103.141	20.156	0.630	0.514
1149.500	656.689	80.004	19.996	103.144	20.157	0.553	0.510
1150.000	656.954	80.004	19.996	103.139	20.156	0.621	0.508
1150.500	657.206	80.004	19.996	103.140	20.156	0.619	0.514
1151.001	657.451	80.003	19.995	103.140	20.156	0.619	0.507
1151.502	657.712	80.003	19.996	103.141	20.156	0.613	0.501
1152.002	657.966	80.004	19.996	103.143	20.155	0.684	0.511
1152.502	658.191	80.004	19.996	103.148	20.154	0.789	0.497
1153.002	658.516	80.004	19.995	103.143	20.155	0.723	0.515
1153.501	658.738	80.003	19.995	103.141	20.155	0.684	0.548
1154.001	659.010	80.003	19.996	103.137	20.156	0.630	0.520
1154.501	659.252	80.001	19.996	103.131	20.158	0.528	0.504
1155.001	659.492	80.003	19.996	103.131	20.157	0.601	0.498
1155.501	659.755	80.002	19.997	103.135	20.154	0.783	0.492
1156.000	659.985	80.002	19.996	103.138	20.154	0.810	0.498
1156.500	660.282	80.002	19.997	103.140	20.153	0.897	0.510
1157.000	660.522	80.002	19.998	103.147	20.153	0.835	0.531
1157.500	660.767	80.001	19.997	103.150	20.152	0.949	0.511
1158.001	661.014	80.003	19.997	103.151	20.154	0.800	0.489
1158.501	661.289	80.002	19.996	103.150	20.156	0.675	0.507
1159.000	661.505	80.003	19.998	103.145	20.158	0.503	0.506
1159.500	661.736	80.001	19.996	103.140	20.154	0.818	0.469
1160.000	661.993	80.003	19.996	103.132	20.154	0.775	0.468
1160.500	662.264	80.002	19.997	103.126	20.156	0.682	0.508
1161.000	662.496	80.002	19.997	103.127	20.155	0.686	0.516
1161.500	662.789	80.003	19.997	103.131	20.152	0.951	0.514
1162.000	663.035	80.002	19.996	103.131	20.156	0.611	0.532
1162.501	663.413	80.003	19.996	103.131	20.158	0.514	0.582
1163.001	663.568	80.002	19.997	103.130	20.155	0.721	0.579
1163.501	663.855	80.003	19.996	103.126	20.153	0.833	0.488
1164.001	664.116	80.004	19.996	103.124	20.151	0.988	0.495
1164.500	664.301	80.002	19.996	103.123	20.155	0.725	0.497
1165.001	664.573	80.003	19.996	103.124	20.155	0.723	0.451
1165.501	664.841	80.003	19.997	103.128	20.153	0.885	0.498
1166.001	665.080	80.002	19.997	103.134	20.151	1.038	0.523
1166.501	665.384	80.002	19.997	103.135	20.150	1.086	0.525
1167.000	665.606	80.002	19.995	103.139	20.156	0.667	0.534
1167.501	665.861	80.002	19.996	103.140	20.153	0.880	0.502
1168.001	666.099	80.002	19.996	103.141	20.154	0.808	0.485
1168.501	666.379	80.003	19.997	103.137	20.153	0.851	0.506
1169.001	666.627	80.002	19.997	103.139	20.155	0.742	0.523
1169.500	666.895	80.003	19.996	103.138	20.156	0.642	0.522
1170.001	667.152	80.003	19.997	103.138	20.155	0.709	0.520
1170.502	667.399	80.004	19.998	103.139	20.156	0.632	0.514
1171.001	667.613	80.004	19.998	103.141	20.156	0.632	0.483
1171.500	667.910	80.004	19.996	103.141	20.151	0.990	0.486
1172.000	668.128	80.004	19.996	103.143	20.153	0.853	0.513
1172.500	668.405	80.002	19.996	103.148	20.158	0.495	0.505
1173.000	668.646	80.004	19.996	103.150	20.152	0.963	0.506
1173.500	668.896	80.005	19.997	103.150	20.156	0.630	0.504
1174.000	669.133	80.005	19.997	103.150	20.158	0.474	0.489
1174.500	669.398	80.005	19.998	103.143	20.155	0.719	0.495
1175.000	669.641	80.005	19.996	103.139	20.157	0.551	0.505
1175.500	669.879	80.005	19.997	103.137	20.160	0.329	0.495
1176.001	670.169	80.005	19.996	103.136	20.156	0.617	0.504
1176.502	670.406	80.006	19.997	103.137	20.155	0.729	0.527
1177.001	670.675	80.005	19.997	103.142	20.157	0.551	0.517
1177.500	670.910	80.006	19.997	103.144	20.157	0.595	0.506
1178.000	671.129	80.005	19.996	103.144	20.154	0.771	0.479
1178.500	671.487	80.004	19.996	103.141	20.158	0.532	0.515
1179.000	671.618	80.004	19.996	103.134	20.156	0.648	0.533
1179.500	671.877	80.005	19.997	103.131	20.154	0.793	0.440
1180.000	672.114	80.005	19.997	103.134	20.156	0.663	0.443
1180.501	672.362	80.002	19.996	103.135	20.160	0.373	0.490
1181.002	672.654	80.004	19.996	103.140	20.153	0.905	0.512
1181.501	672.893	80.004	19.997	103.139	20.156	0.644	0.535
1182.001	673.156	80.004	19.997	103.139	20.159	0.439	0.517
1182.502	673.405	80.002	19.996	103.133	20.154	0.798	0.507
1183.001	673.677	80.002	19.996	103.129	20.158	0.526	0.517
1183.500	673.923	80.002	19.996	103.130	20.160	0.329	0.519
1184.001	674.176	80.002	19.995	103.134	20.159	0.421	0.508
1184.501	674.459	80.004	19.996	103.138	20.158	0.528	0.517
1185.000	674.720	80.003	19.997	103.139	20.156	0.630	0.540
1185.500	674.959	80.004	19.996	103.142	20.156	0.640	0.522
1186.000	675.229	80.004	19.995	103.141	20.157	0.605	0.505
1186.500	675.448	80.002	19.997	103.145	20.155	0.717	0.500
1187.000	675.717	80.003	19.996	103.143	20.157	0.599	0.489
1187.500	675.949	80.003	19.996	103.144	20.157	0.601	0.495
1188.001	676.253	80.003	19.996	103.142	20.154	0.773	0.518
1188.501	676.486	80.003	19.997	103.143	20.158	0.522	0.536
1189.000	676.756	80.005	19.997	103.139	20.158	0.493	0.520
1189.500	676.975	80.004	19.995	103.139	20.157	0.578	0.496
1190.000	677.210	80.004	19.997	103.140	20.156	0.677	0.472
1190.500	677.505	80.004	19.996	103.136	20.156	0.652	0.492
1191.000	677.707	80.003	19.996	103.129	20.158	0.485	0.513
1191.500	677.979	80.004	19.997	103.128	20.156	0.632	0.485
1192.000	678.224	80.003	19.998	103.129	20.155	0.723	0.495
1192.500	678.465	80.004	19.996	103.130	20.154	0.768	0.502
1193.000	678.722	80.005	19.997	103.137	20.155	0.688	0.492
1193.501	678.954	80.005	19.997	103.137	20.156	0.640	0.493
1194.002	679.222	80.005	19.997	103.135	20.155	0.688	0.495
1194.502	679.432	80.004	19.997	103.132	20.153	0.839	0.489
1195.002	679.715	80.002	19.997	103.128	20.159	0.400	0.485
1195.501	679.911	80.004	19.998	103.125	20.158	0.489	0.486
1196.000	680.167	80.005	19.997	103.128	20.157	0.582	0.466
1196.500	680.429	80.003	19.998	103.130	20.156	0.659	0.485
1197.001	680.706	80.005	19.997	103.134	20.157	0.549	0.529
1197.501	680.958	80.006	19.997	103.139	20.157	0.607	0.534
1198.001	681.168	80.005	19.997	103.140	20.155	0.704	0.495
1198.502	681.430	80.006	19.998	103.137	20.159	0.383	0.467
1199.001	681.679	80.005	19.997	103.136	20.156	0.621	0.491
1199.501	681.971	80.006	19.997	103.131	20.157	0.539	0.526
1200.001	682.170	80.005	19.997	103.127	20.158	0.530	0.516
1200.500	682.431	80.005	19.998	103.124	20.157	0.605	0.476
1201.000	682.674	80.005	19.996	103.126	20.156	0.644	0.482
1201.501	682.891	80.004	19.997	103.128	20.157	0.559	0.482
1202.001	683.154	80.004	19.997	103.126	20.158	0.528	0.470
1202.501	683.415	80.004	19.996	103.122	20.157	0.607	0.502
1203.001	683.659	80.005	19.996	103.121	20.155	0.752	0.514
1203.501	683.916	80.004	19.997	103.119	20.157	0.549	0.503
1204.002	684.144	80.004	19.997	103.118	20.155	0.715	0.493
1204.502	684.390	80.003	19.997	103.118	20.157	0.537	0.479
1205.001	684.609	80.003	19.997	103.122	20.154	0.779	0.469
1205.500	684.912	80.004	19.997	103.125	20.156	0.651	0.494
1206.000	685.122	80.004	19.996	103.126	20.154	0.808	0.518
1206.500	685.395	80.004	19.996	103.124	20.155	0.700	0.498
1207.001	685.605	80.002	19.996	103.127	20.155	0.729	0.483
1207.501	685.846	80.003	19.997	103.128	20.153	0.866	0.467
1208.001	686.154	80.002	19.996	103.125	20.153	0.847	0.500
1208.502	686.393	80.003	19.996	103.127	20.157	0.599	0.548
1209.001	686.633	80.003	19.996	103.129	20.156	0.677	0.513
1209.500	686.863	80.001	19.996	103.132	20.158	0.532	0.474
1210.000	687.114	80.003	19.996	103.135	20.156	0.630	0.476
1210.501	687.368	80.003	19.996	103.139	20.154	0.816	0.494
1211.001	687.616	80.003	19.996	103.141	20.154	0.831	0.504
1211.501	687.864	80.004	19.997	103.143	20.156	0.638	0.499
1212.001	688.108	80.004	19.996	103.138	20.155	0.746	0.493
1212.501	688.323	80.004	19.996	103.135	20.154	0.820	0.475
1213.001	688.599	80.004	19.996	103.135	20.154	0.804	0.475
1213.500	688.869	80.004	19.996	103.132	20.156	0.653	0.519
1214.000	689.119	80.003	19.995	103.132	20.153	0.845	0.533
1214.500	689.345	80.004	19.996	103.137	20.155	0.694	0.498
1215.000	689.636	80.004	19.996	103.137	20.156	0.665	0.497
1215.500	689.841	80.003	19.996	103.136	20.153	0.837	0.507
1216.000	690.088	80.002	19.996	103.140	20.151	0.990	0.473
1216.500	690.356	80.003	19.997	103.143	20.155	0.694	0.483
1217.000	690.633	80.003	19.995	103.144	20.154	0.783	0.530
1217.501	690.869	80.004	19.996	103.146	20.155	0.694	0.529
1218.001	691.128	80.004	19.996	103.147	20.154	0.793	0.504
1218.502	691.393	80.002	19.996	103.144	20.151	0.996	0.510
1219.001	691.635	80.003	19.997	103.142	20.152	0.918	0.516
1219.500	691.887	80.004	19.996	103.136	20.154	0.808	0.500
1220.000	692.133	80.003	19.996	103.134	20.156	0.657	0.496
1220.500	692.372	80.003	19.996	103.137	20.153	0.864	0.491
1221.000	692.658	80.003	19.996	103.139	20.152	0.928	0.505
1221.501	692.903	80.003	19.996	103.137	20.152	0.949	0.529
1222.001	693.158	80.003	19.995	103.141	20.155	0.733	0.516
1222.502	693.421	80.003	19.996	103.138	20.155	0.725	0.509
1223.001	693.705	80.003	19.996	103.137	20.155	0.729	0.532
1223.500	693.925	80.002	19.996	103.138	20.152	0.936	0.526
1224.000	694.190	80.003	19.996	103.142	20.157	0.586	0.495
1224.501	694.452	80.003	19.997	103.145	20.159	0.402	0.506
1225.001	694.690	80.003	19.996	103.149	20.155	0.725	0.513
1225.500	694.977	80.003	19.996	103.148	20.153	0.833	0.513
1226.001	695.188	80.004	19.997	103.145	20.155	0.686	0.512
1226.502	695.462	80.004	19.997	103.139	20.154	0.773	0.492
1227.001	695.707	80.002	19.996	103.131	20.153	0.854	0.502
1227.501	695.958	80.004	19.997	103.126	20.154	0.795	0.507
1228.002	696.213	80.003	19.995	103.126	20.155	0.692	0.501
1228.502	696.502	80.003	19.996	103.122	20.154	0.789	0.525
1229.001	696.730	80.003	19.997	103.126	20.155	0.727	0.530
1229.501	696.989	80.002	19.996	103.133	20.153	0.891	0.503
1230.002	697.250	80.002	19.996	103.134	20.156	0.653	0.504
1230.501	697.448	80.002	19.997	103.131	20.153	0.905	0.489
1231.000	697.782	80.002	19.996	103.130	20.153	0.891	0.496
1231.500	697.997	80.003	19.996	103.127	20.154	0.808	0.541
1232.001	698.241	80.003	19.996	103.121	20.151	1.003	0.504
1232.500	698.497	80.003	19.996	103.119	20.153	0.880	0.479
1233.001	698.754	80.003	19.996	103.118	20.153	0.862	0.506
1233.501	698.958	80.004	19.995	103.122	20.153	0.899	0.487
1234.000	699.222	80.003	19.997	103.124	20.155	0.704	0.465
1234.500	699.462	80.003	19.996	103.131	20.152	0.916	0.486
1235.001	699.738	80.003	19.996	103.139	20.155	0.713	0.510
1235.501	699.994	80.002	19.996	103.146	20.154	0.789	0.524
1236.001	700.257	80.004	19.996	103.144	20.153	0.903	0.525
1236.501	700.513	80.002	19.996	103.146	20.156	0.661	0.519
1237.002	700.752	80.004	19.996	103.144	20.152	0.949	0.507
1237.502	701.035	80.003	19.996	103.143	20.153	0.884	0.508
1238.001	701.287	80.004	19.997	103.138	20.152	0.913	0.528
1238.501	701.537	80.004	19.996	103.137	20.152	0.916	0.519
1239.002	701.738	80.003	19.996	103.135	20.155	0.704	0.476
1239.502	702.003	80.003	19.996	103.130	20.153	0.849	0.458
1240.002	702.262	80.002	19.996	103.128	20.153	0.847	0.495
1240.501	702.498	80.003	19.996	103.127	20.153	0.851	0.509
1241.000	702.749	80.003	19.996	103.131	20.156	0.638	0.491
1241.501	703.032	80.002	19.995	103.130	20.155	0.698	0.511
1242.001	703.251	80.003	19.995	103.130	20.154	0.766	0.518
1242.501	703.481	80.001	19.996	103.127	20.155	0.727	0.476
1243.002	703.758	80.002	19.995	103.127	20.153	0.858	0.478
1243.501	704.009	80.003	19.996	103.129	20.154	0.804	0.517
1244.000	704.251	80.003	19.995	103.131	20.153	0.882	0.510
1244.500	704.491	80.003	19.996	103.138	20.152	0.959	0.488
1245.000	704.743	80.003	19.996	103.144	20.153	0.855	0.488
1245.500	704.999	80.002	19.996	103.143	20.151	1.015	0.500
1246.001	705.227	80.003	19.996	103.140	20.150	1.090	0.495
1246.502	705.488	80.003	19.995	103.137	20.152	0.918	0.486
1247.002	705.739	80.001	19.995	103.130	20.153	0.866	0.501
1247.501	705.984	80.003	19.996	103.124	20.154	0.797	0.505
1248.001	706.242	80.002	19.995	103.124	20.152	0.914	0.500
1248.501	706.502	80.002	19.995	103.123	20.151	0.982	0.510
1249.000	706.727	80.002	19.996	103.123	20.154	0.787	0.501
1249.500	706.971	80.003	19.995	103.123	20.150	1.084	0.477
1250.000	707.231	80.003	19.996	103.127	20.154	0.822	0.487
1250.500	707.442	80.002	19.995	103.129	20.156	0.665	0.488
1251.000	707.745	80.002	19.996	103.131	20.155	0.731	0.493
1251.500	707.930	80.003	19.996	103.137	20.155	0.694	0.500
1252.001	708.216	80.002	19.996	103.141	20.158	0.516	0.479
1252.501	708.437	80.004	19.996	103.139	20.157	0.582	0.489
1253.000	708.665	80.004	19.996	103.136	20.154	0.777	0.478
1253.501	708.914	80.003	19.996	103.133	20.155	0.704	0.463
1254.002	709.166	80.003	19.996	103.127	20.156	0.609	0.490
1254.501	709.410	80.004	19.996	103.123	20.155	0.684	0.498
1255.000	709.688	80.004	19.995	103.125	20.156	0.677	0.509
1255.500	709.915	80.004	19.996	103.126	20.158	0.520	0.514
1256.000	710.128	80.004	19.995	103.128	20.157	0.593	0.472
1256.500	710.354	80.004	19.995	103.131	20.156	0.615	0.440
1257.000	710.637	80.005	19.996	103.132	20.158	0.520	0.474
1257.500	710.906	80.004	19.996	103.128	20.156	0.671	0.530
1258.000	711.158	80.005	19.996	103.126	20.155	0.706	0.536
1258.500	711.396	80.003	19.996	103.128	20.155	0.750	0.506
1259.000	711.620	80.005	19.996	103.131	20.157	0.599	0.476
1259.500	711.856	80.004	19.996	103.136	20.154	0.762	0.461
1260.000	712.132	80.003	19.996	103.141	20.155	0.708	0.486
1260.500	712.349	80.005	19.996	103.147	20.158	0.522	0.502
1261.000	712.597	80.003	19.996	103.145	20.159	0.423	0.479
1261.500	712.877	80.003	19.996	103.141	20.157	0.580	0.497
1262.001	713.103	80.002	19.996	103.137	20.157	0.590	0.517
1262.501	713.343	80.003	19.998	103.134	20.154	0.810	0.486
1263.000	713.607	80.003	19.996	103.129	20.152	0.980	0.485
1263.500	713.866	80.004	19.996	103.126	20.154	0.768	0.514
1264.000	714.101	80.004	19.996	103.123	20.153	0.845	0.508
1264.500	714.358	80.002	19.996	103.123	20.154	0.808	0.493
1265.000	714.612	80.003	19.996	103.126	20.155	0.715	0.501
1265.500	714.881	80.003	19.996	103.132	20.155	0.715	0.518
1266.000	715.124	80.003	19.997	103.137	20.155	0.752	0.518
1266.500	715.364	80.004	19.996	103.143	20.154	0.827	0.497
1267.000	715.658	80.004	19.996	103.141	20.154	0.814	0.508
1267.501	715.929	80.004	19.996	103.134	20.153	0.835	0.550
1268.002	716.159	80.002	19.996	103.129	20.153	0.833	0.533
1268.502	716.404	80.003	19.996	103.126	20.152	0.915	0.488
1269.001	716.653	80.003	19.996	103.123	20.157	0.539	0.485
1269.500	716.873	80.003	19.996	103.123	20.157	0.605	0.482
1270.000	717.129	80.004	19.996	103.125	20.154	0.791	0.473
1270.500	717.389	80.004	19.996	103.125	20.154	0.789	0.496
1271.001	717.620	80.004	19.996	103.123	20.154	0.797	0.503
1271.502	717.859	80.004	19.996	103.123	20.154	0.781	0.481
1272.001	718.095	80.004	19.997	103.124	20.152	0.926	0.473
1272.500	718.345	80.005	19.996	103.122	20.155	0.717	0.480
1273.001	718.638	80.005	19.997	103.122	20.154	0.802	0.515
1273.501	718.865	80.005	19.996	103.122	20.155	0.690	0.531
1274.000	719.111	80.004	19.997	103.118	20.157	0.597	0.496
1274.501	719.375	80.004	19.996	103.116	20.154	0.800	0.492
1275.002	719.589	80.004	19.996	103.116	20.154	0.783	0.494
1275.502	719.833	80.005	19.997	103.118	20.153	0.901	0.468
1276.001	720.067	80.005	19.995	103.120	20.154	0.831	0.468
1276.500	720.320	80.004	19.997	103.124	20.154	0.766	0.482
1277.001	720.580	80.004	19.996	103.130	20.153	0.876	0.500
1277.502	720.800	80.006	19.996	103.133	20.154	0.779	0.497
1278.001	721.084	80.004	19.996	103.131	20.154	0.820	0.492
1278.501	721.282	80.005	19.996	103.128	20.154	0.785	0.493
1279.001	721.567	80.006	19.995	103.124	20.156	0.646	0.483
1279.501	721.828	80.004	19.996	103.118	20.155	0.752	0.515
1280.001	722.093	80.007	19.995	103.115	20.151	1.013	0.536
1280.501	722.283	80.005	19.996	103.116	20.152	0.974	0.491
1281.002	722.535	80.006	19.995	103.119	20.154	0.798	0.448
1281.501	722.796	80.005	19.995	103.123	20.151	0.986	0.477
1282.000	723.037	80.005	19.996	103.125	20.152	0.922	0.508
1282.500	723.318	80.006	19.997	103.124	20.155	0.737	0.512
1283.000	723.559	80.005	19.996	103.125	20.156	0.682	0.522
1283.500	723.840	80.005	19.996	103.125	20.155	0.684	0.522
1284.001	724.073	80.005	19.995	103.123	20.153	0.897	0.518
1284.501	724.340	80.005	19.996	103.121	20.156	0.630	0.507
1285.001	724.531	80.005	19.996	103.128	20.156	0.673	0.479
1285.502	724.819	80.003	19.996	103.130	20.159	0.429	0.468
1286.002	725.099	80.004	19.996	103.128	20.157	0.570	0.523
1286.502	725.375	80.003	19.996	103.127	20.155	0.717	0.562
1287.002	725.629	80.004	19.997	103.130	20.155	0.742	0.543
1287.502	725.891	80.004	19.996	103.124	20.153	0.860	0.523
1288.002	726.143	80.003	19.996	103.123	20.153	0.847	0.516
1288.501	726.413	80.003	19.996	103.124	20.155	0.686	0.518
1289.001	726.668	80.004	19.998	103.131	20.152	0.980	0.524
1289.502	726.936	80.002	19.997	103.134	20.155	0.739	0.524
1290.002	727.158	80.001	19.997	103.141	20.152	0.913	0.506
1290.501	727.431	80.002	19.998	103.146	20.153	0.837	0.493
1291.000	727.708	80.002	19.997	103.150	20.152	0.909	0.523
1291.500	728.006	80.002	19.997	103.146	20.155	0.686	0.562
1292.000	728.267	80.002	19.997	103.145	20.154	0.779	0.567
1292.500	728.512	80.002	19.997	103.145	20.155	0.748	0.533
1293.001	728.784	80.001	19.997	103.143	20.154	0.816	0.512
1293.501	729.024	80.002	19.997	103.138	20.153	0.872	0.515
1294.000	729.327	80.000	19.997	103.136	20.153	0.891	0.527
1294.501	729.602	80.001	19.997	103.132	20.150	1.083	0.560
1295.000	729.886	80.001	19.997	103.127	20.150	1.100	0.568
1295.501	730.137	80.002	19.997	103.121	20.152	0.978	0.547
1296.001	730.419	80.001	19.996	103.123	20.153	0.856	0.534
1296.501	730.690	80.002	19.997	103.124	20.154	0.802	0.543
1297.001	730.979	80.000	19.997	103.124	20.151	1.021	0.557
1297.500	731.247	80.001	19.998	103.128	20.153	0.885	0.558
1298.000	731.527	80.002	19.997	103.133	20.152	0.932	0.552
1298.500	731.818	80.001	19.996	103.135	20.152	0.953	0.559
1299.000	732.082	80.001	19.996	103.133	20.151	1.000	0.563
1299.500	732.346	80.001	19.997	103.132	20.151	0.982	0.541
1300.001	732.661	80.002	19.996	103.129	20.152	0.916	0.553
1300.501	732.902	80.002	19.995	103.127	20.150	1.110	0.568
1301.000	733.167	80.001	19.998	103.125	20.151	1.011	0.531
1301.501	733.441	80.002	19.996	103.125	20.152	0.928	0.522
1302.002	733.751	80.002	19.996	103.124	20.153	0.901	0.562
1302.502	733.983	80.002	19.996	103.125	20.152	0.943	0.563
1303.002	734.287	80.001	19.995	103.131	20.151	1.009	0.539
1303.501	734.575	80.002	19.996	103.133	20.153	0.851	0.564
1304.000	734.803	80.001	19.996	103.133	20.151	0.990	0.554
1304.501	735.111	80.004	19.996	103.133	20.153	0.856	0.526
1305.002	735.384	80.003	19.996	103.133	20.151	1.017	0.559
1305.501	735.620	80.002	19.996	103.130	20.153	0.847	0.545
1306.001	735.947	80.003	19.995	103.131	20.154	0.791	0.536
1306.501	736.194	80.003	19.997	103.130	20.154	0.773	0.568
1307.001	736.472	80.003	19.995	103.133	20.156	0.661	0.549
1307.502	736.767	80.002	19.996	103.136	20.156	0.665	0.549
1308.001	737.019	80.002	19.995	103.134	20.151	0.998	0.560
1308.501	737.272	80.002	19.995	103.130	20.153	0.868	0.526
1309.002	737.520	80.002	19.995	103.130	20.154	0.816	0.503
1309.502	737.827	80.002	19.996	103.126	20.154	0.777	0.529
1310.001	738.113	80.003	19.995	103.122	20.152	0.972	0.574
1310.500	738.359	80.002	19.996	103.121	20.156	0.609	0.562
1311.001	738.665	80.002	19.995	103.125	20.156	0.634	0.542
1311.501	738.954	80.003	19.997	103.127	20.153	0.893	0.574
1312.001	739.251	80.004	19.995	103.132	20.153	0.862	0.591
1312.502	739.583	80.003	19.996	103.136	20.153	0.901	0.608
1313.002	739.890	80.003	19.997	103.135	20.151	0.986	0.634
1313.501	740.051	80.003	19.995	103.135	20.155	0.715	0.553
1314.001	740.348	80.003	19.996	103.137	20.157	0.580	0.463
1314.502	740.601	80.003	19.995	103.138	20.154	0.798	0.504
1315.002	740.894	80.001	19.996	103.136	20.156	0.630	0.548
1315.501	741.175	80.004	19.995	103.141	20.154	0.814	0.560
1316.000	741.469	80.002	19.996	103.140	20.158	0.532	0.574
1316.500	741.721	80.002	19.995	103.138	20.154	0.770	0.560
1317.001	741.987	80.001	19.995	103.133	20.154	0.779	0.532
1317.501	742.268	80.002	19.995	103.130	20.157	0.570	0.533
1318.000	742.566	80.002	19.996	103.126	20.158	0.474	0.563
1318.500	742.858	80.002	19.996	103.125	20.155	0.692	0.584
1319.000	743.098	80.002	19.996	103.126	20.155	0.708	0.561
