Sample ID:	C:\MCC\MCC Cal\Test\PlasticB_MCC_30K_min_211021_R3.txt
Sample Weight (mg):	4.83
Heating Rate (C/s):	0.5
Combustor Temp (C):	900
N2 Flow Rate (cc/min):	80
O2 Flow Rate (cc/min):	20
Calibration File:	C:\MCC\MCC Cal\Coeff1 JN10440_30_210304.txt.txt
T Correction Coefficients:	0	1.024463	0
Time Shift (s):	14
*
Time (s)	Temperature (C)	N2 flow rate (cc/min)	O2 flow rate (cc/min)	Flow Rate (cc/min)	Oxygen (%)	HRR (W/g)	Heating rate (C/s)
-0.001	107.450	79.999	19.995	103.020	20.390	-0.341	-0.009
0.499	107.480	79.997	19.994	103.025	20.384	0.057	0.009
1.000	107.445	79.996	19.995	103.028	20.386	-0.042	0.013
1.500	107.422	80.003	19.995	103.028	20.384	0.039	-0.031
2.000	107.445	80.003	19.995	103.026	20.385	-0.020	-0.029
2.500	107.443	80.000	19.996	103.023	20.386	-0.053	0.010
2.999	107.442	79.999	19.995	103.018	20.386	-0.061	0.009
3.499	107.394	79.999	19.995	103.014	20.386	-0.074	-0.026
4.000	107.431	79.999	19.995	103.012	20.383	0.135	-0.030
4.499	107.421	79.999	19.996	103.015	20.388	-0.164	0.008
4.998	107.402	79.999	19.996	103.015	20.387	-0.138	-0.001
5.499	107.419	79.999	19.995	103.020	20.387	-0.100	-0.015
6.000	107.443	79.997	19.995	103.024	20.387	-0.157	0.020
6.499	107.412	79.998	19.996	103.023	20.388	-0.203	0.017
6.998	107.430	80.000	19.995	103.019	20.386	-0.044	-0.010
7.499	107.392	80.000	19.995	103.018	20.389	-0.230	-0.016
8.000	107.438	80.001	19.996	103.012	20.389	-0.249	-0.006
8.499	107.389	79.999	19.996	103.005	20.385	0.009	0.002
8.998	107.400	80.001	19.995	103.010	20.383	0.170	-0.021
9.498	107.405	80.000	19.994	103.018	20.382	0.194	-0.010
9.999	107.391	79.999	19.995	103.025	20.380	0.337	0.004
10.499	107.387	80.002	19.995	103.032	20.385	0.028	-0.014
10.999	107.415	79.999	19.995	103.040	20.381	0.291	0.003
11.500	107.415	79.998	19.994	103.051	20.380	0.369	0.026
12.000	107.417	79.995	19.995	103.057	20.381	0.273	0.015
12.499	107.404	79.998	19.995	103.065	20.378	0.489	-0.004
12.998	107.441	79.998	19.996	103.071	20.381	0.266	0.006
13.498	107.435	80.000	19.995	103.076	20.378	0.500	0.027
13.998	107.386	80.001	19.995	103.075	20.377	0.526	-0.011
14.498	107.456	80.000	19.996	103.069	20.379	0.413	-0.017
14.998	107.436	80.000	19.995	103.062	20.376	0.577	0.035
15.498	107.403	80.000	19.996	103.056	20.377	0.533	-0.001
15.999	107.448	80.004	19.995	103.057	20.379	0.376	-0.021
16.499	107.467	79.999	19.996	103.059	20.378	0.472	0.038
16.999	107.431	80.001	19.995	103.064	20.376	0.592	0.023
17.499	107.463	80.005	19.994	103.074	20.377	0.518	-0.010
17.998	107.496	80.001	19.996	103.086	20.375	0.690	0.031
18.499	107.513	79.999	19.995	103.094	20.373	0.830	0.058
18.999	107.487	80.001	19.996	103.102	20.372	0.875	0.020
19.498	107.513	79.999	19.995	103.110	20.374	0.738	-0.005
19.999	107.536	80.001	19.994	103.114	20.370	0.978	0.025
20.499	107.551	80.001	19.995	103.116	20.372	0.901	0.043
20.998	107.583	80.001	19.994	103.115	20.370	1.015	0.042
21.499	107.604	80.002	19.994	103.120	20.369	1.096	0.050
21.999	107.608	80.005	19.995	103.123	20.371	0.948	0.039
22.499	107.648	79.998	19.994	103.124	20.369	1.081	0.035
22.999	107.665	80.000	19.995	103.124	20.369	1.094	0.051
23.498	107.690	80.000	19.994	103.124	20.368	1.111	0.049
23.998	107.714	80.002	19.995	103.124	20.369	1.080	0.045
24.498	107.756	80.000	19.995	103.128	20.364	1.428	0.057
24.999	107.730	79.999	19.995	103.136	20.364	1.404	0.041
25.499	107.777	80.001	19.995	103.144	20.362	1.506	0.019
25.999	107.815	80.001	19.994	103.153	20.364	1.421	0.053
26.499	107.864	80.002	19.995	103.158	20.366	1.257	0.086
26.998	107.856	80.004	19.996	103.161	20.359	1.739	0.064
27.498	107.929	80.002	19.996	103.168	20.358	1.812	0.053
27.999	107.953	79.996	19.996	103.176	20.359	1.731	0.081
28.500	108.010	80.000	19.996	103.183	20.360	1.663	0.089
29.000	108.035	80.001	19.997	103.189	20.355	1.993	0.082
29.499	108.120	80.001	19.996	103.193	20.355	1.999	0.096
29.998	108.184	79.999	19.995	103.194	20.355	2.008	0.130
30.499	108.245	79.999	19.995	103.193	20.356	1.947	0.137
31.000	108.286	79.999	19.996	103.194	20.355	2.028	0.113
31.500	108.369	80.001	19.995	103.193	20.356	1.927	0.113
31.999	108.386	79.997	19.996	103.194	20.350	2.316	0.112
32.499	108.432	79.998	19.996	103.194	20.353	2.128	0.081
33.000	108.490	80.000	19.995	103.195	20.351	2.281	0.084
33.500	108.583	80.001	19.996	103.195	20.351	2.272	0.128
34.000	108.623	79.998	19.996	103.195	20.350	2.322	0.142
34.499	108.704	80.001	19.996	103.196	20.350	2.309	0.127
34.999	108.792	80.001	19.997	103.200	20.350	2.366	0.145
35.499	108.847	80.000	19.996	103.204	20.348	2.503	0.156
35.998	108.922	80.001	19.996	103.205	20.345	2.667	0.136
36.498	108.989	80.001	19.997	103.210	20.348	2.444	0.136
36.998	109.070	80.001	19.997	103.212	20.347	2.553	0.145
37.498	109.156	80.001	19.997	103.210	20.347	2.553	0.157
37.998	109.260	80.000	19.996	103.214	20.348	2.485	0.179
38.498	109.307	80.001	19.996	103.214	20.344	2.719	0.170
38.998	109.359	80.001	19.995	103.210	20.346	2.575	0.124
39.499	109.428	79.999	19.996	103.206	20.345	2.693	0.110
39.999	109.532	80.001	19.997	103.204	20.347	2.512	0.147
40.499	109.604	80.001	19.996	103.201	20.345	2.674	0.175
41.000	109.717	80.002	19.996	103.200	20.345	2.654	0.180
41.500	109.800	80.000	19.996	103.204	20.347	2.565	0.190
41.999	109.907	80.002	19.996	103.209	20.348	2.471	0.193
42.498	109.979	80.002	19.996	103.213	20.346	2.608	0.184
42.998	110.083	80.002	19.996	103.211	20.345	2.677	0.178
43.499	110.159	80.003	19.994	103.210	20.345	2.660	0.178
44.000	110.260	80.002	19.996	103.206	20.346	2.577	0.179
44.499	110.373	80.001	19.996	103.204	20.349	2.372	0.195
44.999	110.480	80.003	19.996	103.206	20.344	2.732	0.217
45.499	110.537	80.002	19.994	103.212	20.343	2.813	0.192
45.999	110.634	80.004	19.997	103.219	20.346	2.628	0.159
46.499	110.756	80.000	19.996	103.227	20.341	2.931	0.187
46.999	110.849	80.001	19.994	103.233	20.340	2.981	0.217
47.500	110.928	80.001	19.995	103.233	20.343	2.820	0.193
47.999	111.078	80.000	19.997	103.232	20.342	2.854	0.201
48.499	111.194	80.002	19.995	103.231	20.343	2.808	0.248
48.999	111.280	80.004	19.994	103.229	20.342	2.892	0.234
49.500	111.359	79.998	19.996	103.228	20.339	3.047	0.183
50.000	111.473	79.999	19.997	103.225	20.341	2.944	0.179
50.499	111.562	79.999	19.996	103.218	20.342	2.846	0.198
50.999	111.680	80.003	19.995	103.211	20.344	2.771	0.206
51.500	111.776	80.000	19.995	103.207	20.343	2.772	0.211
52.000	111.921	80.001	19.997	103.207	20.340	3.023	0.227
52.500	112.052	80.001	19.996	103.209	20.340	3.037	0.259
52.999	112.158	80.002	19.996	103.217	20.342	2.865	0.257
53.499	112.267	79.999	19.995	103.225	20.341	2.926	0.226
53.999	112.410	80.003	19.996	103.230	20.341	2.941	0.233
54.498	112.492	80.001	19.995	103.226	20.340	3.018	0.238
54.998	112.617	80.000	19.997	103.226	20.340	2.998	0.216
55.498	112.731	80.000	19.997	103.220	20.341	2.966	0.223
55.998	112.892	80.001	19.996	103.212	20.341	2.967	0.257
56.499	113.027	79.999	19.995	103.206	20.340	2.974	0.285
57.000	113.129	80.000	19.997	103.210	20.339	3.085	0.266
57.499	113.249	80.001	19.995	103.212	20.337	3.179	0.230
57.998	113.342	80.000	19.996	103.218	20.343	2.819	0.218
58.499	113.518	80.001	19.997	103.225	20.337	3.190	0.241
59.000	113.623	80.000	19.997	103.229	20.340	3.022	0.275
59.500	113.733	80.002	19.997	103.224	20.339	3.059	0.248
60.000	113.845	80.000	19.996	103.223	20.342	2.887	0.219
60.499	113.983	80.000	19.996	103.219	20.338	3.127	0.236
60.998	114.141	80.002	19.997	103.212	20.339	3.081	0.273
61.499	114.224	80.000	19.997	103.215	20.340	2.993	0.269
61.999	114.351	80.000	19.996	103.220	20.340	3.031	0.225
62.498	114.517	80.000	19.996	103.221	20.336	3.255	0.251
62.998	114.648	80.001	19.995	103.224	20.339	3.083	0.295
63.499	114.791	80.000	19.995	103.231	20.336	3.260	0.286
63.999	114.904	80.001	19.997	103.232	20.339	3.057	0.266
64.499	115.039	80.000	19.997	103.231	20.340	3.022	0.252
64.998	115.160	80.002	19.996	103.232	20.337	3.186	0.252
65.498	115.331	80.003	19.995	103.232	20.335	3.317	0.274
65.998	115.454	80.001	19.997	103.233	20.339	3.074	0.293
66.499	115.619	80.002	19.995	103.232	20.340	2.996	0.291
67.000	115.743	80.002	19.995	103.233	20.336	3.275	0.288
67.500	115.880	80.002	19.995	103.234	20.337	3.218	0.275
67.999	116.037	80.002	19.996	103.235	20.338	3.122	0.277
68.499	116.157	80.002	19.995	103.234	20.340	2.974	0.286
68.999	116.337	80.001	19.996	103.235	20.334	3.375	0.288
69.499	116.463	80.004	19.995	103.235	20.336	3.255	0.303
70.000	116.604	80.002	19.995	103.235	20.335	3.306	0.287
70.500	116.748	80.003	19.996	103.236	20.335	3.367	0.276
71.000	116.914	80.001	19.994	103.237	20.337	3.177	0.298
71.499	117.097	80.002	19.995	103.238	20.338	3.157	0.330
71.999	117.213	80.001	19.994	103.238	20.333	3.491	0.324
72.499	117.345	80.003	19.996	103.240	20.335	3.338	0.274
72.999	117.535	80.001	19.995	103.241	20.333	3.463	0.285
73.500	117.695	80.002	19.993	103.241	20.337	3.212	0.336
74.000	117.880	80.000	19.996	103.243	20.336	3.266	0.348
74.500	117.997	80.002	19.995	103.245	20.336	3.269	0.324
75.000	118.164	80.001	19.995	103.243	20.335	3.328	0.293
75.499	118.328	80.002	19.994	103.241	20.336	3.251	0.307
75.998	118.473	80.000	19.995	103.241	20.335	3.358	0.320
76.499	118.674	79.999	19.996	103.240	20.335	3.323	0.327
76.999	118.771	79.999	19.996	103.238	20.332	3.506	0.322
77.499	118.946	80.000	19.996	103.239	20.333	3.498	0.285
77.999	119.132	80.000	19.995	103.239	20.334	3.408	0.317
78.498	119.281	80.000	19.995	103.238	20.335	3.351	0.348
78.998	119.443	79.998	19.996	103.238	20.335	3.345	0.323
79.498	119.645	80.000	19.995	103.236	20.336	3.295	0.337
79.998	119.772	80.000	19.996	103.236	20.335	3.341	0.346
80.498	119.969	80.001	19.995	103.236	20.335	3.352	0.326
80.998	120.113	80.000	19.996	103.237	20.335	3.316	0.332
81.498	120.294	79.999	19.995	103.236	20.335	3.360	0.332
81.998	120.463	80.000	19.994	103.236	20.334	3.392	0.337
82.499	120.643	80.001	19.994	103.235	20.334	3.432	0.350
83.000	120.792	80.000	19.996	103.235	20.334	3.382	0.339
83.499	120.957	79.999	19.995	103.234	20.334	3.416	0.322
83.998	121.150	80.000	19.996	103.235	20.333	3.478	0.336
84.498	121.323	79.999	19.996	103.235	20.338	3.157	0.362
84.998	121.507	80.002	19.995	103.236	20.334	3.386	0.361
85.499	121.699	80.001	19.994	103.236	20.333	3.465	0.366
85.999	121.827	79.998	19.995	103.234	20.333	3.462	0.348
86.498	122.066	79.999	19.994	103.234	20.336	3.264	0.344
86.998	122.176	80.000	19.996	103.234	20.334	3.397	0.358
87.498	122.389	79.998	19.997	103.234	20.336	3.283	0.336
87.998	122.565	80.001	19.997	103.237	20.337	3.200	0.356
88.499	122.747	79.999	19.996	103.240	20.336	3.250	0.373
88.999	122.951	80.000	19.996	103.243	20.334	3.396	0.371
89.499	123.103	79.999	19.997	103.245	20.336	3.241	0.371
90.000	123.301	80.000	19.995	103.243	20.337	3.231	0.353
90.500	123.482	79.999	19.996	103.241	20.335	3.325	0.364
90.999	123.663	80.000	19.996	103.238	20.336	3.250	0.370
91.498	123.834	80.000	19.996	103.236	20.335	3.349	0.357
91.999	124.008	80.000	19.996	103.240	20.338	3.167	0.349
92.500	124.215	80.000	19.996	103.247	20.336	3.298	0.363
93.000	124.353	80.000	19.995	103.251	20.337	3.228	0.363
93.500	124.565	80.003	19.996	103.251	20.334	3.375	0.347
94.000	124.752	80.000	19.996	103.251	20.336	3.281	0.375
94.500	124.930	79.999	19.996	103.246	20.338	3.154	0.382
95.000	125.103	80.000	19.997	103.242	20.339	3.080	0.358
95.499	125.308	80.001	19.995	103.243	20.334	3.401	0.364
95.999	125.500	80.000	19.997	103.244	20.336	3.291	0.387
96.500	125.682	80.000	19.995	103.244	20.334	3.429	0.385
97.000	125.859	80.000	19.996	103.249	20.336	3.250	0.367
97.499	126.062	80.001	19.996	103.253	20.335	3.351	0.370
97.999	126.214	79.999	19.995	103.256	20.334	3.410	0.367
98.500	126.463	80.001	19.995	103.261	20.337	3.235	0.378
99.000	126.624	80.000	19.996	103.266	20.335	3.331	0.405
99.499	126.809	80.000	19.995	103.263	20.334	3.379	0.378
99.999	127.006	80.000	19.996	103.263	20.334	3.395	0.364
100.500	127.194	80.002	19.995	103.258	20.334	3.407	0.384
100.999	127.386	79.999	19.995	103.255	20.335	3.327	0.383
101.498	127.587	79.999	19.996	103.256	20.332	3.532	0.386
101.999	127.811	80.002	19.997	103.258	20.334	3.414	0.409
102.500	127.975	80.002	19.996	103.257	20.334	3.381	0.407
102.999	128.189	80.000	19.995	103.261	20.332	3.509	0.383
103.499	128.352	79.999	19.995	103.261	20.334	3.398	0.377
103.999	128.581	80.000	19.995	103.259	20.332	3.540	0.385
104.498	128.793	80.002	19.995	103.258	20.332	3.543	0.416
104.999	128.979	80.001	19.994	103.259	20.333	3.484	0.419
105.500	129.156	80.000	19.995	103.258	20.332	3.569	0.381
106.000	129.368	80.000	19.995	103.259	20.331	3.582	0.376
106.500	129.584	80.001	19.996	103.263	20.333	3.473	0.408
106.999	129.806	80.000	19.995	103.265	20.332	3.523	0.433
107.499	129.961	79.999	19.995	103.264	20.333	3.479	0.408
108.000	130.195	80.000	19.995	103.265	20.331	3.610	0.383
108.499	130.400	80.000	19.995	103.261	20.329	3.741	0.414
108.999	130.555	80.002	19.995	103.258	20.334	3.403	0.400
109.500	130.784	79.999	19.995	103.256	20.333	3.440	0.372
110.000	130.980	80.001	19.996	103.254	20.334	3.438	0.405
110.500	131.255	79.999	19.994	103.255	20.330	3.641	0.448
111.000	131.410	80.000	19.995	103.254	20.330	3.698	0.450
111.500	131.632	79.999	19.995	103.254	20.331	3.628	0.403
111.999	131.820	80.001	19.995	103.257	20.326	3.942	0.393
112.498	132.067	80.000	19.995	103.262	20.331	3.626	0.422
112.998	132.241	80.000	19.995	103.264	20.331	3.586	0.428
113.498	132.459	80.000	19.994	103.271	20.331	3.597	0.406
113.998	132.666	80.000	19.996	103.275	20.329	3.765	0.409
114.499	132.921	79.999	19.996	103.274	20.327	3.871	0.444
115.000	133.119	79.999	19.995	103.269	20.331	3.627	0.457
115.499	133.289	79.999	19.997	103.262	20.330	3.673	0.410
115.999	133.509	79.999	19.997	103.259	20.332	3.512	0.379
116.500	133.761	80.000	19.997	103.259	20.330	3.665	0.431
116.999	133.973	80.001	19.995	103.260	20.331	3.580	0.468
117.499	134.131	80.000	19.996	103.264	20.331	3.575	0.418
117.999	134.358	79.999	19.996	103.270	20.330	3.652	0.378
118.499	134.575	79.999	19.994	103.273	20.332	3.566	0.414
118.998	134.767	80.000	19.995	103.273	20.330	3.649	0.426
119.499	135.005	80.001	19.994	103.271	20.333	3.492	0.419
120.000	135.232	80.001	19.995	103.270	20.331	3.573	0.447
120.500	135.441	80.000	19.994	103.264	20.331	3.625	0.450
120.999	135.639	80.001	19.996	103.256	20.331	3.603	0.421
121.499	135.865	80.000	19.995	103.251	20.330	3.655	0.416
121.999	136.092	80.002	19.996	103.252	20.329	3.721	0.438
122.499	136.278	80.003	19.996	103.250	20.330	3.671	0.433
122.999	136.536	80.000	19.996	103.253	20.333	3.455	0.428
123.498	136.745	80.002	19.996	103.260	20.332	3.525	0.456
123.999	136.959	80.000	19.996	103.264	20.326	3.915	0.446
124.499	137.170	80.001	19.996	103.265	20.332	3.509	0.424
124.999	137.364	80.001	19.997	103.268	20.330	3.693	0.415
125.499	137.619	80.002	19.997	103.272	20.329	3.721	0.427
126.000	137.859	79.999	19.997	103.270	20.330	3.671	0.472
126.500	138.030	80.002	19.996	103.264	20.331	3.592	0.453
127.000	138.287	79.997	20.000	103.264	20.328	3.775	0.420
127.499	138.502	80.003	19.993	103.263	20.330	3.668	0.450
127.998	138.691	80.001	19.994	103.261	20.331	3.629	0.437
128.499	138.933	80.002	19.995	103.261	20.329	3.754	0.418
128.999	139.147	80.002	19.996	103.262	20.330	3.671	0.444
129.499	139.430	80.001	19.996	103.262	20.330	3.669	0.477
130.000	139.629	80.001	19.997	103.263	20.329	3.748	0.489
130.500	139.855	80.001	19.994	103.263	20.329	3.706	0.453
130.999	140.058	80.001	19.996	103.265	20.326	3.911	0.427
131.499	140.293	80.000	19.996	103.270	20.328	3.784	0.433
131.999	140.525	80.003	19.996	103.270	20.331	3.614	0.452
132.499	140.753	79.999	19.996	103.269	20.329	3.726	0.463
132.999	141.035	80.003	19.993	103.269	20.329	3.706	0.485
133.499	141.230	80.000	19.996	103.270	20.328	3.777	0.494
134.000	141.453	80.000	19.998	103.271	20.328	3.794	0.448
134.499	141.654	80.001	19.994	103.272	20.327	3.857	0.421
134.999	141.892	79.996	19.995	103.273	20.330	3.693	0.431
135.499	142.147	80.003	19.991	103.270	20.331	3.623	0.466
136.000	142.335	79.998	19.990	103.267	20.329	3.713	0.468
136.499	142.560	80.001	19.999	103.267	20.326	3.913	0.428
136.998	142.817	80.000	19.994	103.267	20.328	3.830	0.447
137.499	142.997	80.000	19.996	103.268	20.328	3.808	0.459
138.000	143.298	79.999	19.992	103.272	20.330	3.686	0.459
138.500	143.555	80.000	19.995	103.277	20.327	3.876	0.520
139.000	143.777	80.000	19.995	103.273	20.328	3.778	0.519
139.500	144.005	80.003	19.991	103.267	20.328	3.832	0.465
140.000	144.224	79.998	19.996	103.263	20.329	3.761	0.448
140.500	144.483	79.998	19.996	103.262	20.324	4.051	0.462
140.999	144.709	79.999	19.994	103.261	20.328	3.781	0.482
141.498	144.936	80.001	19.993	103.263	20.328	3.788	0.469
141.998	145.167	80.003	19.994	103.268	20.328	3.786	0.455
142.498	145.404	80.004	19.996	103.272	20.325	4.017	0.463
142.998	145.608	80.000	19.996	103.266	20.325	4.036	0.455
143.498	145.873	80.001	19.997	103.257	20.328	3.799	0.456
143.999	146.081	79.999	19.994	103.249	20.330	3.663	0.471
144.499	146.329	79.996	20.001	103.245	20.328	3.822	0.464
144.999	146.550	80.000	19.996	103.240	20.329	3.750	0.462
145.500	146.814	80.001	19.995	103.245	20.329	3.715	0.477
145.999	147.025	80.000	19.999	103.252	20.329	3.750	0.480
146.498	147.232	79.999	19.995	103.257	20.327	3.859	0.447
146.998	147.485	80.003	19.998	103.262	20.326	3.929	0.439
147.498	147.701	80.001	19.997	103.263	20.330	3.698	0.464
147.998	147.950	79.999	19.998	103.263	20.329	3.724	0.467
148.499	148.177	80.003	19.997	103.262	20.326	3.965	0.471
148.999	148.461	80.003	19.996	103.263	20.325	4.004	0.494
149.498	148.691	80.001	19.996	103.264	20.327	3.893	0.512
149.999	148.923	80.002	19.996	103.264	20.326	3.927	0.488
150.500	149.104	80.000	19.997	103.262	20.327	3.879	0.437
151.000	149.383	80.003	19.998	103.258	20.329	3.748	0.436
151.499	149.596	80.003	19.995	103.252	20.329	3.735	0.476
151.999	149.873	80.002	19.995	103.246	20.329	3.715	0.491
152.499	150.078	80.003	19.996	103.244	20.328	3.835	0.486
152.999	150.344	80.002	19.997	103.241	20.329	3.761	0.476
153.499	150.548	80.002	19.999	103.240	20.327	3.888	0.470
153.999	150.818	79.999	19.998	103.242	20.324	4.076	0.472
154.499	151.022	79.999	20.001	103.242	20.326	3.908	0.474
154.999	151.262	79.996	20.000	103.240	20.329	3.733	0.459
155.499	151.499	80.007	19.996	103.242	20.328	3.829	0.460
155.999	151.772	80.000	19.999	103.250	20.327	3.875	0.494
156.499	151.997	79.999	19.999	103.251	20.325	4.002	0.504
156.999	152.247	80.000	19.995	103.252	20.325	4.010	0.486
157.500	152.457	80.002	19.997	103.252	20.327	3.886	0.468
158.000	152.720	80.004	19.996	103.248	20.328	3.807	0.466
158.500	152.955	79.998	19.995	103.243	20.327	3.870	0.485
159.000	153.228	79.999	20.003	103.242	20.324	4.101	0.503
159.499	153.407	79.998	19.998	103.238	20.329	3.741	0.480
159.999	153.655	79.999	19.998	103.237	20.329	3.744	0.439
160.499	153.885	79.997	19.999	103.239	20.327	3.899	0.452
160.998	154.123	80.002	19.992	103.238	20.326	3.912	0.473
161.498	154.364	80.001	19.994	103.238	20.327	3.853	0.474
161.998	154.622	80.001	19.996	103.244	20.329	3.755	0.489
162.498	154.832	80.000	19.994	103.253	20.328	3.807	0.483
162.998	155.055	80.001	19.996	103.257	20.326	3.933	0.451
163.498	155.264	80.001	19.999	103.256	20.327	3.870	0.433
163.998	155.570	80.000	19.994	103.252	20.330	3.644	0.473
164.498	155.790	79.998	19.996	103.248	20.326	3.912	0.520
164.999	156.031	79.999	19.997	103.240	20.328	3.797	0.494
165.499	156.275	80.001	19.995	103.233	20.329	3.740	0.473
165.998	156.488	80.006	19.991	103.234	20.331	3.622	0.471
166.499	156.724	80.000	19.995	103.235	20.329	3.764	0.453
167.000	156.951	79.997	20.002	103.236	20.326	3.912	0.456
167.499	157.216	80.002	19.993	103.239	20.327	3.871	0.477
167.998	157.476	80.001	19.990	103.240	20.327	3.853	0.508
168.499	157.684	80.004	19.993	103.243	20.325	3.975	0.496
168.999	157.961	79.999	19.996	103.245	20.327	3.844	0.476
169.499	158.172	80.002	19.996	103.250	20.327	3.877	0.487
169.999	158.409	79.996	20.000	103.252	20.328	3.777	0.469
170.498	158.646	80.001	19.996	103.251	20.327	3.904	0.462
170.998	158.892	79.996	20.002	103.248	20.327	3.904	0.478
171.498	159.115	80.002	19.995	103.242	20.326	3.930	0.475
171.998	159.381	79.999	19.997	103.240	20.327	3.853	0.478
172.498	159.610	80.002	19.991	103.243	20.327	3.858	0.492
172.999	159.829	79.999	19.997	103.248	20.328	3.822	0.472
173.500	160.106	80.002	19.999	103.250	20.325	4.001	0.472
174.000	160.326	79.999	19.999	103.251	20.325	4.032	0.497
174.500	160.574	80.006	19.991	103.245	20.325	4.026	0.483
174.999	160.822	79.999	19.996	103.240	20.328	3.803	0.482
175.500	161.094	80.001	19.993	103.236	20.326	3.931	0.508
176.000	161.343	80.002	19.996	103.235	20.326	3.942	0.520
176.499	161.608	79.998	19.996	103.236	20.325	3.986	0.517
176.998	161.852	79.999	19.996	103.239	20.325	3.988	0.511
177.498	162.088	79.999	19.994	103.237	20.324	4.039	0.495
177.998	162.334	79.999	19.994	103.236	20.323	4.135	0.481
178.499	162.561	79.999	19.995	103.238	20.324	4.098	0.478
179.000	162.813	80.001	19.992	103.238	20.321	4.255	0.476
179.499	163.030	79.997	19.997	103.237	20.321	4.255	0.474
179.998	163.322	80.000	19.996	103.237	20.321	4.299	0.489
180.499	163.541	79.999	19.995	103.237	20.324	4.078	0.510
181.000	163.763	80.000	19.996	103.235	20.322	4.196	0.476
181.499	164.009	80.002	19.996	103.234	20.323	4.108	0.455
181.999	164.304	80.003	19.991	103.234	20.320	4.305	0.504
182.500	164.486	80.000	19.989	103.237	20.324	4.095	0.509
183.000	164.773	80.001	19.995	103.238	20.321	4.254	0.473
183.499	165.045	79.996	19.999	103.239	20.322	4.230	0.514
183.998	165.256	80.006	19.995	103.241	20.323	4.108	0.521
184.498	165.528	80.006	19.993	103.244	20.325	4.019	0.483
184.998	165.775	79.997	19.997	103.243	20.320	4.348	0.501
185.498	166.007	79.998	19.997	103.241	20.323	4.161	0.499
185.998	166.274	80.001	19.995	103.241	20.320	4.366	0.490
186.499	166.510	80.000	19.995	103.243	20.322	4.181	0.501
186.999	166.746	79.995	19.993	103.241	20.322	4.194	0.487
187.498	167.016	79.994	19.995	103.239	20.325	3.984	0.489
187.998	167.203	79.995	19.998	103.240	20.325	3.988	0.482
188.498	167.483	79.997	19.994	103.238	20.325	4.037	0.462
188.998	167.707	79.996	19.996	103.234	20.322	4.194	0.486
189.498	167.954	80.001	19.996	103.233	20.323	4.145	0.488
189.999	168.216	79.996	19.997	103.234	20.322	4.211	0.490
190.500	168.484	80.001	19.989	103.233	20.323	4.133	0.519
190.999	168.705	79.998	19.995	103.236	20.325	4.036	0.509
191.498	168.964	79.998	19.999	103.237	20.322	4.222	0.485
191.998	169.210	80.003	19.992	103.239	20.320	4.305	0.493
192.498	169.456	79.998	19.997	103.242	20.322	4.216	0.498
192.998	169.699	80.000	19.994	103.243	20.321	4.303	0.490
193.498	169.923	80.002	19.995	103.245	20.320	4.324	0.478
193.998	170.200	80.003	19.992	103.248	20.323	4.143	0.484
194.499	170.472	80.005	19.992	103.250	20.325	3.982	0.525
195.000	170.683	80.000	19.993	103.248	20.326	3.943	0.516
195.500	170.909	79.998	19.994	103.248	20.325	4.032	0.460
195.999	171.174	80.000	19.999	103.246	20.321	4.259	0.464
196.498	171.372	79.997	19.994	103.240	20.323	4.122	0.477
196.998	171.639	79.998	19.996	103.237	20.322	4.187	0.465
197.499	171.871	79.998	19.994	103.237	20.322	4.196	0.482
198.000	172.128	79.999	19.996	103.237	20.322	4.181	0.494
198.500	172.398	79.999	19.998	103.239	20.316	4.615	0.508
198.999	172.667	80.004	19.994	103.240	20.322	4.222	0.533
199.499	172.907	79.999	19.997	103.240	20.321	4.279	0.524
199.999	173.171	80.005	19.991	103.240	20.319	4.390	0.507
200.500	173.403	79.994	19.997	103.241	20.323	4.126	0.500
201.000	173.660	79.998	19.993	103.238	20.322	4.185	0.493
201.500	173.902	79.998	19.997	103.238	20.322	4.209	0.494
202.000	174.169	79.997	19.997	103.238	20.322	4.185	0.504
202.499	174.444	79.999	19.996	103.237	20.322	4.209	0.526
202.999	174.679	80.003	19.993	103.236	20.322	4.222	0.526
203.499	174.956	80.000	19.994	103.237	20.319	4.373	0.511
203.999	175.133	79.998	19.996	103.238	20.318	4.447	0.483
204.499	175.412	79.998	19.996	103.238	20.319	4.401	0.455
205.000	175.648	80.002	19.992	103.238	20.320	4.309	0.486
205.500	175.840	79.999	19.999	103.238	20.319	4.371	0.472
205.999	176.160	80.000	19.991	103.235	20.319	4.403	0.470
206.499	176.369	80.002	19.994	103.235	20.318	4.458	0.520
206.999	176.627	79.998	19.995	103.235	20.323	4.141	0.498
207.500	176.857	79.995	19.997	103.235	20.316	4.583	0.478
208.000	177.093	80.005	19.996	103.231	20.320	4.364	0.477
208.500	177.383	80.005	19.993	103.231	20.322	4.234	0.495
209.000	177.644	80.004	19.995	103.231	20.318	4.460	0.539
209.500	177.881	80.001	19.994	103.230	20.319	4.378	0.525
210.001	178.122	80.003	19.995	103.230	20.321	4.284	0.488
210.500	178.352	79.999	19.999	103.234	20.318	4.482	0.474
210.999	178.592	79.998	20.000	103.233	20.320	4.347	0.470
211.499	178.854	80.001	19.998	103.231	20.320	4.312	0.486
212.000	179.120	80.001	19.996	103.231	20.319	4.386	0.515
212.500	179.311	80.004	19.994	103.230	20.319	4.391	0.492
213.000	179.557	80.001	19.997	103.229	20.319	4.425	0.447
213.501	179.869	79.997	19.998	103.230	20.319	4.373	0.498
214.001	180.086	80.000	19.993	103.231	20.317	4.545	0.544
214.500	180.333	80.001	19.995	103.231	20.321	4.295	0.497
214.999	180.621	80.010	19.991	103.232	20.318	4.449	0.499
215.499	180.841	80.001	19.996	103.232	20.319	4.421	0.521
216.000	181.047	80.000	19.997	103.233	20.314	4.733	0.467
216.501	181.334	79.999	19.997	103.234	20.316	4.593	0.460
217.001	181.582	80.006	19.992	103.233	20.319	4.401	0.515
217.501	181.807	79.996	19.988	103.232	20.316	4.589	0.504
218.000	182.029	79.999	19.999	103.232	20.317	4.554	0.460
218.499	182.333	80.003	19.994	103.229	20.315	4.653	0.486
219.000	182.572	79.999	19.996	103.227	20.318	4.502	0.534
219.500	182.822	80.001	19.995	103.226	20.321	4.253	0.516
220.000	183.068	80.000	19.994	103.228	20.320	4.349	0.492
220.501	183.317	80.004	19.995	103.227	20.318	4.467	0.495
221.001	183.561	80.001	19.995	103.231	20.317	4.541	0.494
221.500	183.801	79.998	19.999	103.233	20.319	4.386	0.488
221.999	184.086	79.998	19.998	103.233	20.320	4.332	0.505
222.499	184.319	79.998	19.994	103.232	20.319	4.389	0.522
223.000	184.552	80.001	19.994	103.232	20.316	4.594	0.492
223.501	184.805	79.999	19.998	103.228	20.321	4.300	0.476
224.001	185.091	79.999	19.999	103.225	20.319	4.420	0.512
224.500	185.336	80.000	19.996	103.225	20.319	4.429	0.534
224.999	185.591	79.998	20.001	103.225	20.319	4.420	0.515
225.499	185.823	80.000	19.997	103.224	20.322	4.208	0.494
225.999	186.084	80.002	19.995	103.227	20.318	4.470	0.491
226.500	186.339	80.001	19.993	103.228	20.320	4.337	0.504
227.001	186.553	80.000	19.998	103.230	20.318	4.458	0.492
227.500	186.786	80.004	20.000	103.229	20.319	4.413	0.458
228.000	187.020	80.000	19.997	103.225	20.318	4.478	0.457
228.499	187.282	80.002	19.990	103.225	20.320	4.305	0.482
228.999	187.565	80.002	19.999	103.226	20.319	4.428	0.520
229.500	187.820	80.001	19.993	103.224	20.316	4.585	0.541
229.999	188.089	80.002	19.994	103.226	20.318	4.498	0.531
230.500	188.299	80.005	19.995	103.232	20.317	4.570	0.502
231.000	188.571	80.002	20.000	103.231	20.315	4.659	0.481
231.500	188.806	80.005	19.993	103.228	20.317	4.511	0.494
232.000	189.047	80.006	19.993	103.230	20.316	4.571	0.492
232.500	189.320	79.998	19.998	103.229	20.317	4.566	0.496
233.001	189.552	79.999	19.997	103.222	20.319	4.378	0.510
233.501	189.793	80.002	19.998	103.218	20.314	4.745	0.489
234.001	190.094	80.004	19.992	103.213	20.316	4.578	0.507
234.501	190.353	80.000	19.998	103.210	20.318	4.449	0.551
235.000	190.575	80.003	19.996	103.206	20.314	4.717	0.521
235.500	190.820	80.001	19.997	103.207	20.319	4.422	0.473
236.000	191.047	80.002	19.993	103.206	20.317	4.553	0.469
236.499	191.277	79.997	19.997	103.210	20.319	4.400	0.465
236.999	191.508	80.002	19.994	103.210	20.317	4.533	0.459
237.500	191.816	80.000	19.999	103.215	20.316	4.590	0.500
238.001	192.039	80.001	19.995	103.219	20.320	4.346	0.535
238.500	192.300	80.001	19.996	103.224	20.315	4.660	0.507
239.000	192.562	80.002	19.995	103.224	20.317	4.553	0.504
239.500	192.805	80.001	19.998	103.225	20.317	4.534	0.514
240.000	193.079	80.000	19.996	103.224	20.315	4.684	0.511
240.499	193.276	80.002	19.996	103.224	20.315	4.641	0.494
241.000	193.560	80.001	19.996	103.221	20.315	4.699	0.476
241.500	193.798	80.001	19.997	103.216	20.316	4.623	0.501
241.999	194.024	80.004	19.993	103.216	20.312	4.883	0.493
242.499	194.307	80.003	19.990	103.213	20.315	4.664	0.487
242.999	194.519	79.997	20.000	103.207	20.314	4.717	0.503
243.500	194.806	79.998	19.995	103.204	20.314	4.704	0.497
244.001	195.030	79.998	19.996	103.205	20.312	4.863	0.505
244.500	195.267	80.000	19.996	103.200	20.313	4.784	0.486
245.000	195.511	79.999	19.996	103.197	20.314	4.706	0.471
245.501	195.774	79.999	20.001	103.197	20.316	4.603	0.494
246.000	196.022	79.997	19.994	103.201	20.314	4.728	0.509
246.499	196.264	79.996	19.998	103.202	20.314	4.728	0.501
246.999	196.506	79.995	19.997	103.202	20.314	4.765	0.487
247.500	196.725	79.998	19.997	103.206	20.311	4.951	0.472
247.999	197.004	80.003	19.995	103.209	20.314	4.743	0.479
248.499	197.254	80.000	19.994	103.209	20.315	4.644	0.513
249.000	197.499	80.000	19.996	103.207	20.314	4.738	0.512
249.500	197.740	79.999	19.997	103.209	20.315	4.679	0.491
249.999	197.966	80.002	19.997	103.206	20.314	4.723	0.477
250.499	198.230	80.001	19.995	103.204	20.311	4.914	0.478
250.999	198.483	79.998	19.995	103.205	20.313	4.805	0.503
251.499	198.713	79.997	19.997	103.206	20.308	5.136	0.500
252.000	198.989	79.994	19.998	103.205	20.308	5.130	0.494
252.500	199.213	80.001	19.994	103.208	20.309	5.060	0.503
253.000	199.445	79.995	19.997	103.208	20.310	5.025	0.478
253.499	199.707	79.996	20.001	103.208	20.308	5.166	0.475
253.999	199.951	80.001	19.995	103.208	20.310	5.003	0.500
254.499	200.214	79.999	19.994	103.208	20.308	5.152	0.507
254.999	200.437	79.999	19.992	103.207	20.308	5.138	0.497
255.499	200.656	80.001	19.995	103.211	20.311	4.955	0.464
255.999	200.980	79.999	19.995	103.211	20.312	4.892	0.492
256.499	201.176	80.002	19.996	103.213	20.311	4.968	0.531
256.999	201.423	80.001	19.996	103.211	20.310	5.010	0.482
257.499	201.675	80.001	19.995	103.208	20.311	4.927	0.471
257.999	201.904	79.999	19.998	103.203	20.307	5.208	0.490
258.499	202.164	80.001	19.989	103.202	20.309	5.046	0.485
258.999	202.390	79.999	19.997	103.205	20.309	5.055	0.487
259.500	202.666	79.998	20.000	103.212	20.312	4.887	0.494
260.001	202.927	79.998	19.997	103.211	20.312	4.865	0.520
260.500	203.140	79.997	19.996	103.210	20.314	4.731	0.505
260.999	203.381	79.999	19.996	103.208	20.309	5.069	0.464
261.499	203.679	79.998	19.994	103.201	20.311	4.966	0.497
262.000	203.889	80.003	20.000	103.196	20.313	4.814	0.524
262.501	204.148	80.005	19.991	103.197	20.312	4.846	0.489
263.000	204.368	80.000	19.996	103.203	20.311	4.968	0.474
263.499	204.649	80.001	19.996	103.207	20.313	4.770	0.490
264.000	204.882	80.001	19.992	103.208	20.312	4.870	0.507
264.501	205.140	80.001	19.994	103.208	20.313	4.791	0.503
265.000	205.354	80.003	19.996	103.208	20.309	5.060	0.482
265.499	205.634	79.997	19.991	103.202	20.313	4.829	0.483
265.999	205.829	79.996	20.001	103.201	20.312	4.878	0.485
266.500	206.110	79.998	19.997	103.198	20.310	4.981	0.475
267.000	206.348	80.001	19.992	103.197	20.307	5.200	0.497
267.500	206.604	79.998	19.995	103.197	20.310	5.036	0.507
268.000	206.854	80.000	19.993	103.197	20.308	5.119	0.500
268.499	207.092	79.999	19.994	103.196	20.311	4.918	0.497
268.999	207.338	79.999	19.994	103.204	20.311	4.942	0.486
269.499	207.624	79.997	19.998	103.205	20.310	5.012	0.508
269.999	207.855	80.001	19.992	103.203	20.311	4.947	0.524
270.499	208.120	79.999	19.996	103.204	20.309	5.075	0.506
270.999	208.359	79.995	20.000	103.203	20.311	4.953	0.500
271.499	208.605	80.000	19.994	103.195	20.310	4.997	0.495
271.999	208.887	79.998	19.990	103.194	20.311	4.947	0.507
272.499	209.085	79.999	19.994	103.196	20.313	4.829	0.504
272.999	209.368	80.001	19.995	103.195	20.312	4.886	0.480
273.499	209.590	80.000	19.995	103.195	20.312	4.848	0.493
273.999	209.887	80.002	19.995	103.193	20.310	5.030	0.512
274.500	210.088	79.999	19.995	103.192	20.310	4.995	0.508
275.001	210.370	80.001	19.990	103.192	20.312	4.879	0.491
275.500	210.594	79.999	19.995	103.199	20.310	4.973	0.495
275.999	210.848	80.000	19.998	103.199	20.308	5.106	0.492
276.499	211.118	79.999	19.990	103.200	20.308	5.151	0.501
277.000	211.352	79.998	19.989	103.202	20.311	4.909	0.514
277.500	211.649	80.001	19.997	103.202	20.313	4.826	0.517
278.000	211.856	80.000	19.994	103.195	20.311	4.905	0.517
278.500	212.103	80.001	19.999	103.195	20.311	4.931	0.479
279.000	212.337	79.999	19.994	103.195	20.311	4.925	0.468
279.500	212.555	80.000	19.997	103.194	20.308	5.132	0.466
280.000	212.842	80.000	19.995	103.192	20.309	5.082	0.478
280.501	213.048	80.000	19.995	103.192	20.310	5.036	0.499
281.000	213.306	80.001	19.995	103.191	20.307	5.174	0.479
281.499	213.569	80.000	19.996	103.193	20.311	4.947	0.492
281.999	213.821	79.998	20.002	103.192	20.311	4.909	0.518
282.499	214.036	80.000	19.997	103.192	20.307	5.184	0.491
282.999	214.332	80.001	19.998	103.195	20.310	5.005	0.489
283.499	214.568	79.998	19.997	103.195	20.309	5.075	0.521
284.000	214.784	80.000	19.994	103.195	20.307	5.235	0.492
284.501	215.031	79.999	19.994	103.196	20.307	5.176	0.458
285.000	215.301	80.001	19.997	103.198	20.306	5.259	0.490
285.500	215.505	80.002	19.994	103.195	20.308	5.108	0.496
286.000	215.768	80.000	19.993	103.196	20.308	5.161	0.470
286.500	216.001	79.999	19.995	103.199	20.307	5.193	0.482
287.001	216.247	80.002	19.995	103.201	20.309	5.071	0.488
287.500	216.517	80.000	19.995	103.200	20.308	5.126	0.497
288.000	216.766	80.002	19.995	103.200	20.307	5.178	0.518
288.500	217.004	80.001	19.994	103.198	20.307	5.198	0.503
288.999	217.268	80.001	19.996	103.196	20.307	5.202	0.495
289.499	217.556	80.001	19.995	103.193	20.307	5.206	0.527
289.999	217.759	80.001	19.995	103.193	20.310	4.988	0.521
290.499	217.956	80.001	19.996	103.193	20.307	5.207	0.445
291.000	218.253	80.002	19.994	103.193	20.307	5.198	0.447
291.500	218.483	80.002	19.994	103.192	20.309	5.084	0.511
291.999	218.743	79.999	19.997	103.192	20.310	5.006	0.508
292.499	219.014	80.001	19.995	103.193	20.309	5.076	0.510
293.000	219.245	80.003	19.995	103.196	20.308	5.111	0.517
293.500	219.465	80.001	19.996	103.197	20.307	5.172	0.477
293.999	219.718	80.002	19.996	103.198	20.310	5.004	0.462
294.499	219.969	80.001	19.994	103.197	20.308	5.124	0.489
294.999	220.181	80.003	19.995	103.197	20.304	5.403	0.483
295.499	220.475	80.003	19.996	103.193	20.306	5.246	0.484
296.000	220.687	80.001	19.997	103.193	20.305	5.325	0.506
296.499	220.951	80.003	19.995	103.193	20.304	5.377	0.491
296.999	221.170	80.003	19.994	103.193	20.302	5.510	0.480
297.499	221.453	80.002	19.995	103.192	20.304	5.394	0.492
297.999	221.662	80.001	19.995	103.191	20.305	5.327	0.496
298.499	221.915	80.002	19.995	103.191	20.306	5.294	0.477
298.999	222.137	80.002	19.995	103.190	20.308	5.145	0.469
299.499	222.414	80.003	19.993	103.191	20.306	5.255	0.487
299.999	222.680	80.000	19.995	103.193	20.303	5.471	0.521
300.500	222.908	80.001	19.994	103.194	20.304	5.392	0.518
301.001	223.160	80.002	19.995	103.194	20.303	5.499	0.487
301.500	223.420	80.001	19.995	103.193	20.304	5.394	0.496
302.000	223.653	80.001	19.996	103.193	20.302	5.545	0.503
302.501	223.908	80.003	19.992	103.192	20.304	5.408	0.490
303.000	224.130	80.000	19.996	103.193	20.302	5.521	0.482
303.500	224.364	80.000	19.999	103.193	20.302	5.515	0.467
304.000	224.648	80.001	19.995	103.193	20.303	5.479	0.487
304.499	224.879	80.001	19.996	103.193	20.302	5.521	0.517
304.999	225.120	80.001	19.996	103.194	20.304	5.401	0.493
305.499	225.374	80.000	19.995	103.190	20.306	5.250	0.483
305.999	225.619	80.001	19.996	103.189	20.305	5.323	0.497
306.499	225.890	80.000	19.996	103.190	20.304	5.408	0.508
307.000	226.137	80.000	19.995	103.189	20.304	5.434	0.517
307.501	226.388	80.002	19.995	103.190	20.300	5.653	0.508
308.001	226.647	80.002	19.996	103.193	20.300	5.681	0.504
308.501	226.843	80.000	19.995	103.193	20.303	5.471	0.482
309.001	227.090	80.002	19.996	103.194	20.299	5.720	0.449
309.500	227.351	80.001	19.996	103.194	20.299	5.704	0.476
310.000	227.611	80.001	19.996	103.192	20.300	5.663	0.514
310.501	227.815	80.002	19.996	103.192	20.301	5.631	0.492
311.001	228.091	80.002	19.995	103.193	20.301	5.619	0.472
311.500	228.325	80.001	19.996	103.194	20.299	5.744	0.495
312.000	228.617	80.000	19.996	103.194	20.303	5.486	0.518
312.501	228.823	80.002	19.995	103.193	20.301	5.634	0.512
313.000	229.101	80.001	19.995	103.193	20.302	5.506	0.491
313.500	229.372	80.001	19.996	103.191	20.298	5.781	0.517
314.001	229.561	80.001	19.996	103.189	20.297	5.861	0.505
314.501	229.867	80.001	19.996	103.188	20.299	5.756	0.478
315.000	230.062	80.002	19.996	103.191	20.299	5.711	0.498
315.499	230.317	80.002	19.996	103.191	20.300	5.700	0.475
316.000	230.560	80.003	19.996	103.192	20.299	5.739	0.474
316.500	230.807	80.002	19.995	103.188	20.300	5.680	0.494
316.999	231.056	80.003	19.993	103.185	20.299	5.728	0.493
317.500	231.317	80.003	19.995	103.184	20.301	5.608	0.503
318.000	231.535	80.001	19.996	103.184	20.299	5.705	0.494
318.499	231.793	80.002	19.995	103.184	20.300	5.691	0.477
318.999	232.037	80.002	19.995	103.190	20.297	5.848	0.489
319.499	232.288	80.002	19.994	103.193	20.295	5.971	0.499
319.999	232.515	80.003	19.996	103.193	20.296	5.967	0.487
320.499	232.765	80.002	19.995	103.190	20.296	5.960	0.477
320.999	233.030	80.001	19.995	103.187	20.295	6.014	0.496
321.499	233.247	80.002	19.996	103.186	20.294	6.054	0.498
321.999	233.515	79.999	19.994	103.187	20.296	5.944	0.483
322.500	233.739	80.000	19.997	103.187	20.297	5.879	0.489
323.000	234.009	80.002	19.995	103.189	20.296	5.935	0.493
323.499	234.233	80.002	19.996	103.191	20.299	5.743	0.494
323.999	234.481	80.000	19.996	103.191	20.297	5.876	0.483
324.499	234.760	80.001	19.993	103.191	20.299	5.744	0.499
324.999	235.003	80.002	19.995	103.191	20.300	5.684	0.525
325.500	235.244	80.000	19.995	103.195	20.299	5.748	0.503
326.000	235.492	80.002	19.994	103.198	20.297	5.857	0.487
326.499	235.735	79.999	19.995	103.199	20.296	5.923	0.490
326.999	235.977	79.999	19.996	103.197	20.297	5.895	0.487
327.499	236.212	80.000	19.995	103.196	20.297	5.860	0.481
327.999	236.455	79.999	19.995	103.193	20.297	5.865	0.478
328.499	236.704	80.000	19.995	103.188	20.296	5.949	0.485
328.999	236.982	79.999	19.996	103.188	20.298	5.827	0.509
329.500	237.214	79.999	19.995	103.190	20.298	5.774	0.519
330.000	237.470	80.000	19.995	103.192	20.295	6.019	0.499
330.499	237.715	80.001	19.996	103.191	20.297	5.857	0.494
330.999	237.959	80.001	19.994	103.190	20.297	5.866	0.495
331.499	238.232	79.999	19.997	103.191	20.296	5.938	0.503
331.999	238.466	80.001	19.995	103.191	20.294	6.080	0.512
332.499	238.704	79.999	19.995	103.191	20.294	6.085	0.489
332.999	238.948	80.000	19.996	103.194	20.295	5.974	0.477
333.500	239.192	79.999	19.996	103.197	20.291	6.276	0.485
334.000	239.401	79.999	19.996	103.197	20.294	6.094	0.471
334.500	239.649	79.999	19.995	103.197	20.296	5.913	0.455
335.000	239.904	79.999	19.996	103.197	20.295	5.974	0.480
335.500	240.138	80.000	19.997	103.195	20.292	6.222	0.496
336.000	240.440	80.000	19.996	103.195	20.291	6.239	0.513
336.501	240.685	80.000	19.995	103.190	20.292	6.222	0.542
337.001	240.932	79.998	19.996	103.186	20.293	6.165	0.520
337.500	241.139	79.999	19.996	103.182	20.294	6.071	0.473
337.999	241.400	80.000	19.995	103.179	20.291	6.281	0.461
338.500	241.648	80.000	19.995	103.176	20.292	6.225	0.489
339.000	241.907	79.999	19.997	103.180	20.294	6.074	0.508
339.501	242.162	80.000	19.995	103.184	20.290	6.339	0.510
340.001	242.408	80.000	19.995	103.186	20.291	6.238	0.508
340.500	242.643	79.999	19.996	103.187	20.292	6.177	0.491
340.999	242.940	80.001	19.997	103.189	20.292	6.212	0.507
341.499	243.135	79.999	19.997	103.188	20.292	6.203	0.512
342.000	243.353	80.000	19.998	103.186	20.289	6.400	0.453
342.500	243.658	80.001	19.996	103.186	20.291	6.281	0.468
343.001	243.895	79.999	19.998	103.184	20.288	6.487	0.532
343.500	244.177	80.000	19.996	103.177	20.286	6.574	0.530
343.999	244.368	80.000	19.997	103.172	20.285	6.646	0.496
344.499	244.651	80.001	19.996	103.170	20.287	6.539	0.474
345.000	244.930	80.000	19.998	103.171	20.285	6.653	0.518
345.500	245.140	80.000	19.996	103.175	20.285	6.679	0.526
345.999	245.358	79.999	19.996	103.181	20.288	6.483	0.459
346.499	245.629	80.001	19.997	103.186	20.285	6.644	0.458
346.999	245.848	80.000	19.996	103.190	20.283	6.784	0.489
347.499	246.099	80.000	19.996	103.191	20.282	6.895	0.480
348.000	246.344	80.000	19.996	103.191	20.284	6.718	0.483
348.500	246.589	80.001	19.997	103.187	20.284	6.761	0.493
348.999	246.848	79.999	19.996	103.185	20.284	6.731	0.497
349.499	247.101	80.000	19.996	103.180	20.283	6.811	0.508
350.000	247.307	80.001	19.996	103.179	20.282	6.842	0.485
350.500	247.619	80.000	19.995	103.173	20.282	6.896	0.488
351.000	247.885	80.001	19.996	103.171	20.283	6.832	0.548
351.500	248.118	79.999	19.996	103.171	20.280	7.029	0.539
351.999	248.361	79.999	19.996	103.175	20.280	7.029	0.487
352.499	248.586	79.999	19.996	103.175	20.283	6.828	0.472
352.999	248.855	80.000	19.996	103.180	20.286	6.597	0.481
353.499	249.136	79.999	19.996	103.182	20.283	6.808	0.522
354.000	249.376	80.001	19.995	103.181	20.285	6.679	0.535
354.500	249.616	80.000	19.994	103.181	20.285	6.654	0.500
354.999	249.863	80.000	19.996	103.179	20.284	6.750	0.484
355.500	250.139	80.000	19.995	103.177	20.286	6.584	0.505
356.001	250.390	79.999	19.996	103.181	20.282	6.838	0.524
356.500	250.638	80.001	19.995	103.181	20.284	6.738	0.513
356.999	250.880	80.001	19.995	103.176	20.288	6.496	0.495
357.499	251.133	80.000	19.995	103.173	20.284	6.706	0.493
357.999	251.393	79.999	19.996	103.175	20.286	6.608	0.504
358.500	251.634	79.999	19.995	103.175	20.283	6.793	0.507
359.000	251.882	79.998	19.997	103.178	20.282	6.865	0.495
359.499	252.126	80.000	19.996	103.184	20.284	6.758	0.490
359.999	252.388	80.001	19.997	103.190	20.284	6.735	0.499
360.499	252.675	79.999	19.996	103.191	20.285	6.661	0.528
360.999	252.881	79.999	19.997	103.192	20.282	6.872	0.521
361.499	253.129	79.998	19.995	103.190	20.281	6.911	0.474
361.999	253.355	80.000	19.996	103.183	20.282	6.842	0.464
362.500	253.628	80.000	19.995	103.175	20.283	6.792	0.487
363.000	253.909	80.002	19.996	103.171	20.279	7.046	0.527
363.500	254.120	80.000	19.996	103.170	20.283	6.819	0.523
364.000	254.367	79.999	19.996	103.169	20.281	6.911	0.475
364.500	254.645	80.000	19.995	103.174	20.284	6.756	0.492
365.000	254.889	80.000	19.995	103.182	20.283	6.805	0.524
365.500	255.159	79.999	19.996	103.187	20.282	6.839	0.518
366.000	255.371	80.000	19.995	103.186	20.281	6.935	0.498
366.499	255.684	80.000	19.994	103.187	20.282	6.861	0.503
366.999	255.969	80.001	19.995	103.185	20.282	6.889	0.561
367.500	256.179	80.000	19.995	103.180	20.282	6.849	0.547
368.000	256.455	80.000	19.996	103.177	20.282	6.871	0.491
368.500	256.659	80.000	19.996	103.173	20.283	6.773	0.483
369.000	256.942	80.000	19.996	103.172	20.283	6.799	0.483
369.501	257.163	80.002	19.995	103.172	20.282	6.878	0.495
370.001	257.452	80.001	19.996	103.177	20.283	6.789	0.507
370.501	257.703	80.001	19.994	103.180	20.284	6.715	0.525
371.000	257.973	80.000	19.995	103.186	20.283	6.774	0.530
371.499	258.205	80.005	19.993	103.190	20.283	6.805	0.512
371.999	258.463	79.999	19.999	103.191	20.283	6.779	0.496
372.500	258.744	80.001	19.997	103.192	20.278	7.136	0.515
373.000	258.986	80.000	19.995	103.191	20.281	6.902	0.531
373.500	259.244	80.003	19.995	103.186	20.278	7.143	0.511
374.000	259.510	80.002	19.995	103.179	20.279	7.047	0.512
374.500	259.748	80.002	19.996	103.173	20.277	7.180	0.514
375.001	260.009	80.002	19.996	103.170	20.279	7.086	0.502
375.500	260.242	80.000	19.997	103.166	20.277	7.176	0.497
375.999	260.522	80.003	19.995	103.163	20.279	7.081	0.504
376.500	260.758	80.001	19.994	103.164	20.279	7.085	0.514
377.000	260.994	80.002	19.994	103.165	20.276	7.262	0.494
377.500	261.253	80.002	19.995	103.168	20.278	7.155	0.484
378.000	261.540	80.001	19.995	103.174	20.277	7.170	0.520
378.499	261.776	80.002	19.995	103.181	20.279	7.050	0.534
379.000	262.008	80.001	19.995	103.181	20.278	7.138	0.495
379.501	262.215	80.002	19.995	103.179	20.278	7.140	0.454
380.001	262.528	80.002	19.996	103.174	20.277	7.175	0.480
380.501	262.765	80.002	19.996	103.168	20.277	7.228	0.535
381.000	263.008	80.000	19.995	103.163	20.278	7.163	0.515
381.500	263.237	80.000	19.995	103.161	20.278	7.146	0.476
382.001	263.520	80.001	19.996	103.162	20.278	7.146	0.492
382.500	263.750	80.000	19.994	103.162	20.275	7.316	0.513
382.999	264.020	80.001	19.996	103.161	20.276	7.253	0.506
383.500	264.293	80.001	19.995	103.164	20.276	7.255	0.521
383.999	264.538	80.001	19.996	103.167	20.277	7.180	0.530
384.499	264.800	80.001	19.996	103.167	20.276	7.255	0.513
384.999	265.056	80.000	19.994	103.167	20.275	7.333	0.513
385.500	265.300	80.001	19.994	103.167	20.280	7.017	0.509
386.000	265.517	80.002	19.996	103.166	20.277	7.215	0.480
386.500	265.771	80.001	19.996	103.167	20.277	7.202	0.466
387.000	266.038	80.002	19.996	103.174	20.276	7.257	0.496
387.500	266.298	80.001	19.995	103.178	20.277	7.218	0.524
388.000	266.541	80.001	19.995	103.179	20.276	7.268	0.515
388.500	266.777	80.003	19.992	103.179	20.277	7.223	0.491
389.001	267.033	80.001	19.995	103.176	20.276	7.282	0.485
389.500	267.286	80.001	19.996	103.176	20.275	7.324	0.500
389.999	267.538	79.999	19.995	103.176	20.274	7.411	0.507
390.499	267.774	80.001	19.995	103.174	20.275	7.360	0.496
390.999	268.016	80.001	19.996	103.173	20.273	7.465	0.483
391.499	268.300	80.001	19.995	103.169	20.272	7.524	0.503
392.000	268.514	80.001	19.996	103.163	20.274	7.421	0.512
392.500	268.803	80.001	19.997	103.158	20.274	7.388	0.500
393.000	269.057	80.002	19.996	103.158	20.275	7.362	0.523
393.500	269.266	80.001	19.995	103.159	20.273	7.450	0.503
394.000	269.533	80.001	19.995	103.160	20.276	7.279	0.470
394.500	269.786	80.002	19.996	103.160	20.273	7.456	0.498
394.999	270.070	80.000	19.995	103.161	20.274	7.375	0.528
395.499	270.338	80.001	19.995	103.161	20.275	7.303	0.544
396.000	270.578	80.002	19.996	103.160	20.271	7.581	0.530
396.501	270.801	80.002	19.995	103.159	20.274	7.395	0.486
397.000	271.092	80.002	19.995	103.159	20.277	7.182	0.488
397.500	271.315	80.003	19.995	103.158	20.274	7.415	0.514
398.000	271.615	80.003	19.995	103.158	20.272	7.514	0.519
398.500	271.832	80.002	19.995	103.158	20.270	7.657	0.520
399.000	272.108	80.004	19.995	103.157	20.274	7.415	0.505
399.500	272.321	80.003	19.996	103.152	20.273	7.452	0.491
400.001	272.581	80.002	19.995	103.148	20.274	7.410	0.481
400.501	272.837	80.002	19.996	103.148	20.277	7.176	0.494
401.001	273.055	80.001	19.996	103.148	20.273	7.472	0.495
401.501	273.315	80.003	19.995	103.149	20.272	7.519	0.476
402.000	273.568	80.002	19.995	103.154	20.275	7.345	0.495
402.499	273.827	80.003	19.995	103.157	20.272	7.524	0.513
402.999	274.105	80.001	19.995	103.158	20.272	7.541	0.525
403.499	274.314	80.003	19.996	103.157	20.271	7.583	0.512
403.999	274.557	80.003	19.995	103.156	20.272	7.526	0.469
404.500	274.807	80.001	19.996	103.154	20.270	7.666	0.472
405.000	275.045	80.002	19.995	103.154	20.271	7.570	0.490
405.499	275.309	80.000	19.996	103.153	20.272	7.531	0.495
406.000	275.558	80.001	19.996	103.153	20.273	7.454	0.507
406.500	275.783	80.000	19.996	103.153	20.269	7.731	0.493
407.000	276.028	80.002	19.996	103.152	20.268	7.788	0.472
407.500	276.284	80.001	19.996	103.152	20.267	7.893	0.485
407.999	276.543	80.002	19.995	103.149	20.272	7.554	0.508
408.499	276.767	80.000	19.996	103.149	20.268	7.799	0.499
408.999	277.027	79.999	19.996	103.149	20.270	7.641	0.484
409.500	277.259	79.999	19.996	103.150	20.267	7.836	0.488
410.001	277.511	79.998	19.996	103.150	20.267	7.881	0.488
410.500	277.742	80.000	19.995	103.155	20.271	7.633	0.484
411.000	278.021	80.000	19.996	103.155	20.268	7.816	0.496
411.500	278.257	80.000	19.995	103.155	20.270	7.643	0.512
412.000	278.502	79.999	19.996	103.155	20.271	7.616	0.498
412.501	278.742	80.000	19.996	103.154	20.267	7.843	0.483
413.000	278.992	79.999	19.996	103.152	20.268	7.816	0.487
413.500	279.237	79.999	19.996	103.152	20.268	7.805	0.493
414.001	279.515	80.001	19.996	103.152	20.270	7.699	0.509
414.500	279.730	79.999	19.996	103.152	20.268	7.830	0.508
415.000	279.973	79.998	19.997	103.151	20.270	7.681	0.475
415.501	280.224	79.999	19.996	103.152	20.269	7.720	0.476
416.001	280.482	80.000	19.995	103.152	20.272	7.511	0.501
416.501	280.713	80.000	19.996	103.153	20.271	7.622	0.499
417.001	280.950	79.999	19.996	103.154	20.269	7.707	0.478
417.501	281.192	79.999	19.997	103.155	20.270	7.672	0.473
418.000	281.414	80.000	19.997	103.156	20.268	7.797	0.472
418.499	281.681	80.001	19.997	103.158	20.266	7.957	0.477
418.999	281.909	80.000	19.996	103.158	20.271	7.607	0.492
419.499	282.166	80.000	19.996	103.157	20.265	8.022	0.490
419.999	282.398	80.001	19.995	103.157	20.266	7.913	0.487
420.500	282.635	79.998	19.996	103.162	20.269	7.755	0.479
421.000	282.905	80.000	19.996	103.161	20.267	7.878	0.488
421.500	283.145	79.998	19.995	103.161	20.269	7.723	0.508
422.000	283.424	80.001	19.995	103.161	20.267	7.867	0.514
422.499	283.652	79.998	19.997	103.161	20.267	7.843	0.513
423.000	283.870	80.000	19.996	103.156	20.270	7.686	0.476
423.500	284.131	79.999	19.996	103.155	20.268	7.812	0.463
423.999	284.356	80.000	19.996	103.155	20.265	7.994	0.483
424.499	284.627	79.999	19.995	103.155	20.267	7.865	0.491
424.999	284.884	79.999	19.996	103.154	20.265	8.002	0.512
425.499	285.138	79.999	19.996	103.155	20.267	7.865	0.520
426.000	285.378	79.999	19.995	103.157	20.270	7.640	0.502
426.501	285.588	79.999	19.995	103.157	20.270	7.690	0.472
427.000	285.840	79.999	19.997	103.156	20.267	7.833	0.456
427.500	286.113	79.999	19.997	103.157	20.265	7.977	0.493
428.001	286.363	80.000	19.995	103.156	20.266	7.929	0.524
428.500	286.622	79.999	19.997	103.152	20.266	7.917	0.516
429.000	286.852	80.000	19.995	103.152	20.270	7.675	0.499
429.500	287.149	80.000	19.996	103.152	20.265	7.969	0.508
429.999	287.395	80.000	19.997	103.152	20.267	7.865	0.534
430.499	287.666	79.999	19.997	103.154	20.268	7.782	0.530
430.999	287.930	80.000	19.996	103.155	20.266	7.929	0.526
431.499	288.114	79.999	19.997	103.156	20.270	7.660	0.491
431.999	288.373	80.001	19.996	103.156	20.269	7.724	0.445
432.499	288.605	79.999	19.996	103.156	20.266	7.957	0.467
432.999	288.892	80.000	19.995	103.155	20.266	7.918	0.505
433.499	289.115	79.999	19.997	103.155	20.266	7.942	0.515
434.000	289.392	79.999	19.998	103.154	20.266	7.933	0.505
434.501	289.634	79.998	19.996	103.153	20.266	7.904	0.509
435.000	289.895	79.999	19.996	103.152	20.263	8.112	0.511
435.500	290.101	79.997	19.997	103.151	20.264	8.097	0.485
436.000	290.392	79.999	19.997	103.151	20.267	7.896	0.483
436.500	290.650	79.999	19.996	103.152	20.265	8.007	0.523
436.999	290.901	80.000	19.996	103.151	20.266	7.918	0.529
437.499	291.124	79.998	19.998	103.149	20.266	7.932	0.491
437.999	291.402	79.998	19.996	103.147	20.266	7.900	0.488
438.499	291.680	79.999	19.996	103.148	20.266	7.941	0.529
438.999	291.921	80.000	19.997	103.148	20.268	7.828	0.537
439.500	292.183	80.000	19.997	103.149	20.265	8.024	0.511
440.000	292.446	79.998	19.996	103.151	20.268	7.828	0.514
440.500	292.714	79.999	19.998	103.153	20.266	7.928	0.528
441.000	292.903	80.000	19.997	103.151	20.265	7.989	0.494
441.501	293.164	79.998	19.997	103.147	20.264	8.033	0.454
442.001	293.413	79.999	19.996	103.147	20.264	8.082	0.480
442.500	293.653	79.997	19.997	103.148	20.265	7.965	0.499
442.999	293.922	80.000	19.996	103.144	20.266	7.906	0.499
443.499	294.154	79.999	19.997	103.147	20.265	7.991	0.505
443.999	294.426	79.999	19.996	103.150	20.266	7.944	0.503
444.499	294.695	79.999	19.997	103.148	20.263	8.127	0.523
445.000	294.906	80.000	19.996	103.146	20.262	8.186	0.511
445.500	295.200	79.999	19.996	103.151	20.266	7.919	0.493
446.000	295.423	79.999	19.995	103.149	20.265	7.978	0.511
446.500	295.695	79.998	19.996	103.148	20.265	8.011	0.506
446.999	295.924	79.999	19.997	103.149	20.262	8.206	0.498
447.499	296.150	79.999	19.997	103.150	20.264	8.049	0.478
448.000	296.410	79.999	19.995	103.150	20.261	8.246	0.470
448.501	296.681	80.001	19.996	103.152	20.263	8.117	0.508
449.000	296.901	80.000	19.996	103.153	20.263	8.162	0.511
449.499	297.133	79.999	19.996	103.155	20.263	8.125	0.471
449.999	297.399	80.000	19.995	103.154	20.261	8.265	0.475
450.499	297.681	80.001	19.996	103.154	20.264	8.084	0.523
451.000	297.870	80.000	19.994	103.154	20.265	7.999	0.509
451.500	298.156	80.000	19.995	103.153	20.263	8.147	0.473
452.000	298.434	80.001	19.995	103.150	20.262	8.191	0.520
452.500	298.679	80.001	19.996	103.146	20.262	8.179	0.544
452.999	298.897	80.002	19.996	103.139	20.265	7.972	0.493
453.499	299.157	80.001	19.997	103.136	20.264	8.069	0.470
454.000	299.413	80.000	19.995	103.134	20.262	8.191	0.497
454.501	299.634	80.002	19.995	103.136	20.263	8.139	0.497
455.000	299.870	80.001	19.996	103.141	20.264	8.074	0.467
455.499	300.132	80.000	19.996	103.146	20.268	7.781	0.478
456.000	300.390	80.002	19.996	103.149	20.265	8.003	0.509
456.500	300.628	80.000	19.996	103.153	20.266	7.944	0.508
456.999	300.857	80.002	19.996	103.154	20.268	7.826	0.481
457.500	301.121	80.003	19.995	103.151	20.264	8.075	0.479
458.000	301.384	80.002	19.995	103.146	20.269	7.760	0.510
458.499	301.601	80.001	19.994	103.144	20.270	7.664	0.504
459.000	301.867	80.000	19.994	103.143	20.268	7.826	0.482
459.501	302.109	80.000	19.996	103.143	20.266	7.939	0.495
460.001	302.331	79.999	19.996	103.147	20.266	7.928	0.486
460.501	302.619	80.001	19.994	103.150	20.265	8.012	0.487
461.001	302.817	80.000	19.995	103.147	20.268	7.808	0.498
461.500	303.072	80.001	19.996	103.146	20.268	7.785	0.469
461.999	303.328	80.001	19.994	103.147	20.268	7.787	0.482
462.500	303.566	79.999	19.996	103.147	20.265	7.977	0.503
463.000	303.809	80.000	19.995	103.150	20.267	7.896	0.488
463.500	304.071	80.000	19.996	103.154	20.265	7.981	0.493
463.999	304.308	80.001	19.994	103.152	20.264	8.052	0.502
464.499	304.551	80.000	19.996	103.147	20.264	8.058	0.489
464.999	304.800	80.000	19.997	103.145	20.268	7.793	0.486
465.500	305.029	80.000	19.996	103.140	20.264	8.064	0.485
466.001	305.299	80.000	19.996	103.138	20.265	7.989	0.488
466.501	305.487	80.000	19.995	103.142	20.268	7.826	0.478
467.000	305.781	80.000	19.995	103.147	20.267	7.896	0.470
467.499	306.040	80.000	19.995	103.146	20.263	8.099	0.518
467.999	306.262	80.000	19.996	103.148	20.264	8.046	0.517
468.500	306.503	80.001	19.995	103.150	20.266	7.920	0.472
469.001	306.782	80.002	19.996	103.150	20.268	7.785	0.492
469.501	307.052	80.001	19.995	103.148	20.263	8.130	0.535
470.001	307.259	80.000	19.997	103.150	20.264	8.091	0.513
470.500	307.508	80.000	19.996	103.152	20.264	8.058	0.467
471.000	307.735	80.001	19.996	103.151	20.265	8.026	0.466
471.500	308.028	80.002	19.995	103.144	20.264	8.071	0.498
472.001	308.261	80.001	19.997	103.146	20.262	8.208	0.522
472.500	308.481	80.001	19.998	103.146	20.262	8.225	0.489
472.999	308.732	80.000	19.996	103.146	20.264	8.094	0.462
473.499	308.974	80.001	19.996	103.143	20.264	8.052	0.483
473.999	309.247	80.002	19.995	103.143	20.262	8.175	0.504
474.499	309.494	79.999	19.996	103.141	20.264	8.055	0.517
474.999	309.749	80.001	19.994	103.141	20.263	8.140	0.511
475.500	309.993	80.002	19.996	103.141	20.261	8.256	0.501
476.001	310.223	80.002	19.995	103.143	20.264	8.053	0.486
476.500	310.503	80.002	19.996	103.148	20.265	7.997	0.491
476.999	310.744	80.002	19.995	103.151	20.265	8.018	0.516
477.499	310.954	80.002	19.996	103.151	20.262	8.171	0.486
478.000	311.230	80.002	19.995	103.152	20.262	8.223	0.468
478.500	311.464	80.002	19.996	103.151	20.262	8.225	0.498
479.000	311.693	80.001	19.995	103.150	20.264	8.050	0.487
479.500	311.966	80.003	19.994	103.150	20.262	8.214	0.483
480.000	312.235	80.003	19.995	103.147	20.264	8.094	0.522
480.501	312.515	80.003	19.995	103.141	20.265	8.022	0.545
481.001	312.754	80.004	19.995	103.138	20.263	8.142	0.534
481.501	313.010	80.003	19.997	103.139	20.265	8.029	0.507
482.000	313.312	80.002	19.996	103.139	20.263	8.116	0.527
482.499	313.501	80.002	19.997	103.142	20.263	8.123	0.525
483.000	313.813	80.003	19.995	103.148	20.262	8.212	0.496
483.501	314.024	80.002	19.996	103.152	20.264	8.066	0.513
484.001	314.260	80.002	19.996	103.152	20.264	8.089	0.485
484.500	314.528	80.002	19.996	103.153	20.263	8.102	0.475
484.999	314.779	80.002	19.995	103.152	20.262	8.207	0.511
485.500	315.014	80.001	19.995	103.153	20.262	8.206	0.502
486.001	315.290	80.003	19.993	103.152	20.263	8.147	0.498
486.501	315.528	80.003	19.996	103.148	20.262	8.202	0.512
487.000	315.787	80.002	19.995	103.143	20.265	8.022	0.505
487.500	316.013	80.003	19.995	103.143	20.264	8.094	0.491
488.000	316.282	80.003	19.995	103.143	20.259	8.396	0.491
488.500	316.582	80.000	19.995	103.144	20.263	8.128	0.533
489.001	316.837	80.002	19.995	103.148	20.264	8.091	0.562
489.500	317.017	80.002	19.995	103.151	20.263	8.130	0.495
490.000	317.324	80.000	19.997	103.151	20.261	8.267	0.461
490.500	317.567	80.003	19.994	103.149	20.261	8.265	0.518
490.999	317.820	80.000	19.995	103.149	20.264	8.048	0.523
491.499	318.077	80.001	19.994	103.150	20.262	8.191	0.503
492.000	318.333	80.000	19.996	103.151	20.259	8.423	0.512
492.500	318.609	80.001	19.995	103.152	20.264	8.091	0.523
493.000	318.852	80.001	19.996	103.153	20.263	8.148	0.525
493.500	319.078	80.000	19.994	103.152	20.259	8.417	0.494
493.999	319.350	79.999	19.995	103.147	20.261	8.257	0.483
494.499	319.614	80.001	19.995	103.145	20.261	8.280	0.517
494.999	319.893	80.001	19.995	103.143	20.260	8.312	0.540
495.499	320.146	80.001	19.996	103.140	20.261	8.265	0.537
495.999	320.406	80.001	19.995	103.141	20.261	8.251	0.522
496.499	320.667	80.000	19.995	103.144	20.259	8.396	0.517
496.999	320.952	80.001	19.996	103.144	20.262	8.173	0.534
497.500	321.196	80.000	19.996	103.146	20.263	8.122	0.538
498.000	321.432	80.000	19.997	103.150	20.262	8.212	0.504
498.500	321.678	80.000	19.996	103.148	20.260	8.349	0.481
499.001	321.959	79.999	19.996	103.150	20.262	8.218	0.505
499.501	322.244	79.999	19.996	103.146	20.266	7.923	0.547
500.001	322.471	79.999	19.996	103.144	20.267	7.879	0.539
500.500	322.735	80.000	19.996	103.144	20.265	8.025	0.501
501.000	322.981	80.000	19.997	103.147	20.259	8.371	0.501
501.500	323.288	79.999	19.996	103.147	20.259	8.399	0.531
501.999	323.471	80.000	19.995	103.153	20.256	8.618	0.521
502.500	323.740	80.000	19.996	103.149	20.263	8.118	0.471
503.001	324.002	79.999	19.996	103.143	20.262	8.188	0.492
503.500	324.312	79.999	19.996	103.138	20.263	8.153	0.552
504.000	324.527	80.000	19.996	103.137	20.258	8.490	0.548
504.501	324.794	80.000	19.997	103.136	20.262	8.203	0.503
505.000	325.071	80.000	19.996	103.142	20.258	8.450	0.513
505.499	325.277	80.000	19.996	103.147	20.263	8.139	0.514
505.999	325.558	80.001	19.995	103.152	20.262	8.193	0.485
506.500	325.845	80.000	19.997	103.153	20.263	8.145	0.527
507.000	326.106	80.000	19.996	103.152	20.262	8.167	0.558
507.499	326.387	80.000	19.997	103.148	20.259	8.407	0.545
507.999	326.593	80.000	19.996	103.144	20.260	8.309	0.515
508.499	326.864	79.998	19.996	103.138	20.262	8.211	0.482
509.000	327.121	80.000	19.995	103.135	20.258	8.461	0.502
509.500	327.378	80.001	19.997	103.132	20.263	8.128	0.521
509.999	327.627	80.000	19.996	103.132	20.261	8.287	0.510
510.499	327.948	79.999	19.996	103.134	20.260	8.348	0.538
511.000	328.094	79.999	19.996	103.139	20.262	8.193	0.519
511.501	328.503	79.999	19.997	103.138	20.263	8.138	0.511
512.000	328.797	80.000	19.995	103.138	20.263	8.123	0.629
512.500	328.766	80.000	19.995	103.136	20.259	8.409	0.483
513.001	329.392	80.000	19.994	103.135	20.264	8.047	0.429
513.500	329.592	80.000	19.995	103.130	20.264	8.048	0.710
514.000	329.833	80.000	19.996	103.129	20.265	8.030	0.633
514.500	330.305	80.000	19.996	103.126	20.263	8.161	0.577
514.999	330.331	80.000	19.995	103.128	20.263	8.136	0.605
515.500	330.423	80.000	19.995	103.132	20.262	8.179	0.308
516.000	330.701	80.000	19.995	103.136	20.263	8.117	0.245
516.499	331.073	80.000	19.996	103.143	20.262	8.189	0.510
516.999	331.291	80.001	19.995	103.150	20.260	8.359	0.620
517.499	331.433	80.001	19.994	103.150	20.263	8.138	0.475
517.999	331.759	80.000	19.996	103.147	20.260	8.327	0.414
518.499	332.035	80.000	19.995	103.143	20.262	8.232	0.535
519.000	332.175	80.001	19.995	103.138	20.262	8.206	0.509
519.500	332.713	79.999	19.995	103.136	20.260	8.349	0.547
519.999	332.777	80.000	19.996	103.135	20.259	8.418	0.640
520.499	333.038	79.999	19.995	103.134	20.258	8.485	0.464
520.999	333.359	80.000	19.996	103.139	20.259	8.368	0.454
521.499	333.595	80.000	19.997	103.141	20.260	8.318	0.569
521.999	333.758	79.999	19.996	103.141	20.261	8.268	0.477
522.500	334.160	80.000	19.996	103.146	20.261	8.264	0.482
523.000	334.399	79.999	19.995	103.146	20.261	8.242	0.603
523.499	334.636	79.999	19.996	103.143	20.261	8.256	0.559
523.999	334.801	79.999	19.996	103.140	20.258	8.475	0.439
524.499	335.141	80.000	19.997	103.135	20.259	8.377	0.453
525.000	335.352	79.999	19.995	103.132	20.260	8.320	0.528
525.501	335.657	79.999	19.996	103.133	20.258	8.433	0.533
526.000	335.951	80.000	19.997	103.131	20.258	8.440	0.557
526.499	336.168	79.999	19.997	103.133	20.258	8.463	0.555
527.000	336.394	79.999	19.996	103.140	20.259	8.430	0.477
527.501	336.712	80.000	19.996	103.144	20.260	8.353	0.494
528.000	337.019	79.998	19.996	103.146	20.258	8.473	0.585
528.499	337.212	80.000	19.997	103.153	20.259	8.374	0.563
528.999	337.489	80.000	19.996	103.156	20.256	8.579	0.485
529.499	337.763	80.000	19.997	103.155	20.257	8.525	0.511
529.999	338.040	79.999	19.997	103.153	20.257	8.521	0.551
530.499	338.243	80.000	19.997	103.153	20.259	8.394	0.516
531.000	338.542	79.999	19.996	103.151	20.257	8.506	0.491
531.500	338.753	79.998	19.996	103.149	20.257	8.521	0.506
532.000	339.037	80.001	19.998	103.144	20.259	8.405	0.502
532.501	339.300	80.000	19.996	103.145	20.259	8.401	0.521
533.000	339.541	80.000	19.998	103.143	20.257	8.547	0.526
533.500	339.861	80.000	19.996	103.139	20.260	8.357	0.533
534.001	340.089	80.000	19.997	103.141	20.257	8.539	0.555
534.501	340.357	80.000	19.998	103.144	20.256	8.600	0.522
535.001	340.629	80.002	19.998	103.142	20.258	8.439	0.518
535.500	340.882	80.002	19.997	103.144	20.257	8.554	0.532
535.999	341.161	80.001	19.997	103.148	20.257	8.522	0.529
536.500	341.440	80.001	19.997	103.142	20.258	8.470	0.545
537.000	341.664	80.000	19.997	103.138	20.255	8.675	0.530
537.500	341.941	80.002	19.996	103.136	20.255	8.645	0.502
538.001	342.174	80.002	19.998	103.135	20.255	8.655	0.506
538.501	342.476	80.001	19.996	103.135	20.256	8.565	0.523
539.001	342.712	80.000	19.997	103.140	20.258	8.486	0.536
539.501	342.961	80.002	19.996	103.145	20.257	8.538	0.512
540.001	343.237	80.002	19.996	103.146	20.256	8.615	0.506
540.501	343.456	80.002	19.996	103.143	20.258	8.440	0.510
541.001	343.751	80.002	19.996	103.140	20.256	8.602	0.504
541.501	344.022	80.003	19.996	103.140	20.256	8.564	0.540
542.001	344.249	80.002	19.995	103.139	20.258	8.457	0.532
542.501	344.540	80.002	19.997	103.141	20.253	8.789	0.508
543.001	344.769	80.002	19.996	103.143	20.255	8.638	0.519
543.500	345.059	80.001	19.996	103.146	20.255	8.638	0.519
543.999	345.301	80.002	19.996	103.142	20.255	8.681	0.525
544.499	345.606	80.002	19.996	103.141	20.254	8.739	0.540
545.000	345.832	80.002	19.996	103.139	20.254	8.745	0.539
545.499	346.089	80.001	19.995	103.137	20.252	8.896	0.507
545.999	346.380	80.002	19.996	103.136	20.254	8.739	0.515
546.499	346.650	80.002	19.996	103.138	20.252	8.842	0.555
546.999	346.900	80.001	19.996	103.134	20.254	8.713	0.541
547.499	347.137	80.002	19.996	103.129	20.249	9.053	0.504
547.999	347.399	80.002	19.996	103.127	20.255	8.680	0.493
548.499	347.661	80.001	19.996	103.121	20.253	8.795	0.512
548.999	347.936	80.002	19.995	103.116	20.252	8.870	0.530
549.499	348.176	80.001	19.996	103.117	20.250	8.970	0.525
549.999	348.439	80.001	19.995	103.118	20.253	8.824	0.509
550.499	348.712	80.001	19.996	103.119	20.251	8.912	0.520
550.999	348.962	80.001	19.995	103.120	20.249	9.080	0.530
551.499	349.259	80.001	19.996	103.120	20.249	9.085	0.535
551.999	349.467	80.002	19.996	103.122	20.250	8.996	0.526
552.500	349.788	80.003	19.995	103.123	20.252	8.869	0.517
553.000	350.014	80.001	19.997	103.126	20.250	8.972	0.538
553.499	350.275	80.003	19.996	103.130	20.248	9.107	0.517
554.000	350.545	80.001	19.996	103.130	20.250	9.017	0.509
554.499	350.769	80.002	19.997	103.130	20.249	9.092	0.513
555.000	351.058	80.002	19.995	103.132	20.250	8.965	0.503
555.500	351.349	80.001	19.997	103.127	20.251	8.950	0.547
555.999	351.578	80.002	19.996	103.124	20.250	9.002	0.550
556.499	351.794	80.002	19.996	103.123	20.251	8.934	0.482
556.999	352.076	80.002	19.997	103.121	20.248	9.111	0.471
557.499	352.383	80.001	19.996	103.122	20.249	9.032	0.544
557.999	352.600	80.002	19.996	103.124	20.246	9.264	0.557
558.500	352.888	80.003	19.996	103.127	20.246	9.270	0.515
559.000	353.141	80.001	19.996	103.128	20.247	9.220	0.523
559.500	353.394	80.002	19.996	103.132	20.246	9.231	0.523
559.999	353.625	80.001	19.995	103.130	20.245	9.343	0.495
560.500	353.921	80.003	19.997	103.127	20.246	9.283	0.506
561.000	354.198	80.003	19.996	103.123	20.245	9.332	0.550
561.499	354.430	80.001	19.996	103.122	20.245	9.308	0.541
562.000	354.689	80.002	19.996	103.118	20.243	9.467	0.500
562.501	354.982	80.002	19.995	103.116	20.243	9.434	0.522
563.000	355.218	80.003	19.996	103.116	20.243	9.467	0.540
563.499	355.456	80.004	19.997	103.115	20.243	9.430	0.502
564.000	355.713	80.004	19.997	103.114	20.244	9.426	0.485
564.500	355.963	80.003	19.996	103.113	20.241	9.572	0.501
564.999	356.215	80.005	19.996	103.115	20.243	9.462	0.504
565.499	356.482	80.003	19.995	103.116	20.242	9.548	0.511
565.999	356.730	80.004	19.995	103.116	20.238	9.779	0.517
566.500	357.007	80.003	19.995	103.117	20.241	9.628	0.520
567.000	357.247	80.003	19.995	103.119	20.242	9.536	0.521
567.499	357.507	80.003	19.996	103.120	20.239	9.720	0.508
567.999	357.750	80.003	19.996	103.119	20.238	9.775	0.502
568.500	358.005	80.004	19.997	103.118	20.236	9.934	0.500
569.001	358.268	80.003	19.996	103.118	20.239	9.735	0.507
569.500	358.526	80.002	19.995	103.119	20.239	9.738	0.519
569.999	358.747	80.003	19.996	103.118	20.237	9.855	0.500
570.499	359.016	80.002	19.996	103.118	20.238	9.779	0.485
571.000	359.293	80.002	19.996	103.119	20.236	9.945	0.518
571.500	359.534	80.002	19.995	103.119	20.236	9.902	0.532
571.999	359.742	80.001	19.996	103.117	20.234	10.068	0.483
572.499	360.000	80.002	19.995	103.116	20.233	10.111	0.457
572.999	360.252	80.002	19.995	103.116	20.231	10.249	0.488
573.500	360.524	80.000	19.995	103.117	20.230	10.304	0.517
574.001	360.754	80.001	19.995	103.117	20.232	10.199	0.513
574.501	361.019	80.000	19.994	103.117	20.233	10.111	0.499
575.001	361.262	80.002	19.996	103.117	20.230	10.297	0.502
575.500	361.520	80.001	19.996	103.118	20.229	10.396	0.505
575.999	361.746	80.001	19.996	103.121	20.227	10.527	0.493
576.499	361.955	80.002	19.996	103.123	20.230	10.343	0.460
576.999	362.231	80.001	19.996	103.126	20.228	10.450	0.460
577.499	362.467	80.000	19.994	103.129	20.226	10.585	0.498
577.999	362.714	80.001	19.995	103.128	20.226	10.572	0.497
578.499	362.986	80.001	19.996	103.124	20.226	10.616	0.501
578.999	363.202	80.001	19.995	103.122	20.222	10.871	0.504
579.499	363.461	80.001	19.996	103.125	20.223	10.795	0.482
579.999	363.689	79.999	19.996	103.123	20.217	11.173	0.481
580.499	363.913	80.002	19.996	103.124	20.218	11.129	0.469
581.000	364.179	80.001	19.996	103.124	20.222	10.872	0.471
581.500	364.438	80.001	19.996	103.125	20.219	11.067	0.508
582.000	364.671	80.000	19.996	103.120	20.216	11.243	0.509
582.500	364.917	80.001	19.995	103.121	20.215	11.328	0.486
582.999	365.174	80.000	19.995	103.121	20.215	11.321	0.491
583.499	365.443	80.001	19.996	103.122	20.213	11.488	0.514
583.999	365.673	79.999	19.996	103.121	20.212	11.525	0.512
584.500	365.936	80.000	19.995	103.122	20.210	11.681	0.496
585.000	366.167	80.000	19.996	103.120	20.208	11.816	0.494
585.499	366.433	80.001	19.996	103.120	20.208	11.768	0.495
585.999	366.633	80.002	19.996	103.120	20.208	11.805	0.481
586.499	366.872	80.001	19.996	103.120	20.209	11.715	0.452
587.000	367.143	80.000	19.996	103.120	20.208	11.803	0.475
587.501	367.403	80.001	19.996	103.121	20.207	11.844	0.520
588.001	367.609	80.001	19.996	103.122	20.201	12.234	0.499
588.500	367.880	80.000	19.996	103.122	20.201	12.291	0.472
588.999	368.098	80.001	19.995	103.125	20.201	12.254	0.483
589.499	368.375	80.000	19.995	103.125	20.197	12.546	0.492
589.999	368.588	80.001	19.995	103.127	20.197	12.557	0.492
590.499	368.845	80.001	19.995	103.127	20.194	12.750	0.480
590.999	369.088	79.999	19.996	103.127	20.193	12.806	0.485
591.499	369.339	80.000	19.996	103.128	20.189	13.064	0.497
591.999	369.555	80.000	19.996	103.133	20.186	13.261	0.481
592.499	369.852	79.999	19.997	103.131	20.181	13.571	0.490
593.000	370.086	80.001	19.995	103.136	20.178	13.816	0.522
593.500	370.293	80.000	19.996	103.143	20.177	13.833	0.486
594.000	370.548	80.000	19.995	103.141	20.174	14.087	0.451
594.500	370.794	79.999	19.996	103.136	20.169	14.397	0.482
594.999	371.013	80.000	19.996	103.135	20.166	14.578	0.483
595.499	371.278	79.999	19.995	103.129	20.165	14.652	0.474
595.999	371.505	80.001	19.995	103.121	20.163	14.820	0.488
596.500	371.816	80.001	19.995	103.120	20.160	14.996	0.515
597.000	372.043	80.000	19.996	103.120	20.157	15.205	0.538
597.499	372.263	80.000	19.996	103.120	20.156	15.271	0.493
598.000	372.483	80.001	19.996	103.119	20.153	15.440	0.444
598.500	372.764	79.999	19.996	103.118	20.151	15.602	0.471
598.999	372.996	80.000	19.996	103.116	20.148	15.821	0.507
599.499	373.257	80.000	19.995	103.116	20.151	15.618	0.503
599.999	373.515	80.000	19.995	103.115	20.146	15.926	0.506
600.500	373.763	80.000	19.997	103.115	20.147	15.860	0.513
601.000	374.034	80.000	19.995	103.115	20.145	16.011	0.512
601.500	374.264	80.000	19.996	103.115	20.145	15.996	0.510
602.000	374.497	80.001	19.995	103.113	20.143	16.124	0.482
602.500	374.758	80.000	19.997	103.113	20.143	16.138	0.479
603.000	374.963	80.002	19.995	103.113	20.144	16.079	0.480
603.500	375.212	80.000	19.998	103.113	20.141	16.267	0.460
604.000	375.465	80.000	19.998	103.113	20.143	16.116	0.478
604.500	375.736	80.001	19.995	103.114	20.141	16.261	0.513
605.000	376.002	80.000	19.996	103.113	20.138	16.433	0.530
605.501	376.198	80.000	19.996	103.114	20.138	16.477	0.499
606.001	376.431	80.001	19.995	103.114	20.138	16.424	0.446
606.500	376.669	80.000	19.996	103.115	20.139	16.411	0.450
606.999	376.942	80.000	19.996	103.120	20.136	16.621	0.491
607.499	377.235	80.000	19.997	103.126	20.135	16.624	0.538
607.999	377.426	80.000	19.996	103.131	20.133	16.809	0.525
608.499	377.672	79.999	19.996	103.137	20.129	17.076	0.461
608.999	377.902	79.999	19.996	103.145	20.127	17.212	0.457
609.499	378.155	80.000	19.996	103.144	20.124	17.387	0.479
609.999	378.392	80.000	19.996	103.140	20.122	17.542	0.487
610.499	378.671	80.000	19.996	103.140	20.124	17.394	0.503
610.999	378.921	80.000	19.996	103.139	20.119	17.693	0.522
611.499	379.122	80.001	19.996	103.132	20.117	17.832	0.490
611.999	379.383	80.000	19.995	103.128	20.112	18.163	0.457
612.499	379.627	80.000	19.997	103.127	20.111	18.229	0.484
612.999	379.858	80.000	19.996	103.123	20.106	18.570	0.490
613.499	380.119	80.000	19.997	103.117	20.105	18.674	0.483
613.999	380.395	79.999	19.997	103.117	20.101	18.910	0.514
614.499	380.621	80.001	19.997	103.117	20.097	19.174	0.520
614.999	380.850	79.998	19.996	103.116	20.097	19.201	0.479
615.499	381.094	80.000	19.996	103.116	20.093	19.441	0.464
616.000	381.321	80.000	19.997	103.116	20.092	19.558	0.472
616.500	381.577	80.001	19.997	103.116	20.093	19.425	0.477
617.000	381.806	80.001	19.995	103.116	20.092	19.527	0.484
617.499	382.056	80.000	19.996	103.116	20.091	19.594	0.482
617.999	382.276	80.001	19.996	103.115	20.095	19.309	0.474
618.499	382.502	79.998	19.996	103.113	20.093	19.465	0.458
618.999	382.795	80.001	19.995	103.106	20.095	19.300	0.483
619.500	382.999	80.000	19.996	103.105	20.094	19.404	0.508
620.000	383.262	80.001	19.996	103.100	20.091	19.587	0.482
620.499	383.501	80.002	19.997	103.100	20.094	19.353	0.484
621.000	383.738	80.000	19.996	103.102	20.090	19.665	0.489
621.500	383.991	80.001	19.997	103.108	20.086	19.910	0.483
622.000	384.251	80.002	19.996	103.110	20.086	19.949	0.502
622.499	384.468	80.001	19.997	103.116	20.080	20.327	0.495
622.999	384.718	80.001	19.996	103.120	20.074	20.717	0.472
623.500	384.945	80.001	19.997	103.128	20.072	20.833	0.472
624.000	385.212	80.001	19.997	103.136	20.069	21.038	0.485
624.499	385.504	80.000	19.998	103.142	20.064	21.387	0.527
624.999	385.714	80.001	19.997	103.149	20.062	21.512	0.530
625.499	385.964	80.001	19.997	103.150	20.056	21.935	0.481
625.999	386.190	80.002	19.997	103.150	20.050	22.303	0.468
626.499	386.427	80.001	19.996	103.148	20.047	22.516	0.469
627.000	386.665	80.001	19.997	103.141	20.043	22.807	0.469
627.500	386.904	80.002	19.997	103.134	20.039	23.085	0.476
627.999	387.153	80.001	19.998	103.128	20.034	23.415	0.483
628.499	387.415	80.000	19.997	103.119	20.031	23.616	0.500
628.999	387.652	80.000	19.997	103.111	20.025	24.000	0.505
629.499	387.890	80.001	19.997	103.107	20.020	24.308	0.487
629.999	388.154	80.002	19.996	103.108	20.019	24.378	0.488
630.499	388.410	80.000	19.997	103.108	20.018	24.490	0.511
630.999	388.665	80.000	19.996	103.110	20.014	24.704	0.516
631.499	388.886	80.001	19.997	103.113	20.016	24.619	0.494
632.000	389.099	80.000	19.997	103.116	20.014	24.749	0.455
632.501	389.375	80.000	19.996	103.115	20.015	24.656	0.461
633.001	389.642	79.999	19.997	103.114	20.013	24.755	0.516
633.500	389.887	80.000	19.997	103.108	20.012	24.849	0.527
634.000	390.128	80.000	19.996	103.103	20.013	24.753	0.499
634.500	390.353	80.000	19.997	103.101	20.015	24.671	0.476
635.000	390.602	80.000	19.996	103.101	20.011	24.899	0.470
635.500	390.848	80.001	19.996	103.103	20.006	25.229	0.484
635.999	391.085	80.000	19.997	103.111	20.000	25.665	0.488
636.500	391.339	80.002	19.996	103.117	19.991	26.278	0.487
637.000	391.624	80.000	19.996	103.120	19.985	26.633	0.516
637.500	391.855	80.000	19.996	103.123	19.975	27.308	0.528
637.999	392.079	80.001	19.996	103.131	19.968	27.783	0.485
638.499	392.331	80.000	19.995	103.138	19.958	28.457	0.465
638.999	392.581	80.000	19.995	103.152	19.951	28.929	0.489
639.499	392.810	80.000	19.996	103.168	19.943	29.461	0.491
639.999	393.086	80.001	19.996	103.178	19.936	29.953	0.492
640.499	393.336	80.002	19.995	103.179	19.928	30.429	0.516
640.999	393.562	80.001	19.995	103.176	19.927	30.547	0.501
641.500	393.847	80.002	19.995	103.169	19.922	30.825	0.493
642.000	394.098	80.003	19.995	103.159	19.916	31.261	0.524
642.500	394.346	80.002	19.995	103.142	19.913	31.430	0.517
643.000	394.624	80.002	19.996	103.125	19.911	31.612	0.513
643.499	394.822	80.001	19.996	103.111	19.905	31.985	0.501
643.999	395.110	80.002	19.995	103.095	19.902	32.185	0.481
644.499	395.376	80.003	19.994	103.081	19.892	32.861	0.519
644.999	395.611	80.003	19.996	103.078	19.882	33.512	0.527
645.499	395.827	80.003	19.994	103.082	19.874	34.054	0.476
645.999	396.097	80.001	19.995	103.090	19.869	34.378	0.469
646.499	396.355	80.003	19.995	103.104	19.864	34.732	0.507
646.999	396.564	80.002	19.996	103.121	19.857	35.192	0.497
647.499	396.884	80.001	19.995	103.131	19.853	35.475	0.498
647.999	397.113	80.002	19.996	103.135	19.847	35.838	0.539
648.499	397.357	80.003	19.994	103.135	19.836	36.571	0.511
648.999	397.619	80.002	19.995	103.132	19.827	37.151	0.489
649.499	397.859	80.004	19.995	103.130	19.818	37.813	0.504
650.000	398.118	80.003	19.995	103.135	19.808	38.441	0.501
650.500	398.351	80.002	19.996	103.143	19.797	39.186	0.495
650.999	398.568	80.002	19.994	103.151	19.786	39.938	0.471
651.499	398.834	80.002	19.995	103.155	19.776	40.611	0.467
651.999	399.097	80.002	19.996	103.155	19.764	41.410	0.506
652.499	399.315	80.002	19.995	103.155	19.756	41.925	0.505
652.999	399.641	80.001	19.996	103.150	19.747	42.490	0.513
653.499	399.866	80.000	19.995	103.141	19.739	43.069	0.548
653.999	400.110	80.002	19.995	103.134	19.733	43.464	0.510
654.499	400.368	80.000	19.995	103.129	19.728	43.736	0.485
655.000	400.584	80.000	19.996	103.126	19.721	44.242	0.488
655.500	400.841	80.001	19.995	103.128	19.714	44.694	0.474
655.999	401.085	80.000	19.995	103.134	19.708	45.061	0.487
656.499	401.344	79.999	19.995	103.135	19.696	45.876	0.502
656.999	401.569	80.000	19.996	103.132	19.688	46.406	0.494
657.500	401.864	80.001	19.996	103.127	19.676	47.254	0.502
658.000	402.143	80.000	19.995	103.124	19.655	48.638	0.547
658.499	402.394	80.000	19.995	103.126	19.639	49.741	0.552
658.999	402.606	80.000	19.997	103.131	19.618	51.110	0.497
659.499	402.880	80.001	19.995	103.139	19.600	52.346	0.474
659.999	403.140	80.000	19.996	103.152	19.586	53.241	0.510
660.499	403.383	80.000	19.995	103.172	19.569	54.415	0.519
660.999	403.642	80.000	19.996	103.187	19.550	55.620	0.503
661.500	403.885	80.001	19.995	103.196	19.535	56.668	0.502
662.000	404.137	80.000	19.995	103.198	19.523	57.471	0.498
662.499	404.395	79.999	19.996	103.198	19.512	58.186	0.502
662.999	404.595	80.001	19.995	103.189	19.503	58.820	0.484
663.499	404.852	80.001	19.996	103.175	19.493	59.475	0.458
663.999	405.111	79.999	19.996	103.164	19.484	60.045	0.487
664.500	405.368	80.000	19.994	103.154	19.473	60.792	0.516
665.000	405.625	80.000	19.996	103.136	19.455	61.944	0.515
665.499	405.875	80.000	19.995	103.112	19.443	62.822	0.510
665.999	406.122	79.999	19.996	103.097	19.423	64.117	0.502
666.500	406.380	80.000	19.996	103.094	19.400	65.677	0.501
667.000	406.649	80.000	19.995	103.094	19.378	67.160	0.516
667.500	406.852	80.000	19.996	103.102	19.359	68.399	0.500
668.000	407.075	80.000	19.995	103.120	19.336	69.965	0.449
668.499	407.358	80.000	19.996	103.145	19.320	71.006	0.466
669.000	407.593	80.001	19.996	103.165	19.304	72.072	0.512
669.500	407.862	80.000	19.996	103.173	19.287	73.181	0.511
669.999	408.116	79.998	19.996	103.177	19.268	74.436	0.513
670.499	408.359	80.001	19.995	103.179	19.246	75.901	0.510
671.000	408.626	80.001	19.995	103.176	19.224	77.391	0.504
671.501	408.846	80.000	19.995	103.167	19.201	78.873	0.498
672.000	409.114	80.000	19.996	103.168	19.174	80.731	0.487
672.500	409.342	80.000	19.996	103.181	19.153	82.082	0.492
673.001	409.653	79.999	19.996	103.192	19.127	83.827	0.518
673.500	409.876	79.999	19.995	103.191	19.102	85.506	0.537
673.999	410.133	80.000	19.995	103.189	19.070	87.654	0.507
674.500	410.385	80.000	19.995	103.187	19.042	89.498	0.494
675.000	410.643	80.000	19.995	103.173	19.011	91.571	0.510
675.500	410.889	80.000	19.996	103.159	18.983	93.443	0.507
676.000	411.131	80.001	19.996	103.161	18.952	95.533	0.496
676.500	411.397	80.000	19.995	103.182	18.923	97.498	0.498
677.000	411.614	79.999	19.994	103.192	18.891	99.607	0.495
677.499	411.850	80.001	19.996	103.190	18.862	101.554	0.468
677.999	412.107	80.000	19.996	103.200	18.829	103.745	0.473
678.499	412.371	80.000	19.996	103.213	18.795	106.015	0.507
679.000	412.650	79.999	19.995	103.200	18.763	108.165	0.532
679.500	412.866	80.001	19.995	103.189	18.729	110.396	0.519
680.001	413.146	80.000	19.995	103.181	18.701	112.324	0.495
680.500	413.380	80.001	19.995	103.173	18.673	114.195	0.504
681.000	413.611	80.001	19.995	103.161	18.640	116.379	0.489
681.500	413.851	79.999	19.996	103.164	18.610	118.371	0.468
681.999	414.128	80.000	19.996	103.163	18.582	120.242	0.494
682.500	414.364	80.000	19.995	103.164	18.546	122.597	0.515
683.001	414.611	80.000	19.995	103.162	18.511	124.916	0.498
683.500	414.839	79.999	19.996	103.151	18.477	127.233	0.479
683.999	415.082	80.001	19.996	103.147	18.439	129.759	0.473
684.499	415.324	80.001	19.996	103.159	18.403	132.207	0.478
684.999	415.598	79.999	19.995	103.168	18.371	134.364	0.500
685.500	415.839	80.000	19.996	103.178	18.331	137.014	0.515
686.000	416.079	79.999	19.996	103.196	18.294	139.527	0.498
686.499	416.316	79.998	19.996	103.201	18.256	142.001	0.480
686.999	416.617	79.999	19.996	103.200	18.217	144.611	0.508
687.499	416.881	80.000	19.996	103.219	18.177	147.278	0.551
687.999	417.117	79.999	19.997	103.225	18.135	150.124	0.532
688.500	417.386	79.999	19.996	103.216	18.094	152.820	0.503
689.001	417.630	80.000	19.996	103.216	18.055	155.399	0.509
689.500	417.886	79.999	19.998	103.230	18.018	157.876	0.506
690.000	418.134	79.998	19.996	103.228	17.977	160.572	0.502
690.500	418.400	79.998	19.997	103.229	17.939	163.101	0.509
690.999	418.597	79.999	19.996	103.242	17.894	166.131	0.489
691.499	418.879	80.000	19.997	103.238	17.853	168.823	0.471
691.999	419.142	80.000	19.997	103.221	17.804	172.072	0.512
692.499	419.435	80.000	19.996	103.214	17.759	175.081	0.550
693.000	419.668	80.000	19.997	103.214	17.708	178.449	0.541
693.500	419.876	79.999	19.997	103.205	17.657	181.866	0.484
694.000	420.168	80.000	19.996	103.212	17.609	185.135	0.471
694.500	420.417	79.998	19.996	103.219	17.557	188.665	0.520
694.999	420.687	79.999	19.997	103.230	17.503	192.265	0.529
695.499	420.952	80.000	19.996	103.255	17.453	195.583	0.527
695.999	421.189	80.000	19.997	103.262	17.397	199.319	0.519
696.500	421.419	80.001	19.996	103.266	17.348	202.620	0.485
697.001	421.682	80.000	19.997	103.274	17.289	206.554	0.480
697.500	421.968	80.000	19.996	103.269	17.237	210.067	0.521
697.999	422.167	80.000	19.997	103.244	17.182	213.754	0.517
698.499	422.448	80.000	19.996	103.274	17.131	217.123	0.483
698.999	422.753	80.000	19.995	103.277	17.077	220.719	0.533
699.499	422.941	80.001	19.997	103.257	17.024	224.251	0.540
699.999	423.211	80.001	19.996	103.259	16.972	227.641	0.476
700.500	423.502	80.001	19.996	103.259	16.927	230.652	0.509
701.000	423.760	80.000	19.997	103.230	16.873	234.214	0.555
701.500	424.012	80.000	19.995	103.229	16.819	237.818	0.530
702.000	424.262	80.002	19.996	103.240	16.766	241.308	0.506
702.500	424.493	80.003	19.995	103.227	16.707	245.279	0.491
703.000	424.799	80.001	19.996	103.218	16.648	249.224	0.509
703.499	425.034	80.001	19.995	103.213	16.590	253.056	0.539
704.000	425.293	80.001	19.996	103.207	16.531	257.052	0.517
704.501	425.582	80.000	19.996	103.214	16.466	261.399	0.521
705.000	425.818	80.001	19.996	103.241	16.404	265.501	0.537
705.499	426.045	80.002	19.996	103.259	16.344	269.497	0.494
705.999	426.314	80.002	19.996	103.271	16.284	273.485	0.479
706.499	426.571	80.002	19.996	103.278	16.221	277.641	0.511
706.999	426.809	80.002	19.997	103.282	16.157	281.875	0.511
707.500	427.055	80.001	19.996	103.277	16.094	286.082	0.489
708.000	427.321	80.001	19.996	103.284	16.032	290.162	0.497
708.499	427.599	80.003	19.995	103.299	15.972	294.252	0.528
709.000	427.858	80.001	19.995	103.297	15.911	298.223	0.541
709.500	428.078	80.002	19.995	103.293	15.849	302.414	0.508
710.000	428.357	80.001	19.995	103.286	15.787	306.518	0.490
710.500	428.618	79.999	19.996	103.285	15.723	310.816	0.520
710.999	428.874	80.000	19.997	103.265	15.662	314.836	0.528
711.499	429.124	80.001	19.997	103.245	15.599	319.124	0.511
711.999	429.348	80.002	19.995	103.250	15.540	323.024	0.490
712.499	429.601	79.999	19.997	103.253	15.480	327.087	0.476
712.999	429.887	80.002	19.996	103.226	15.418	331.258	0.508
713.499	430.068	80.000	19.995	103.233	15.361	335.047	0.503
713.999	430.367	79.999	19.996	103.255	15.296	339.381	0.474
714.500	430.621	79.999	19.996	103.239	15.243	342.931	0.517
715.000	430.890	80.000	19.997	103.255	15.185	346.807	0.538
715.500	431.124	80.001	19.997	103.264	15.125	350.776	0.512
716.000	431.366	80.000	19.998	103.250	15.071	354.383	0.489
716.500	431.633	79.999	19.996	103.250	15.016	358.007	0.493
717.001	431.831	80.000	19.997	103.238	14.964	361.514	0.487
717.500	432.113	79.999	19.997	103.228	14.908	365.195	0.472
717.999	432.378	79.999	19.997	103.211	14.857	368.568	0.513
718.500	432.622	79.998	19.997	103.220	14.801	372.415	0.529
719.000	432.893	80.000	19.997	103.194	14.747	375.949	0.512
719.501	433.097	79.999	19.997	103.216	14.695	379.459	0.495
720.000	433.385	80.000	19.997	103.189	14.640	383.264	0.483
720.499	433.612	79.999	19.996	103.210	14.588	386.641	0.503
720.999	433.837	80.000	19.996	103.191	14.536	390.166	0.484
721.500	434.135	80.000	19.996	103.216	14.483	393.819	0.488
722.000	434.385	80.000	19.996	103.200	14.439	396.685	0.536
722.499	434.603	80.000	19.997	103.232	14.391	399.822	0.508
723.000	434.886	80.000	19.997	103.219	14.349	402.737	0.485
723.500	435.138	80.000	19.997	103.242	14.304	405.744	0.518
723.999	435.376	80.000	19.996	103.235	14.260	408.559	0.512
724.499	435.627	80.000	19.998	103.241	14.217	411.531	0.489
725.000	435.877	80.001	19.998	103.240	14.179	414.164	0.495
725.500	436.151	80.001	19.996	103.235	14.136	416.992	0.513
726.000	436.380	80.001	19.996	103.238	14.101	419.257	0.513
726.500	436.662	80.001	19.996	103.241	14.062	422.002	0.507
727.000	436.884	80.001	19.996	103.229	14.029	424.201	0.508
727.501	437.141	80.001	19.996	103.227	13.998	426.209	0.492
728.001	437.375	80.001	19.995	103.240	13.966	428.407	0.485
728.501	437.650	80.002	19.997	103.214	13.935	430.545	0.500
729.000	437.888	80.002	19.997	103.222	13.906	432.485	0.511
729.499	438.119	80.002	19.996	103.242	13.881	434.108	0.491
729.999	438.392	80.003	19.997	103.222	13.854	435.952	0.487
730.499	438.674	80.003	19.997	103.242	13.828	437.789	0.530
730.999	438.875	80.004	19.996	103.268	13.806	439.186	0.519
731.500	439.176	80.002	19.995	103.250	13.785	440.569	0.492
732.001	439.422	80.004	19.995	103.266	13.767	441.898	0.524
732.500	439.654	80.002	19.995	103.292	13.753	442.868	0.512
733.000	439.897	80.002	19.995	103.273	13.735	443.968	0.476
733.500	440.156	80.003	19.996	103.265	13.723	444.888	0.489
734.000	440.436	80.002	19.995	103.293	13.713	445.628	0.521
734.500	440.655	80.003	19.995	103.285	13.702	446.251	0.519
734.999	440.889	80.003	19.995	103.266	13.698	446.527	0.476
735.499	441.131	80.002	19.995	103.287	13.691	447.134	0.464
735.999	441.392	80.003	19.995	103.307	13.687	447.408	0.489
736.499	441.627	80.001	19.996	103.295	13.681	447.814	0.499
737.000	441.920	80.002	19.996	103.293	13.681	447.929	0.512
737.500	442.195	80.002	19.996	103.322	13.684	447.663	0.549
737.999	442.446	80.001	19.996	103.322	13.686	447.544	0.547
738.499	442.719	80.001	19.995	103.309	13.692	447.170	0.525
738.999	442.957	80.000	19.996	103.318	13.700	446.589	0.517
739.500	443.211	80.000	19.996	103.342	13.711	445.910	0.501
740.000	443.462	80.000	19.996	103.337	13.721	445.351	0.499
740.500	443.710	80.000	19.996	103.324	13.733	444.473	0.502
740.999	443.959	80.000	19.996	103.342	13.751	443.327	0.498
741.499	444.231	80.001	19.995	103.356	13.762	442.627	0.509
742.000	444.506	79.999	19.996	103.346	13.784	441.145	0.534
742.500	444.737	80.000	19.995	103.342	13.802	439.925	0.527
743.000	444.986	80.001	19.995	103.372	13.823	438.554	0.493
743.500	445.278	80.000	19.995	103.375	13.845	437.047	0.511
744.000	445.521	80.001	19.995	103.359	13.873	435.237	0.538
744.501	445.799	80.001	19.995	103.376	13.899	433.422	0.528
745.001	446.072	79.999	19.996	103.394	13.929	431.448	0.536
745.500	446.329	80.000	19.996	103.377	13.961	429.332	0.540
746.000	446.611	80.000	19.995	103.381	13.991	427.281	0.534
746.500	446.874	80.000	19.996	103.409	14.022	425.219	0.543
746.999	447.124	80.001	19.996	103.403	14.055	422.979	0.529
747.499	447.433	80.000	19.996	103.403	14.092	420.577	0.536
748.000	447.655	80.001	19.995	103.430	14.128	418.144	0.545
748.501	447.897	80.000	19.996	103.423	14.168	415.428	0.497
749.001	448.197	80.000	19.996	103.417	14.208	412.726	0.503
749.501	448.446	80.001	19.996	103.434	14.245	410.209	0.546
750.000	448.712	80.000	19.996	103.425	14.287	407.357	0.532
750.499	448.985	80.000	19.995	103.437	14.333	404.270	0.527
750.999	449.236	79.998	19.995	103.455	14.373	401.616	0.532
751.500	449.492	80.013	19.999	103.444	14.421	398.462	0.516
752.001	449.730	80.019	20.002	103.451	14.470	395.251	0.501
752.501	450.012	80.020	20.001	103.456	14.520	392.052	0.507
753.001	450.260	80.019	20.002	103.452	14.573	388.559	0.525
753.501	450.563	80.012	20.001	103.448	14.622	385.317	0.541
754.000	450.828	80.008	19.999	103.463	14.674	381.788	0.559
754.499	451.099	80.010	20.000	103.455	14.727	378.183	0.552
755.000	451.369	80.020	20.002	103.459	14.781	374.522	0.538
755.500	451.634	80.009	20.000	103.456	14.837	370.664	0.538
756.000	451.884	80.002	20.000	103.453	14.895	366.757	0.525
756.500	452.171	80.000	19.999	103.461	14.957	362.598	0.526
756.999	452.417	80.000	19.998	103.452	15.009	359.109	0.535
757.500	452.661	80.001	19.998	103.457	15.068	355.158	0.512
758.000	452.929	80.001	19.997	103.452	15.127	351.148	0.501
758.499	453.199	79.999	19.996	103.454	15.190	346.998	0.525
758.999	453.456	80.000	19.996	103.460	15.251	342.871	0.533
759.500	453.712	80.001	19.997	103.444	15.310	338.907	0.520
760.000	454.014	80.001	19.997	103.437	15.373	334.701	0.535
760.499	454.271	80.000	19.997	103.419	15.434	330.612	0.558
761.000	454.508	80.000	19.996	103.413	15.501	326.159	0.527
761.500	454.798	80.000	19.996	103.407	15.563	321.967	0.510
762.000	455.054	80.001	19.998	103.420	15.625	317.806	0.537
762.499	455.335	80.000	19.996	103.427	15.690	313.445	0.541
762.999	455.617	80.001	19.997	103.451	15.754	309.181	0.550
763.500	455.865	80.001	19.996	103.484	15.823	304.574	0.547
764.001	456.146	80.002	19.996	103.490	15.886	300.312	0.530
764.500	456.388	80.001	19.996	103.508	15.952	295.941	0.525
764.999	456.667	80.002	19.996	103.497	16.017	291.546	0.522
765.499	456.948	80.001	19.996	103.480	16.079	287.379	0.541
765.999	457.207	80.000	19.996	103.458	16.141	283.225	0.550
766.499	457.488	80.002	19.995	103.433	16.206	278.929	0.540
767.000	457.723	80.000	19.996	103.411	16.269	274.724	0.528
767.500	458.048	80.000	19.996	103.417	16.334	270.359	0.538
767.999	458.275	80.000	19.996	103.406	16.390	266.594	0.556
768.499	458.533	80.000	19.994	103.397	16.455	262.246	0.518
769.000	458.818	80.002	19.996	103.392	16.514	258.273	0.514
769.500	459.090	80.001	19.997	103.395	16.575	254.171	0.550
769.999	459.357	80.003	19.996	103.385	16.630	250.420	0.548
770.499	459.633	80.000	19.995	103.384	16.692	246.252	0.541
771.000	459.882	80.000	19.995	103.377	16.751	242.338	0.534
771.499	460.123	80.001	19.996	103.377	16.808	238.651	0.507
771.999	460.411	80.001	19.997	103.373	16.866	234.886	0.510
772.499	460.669	80.000	19.997	103.368	16.922	231.159	0.538
772.999	460.931	80.000	19.996	103.367	16.979	227.353	0.533
773.499	461.209	80.000	19.996	103.362	17.036	223.526	0.530
774.000	461.456	80.000	19.996	103.357	17.093	219.705	0.532
774.500	461.722	79.999	19.996	103.350	17.148	215.940	0.519
774.999	461.962	80.000	19.997	103.344	17.202	212.365	0.509
775.499	462.270	80.001	19.996	103.337	17.253	208.921	0.527
775.999	462.516	80.001	19.998	103.330	17.309	205.227	0.551
776.499	462.794	80.000	19.996	103.323	17.358	201.932	0.539
777.000	463.081	80.000	19.998	103.321	17.409	198.500	0.544
777.500	463.298	80.001	19.996	103.318	17.459	195.178	0.535
777.999	463.578	80.000	19.996	103.318	17.512	191.613	0.500
778.499	463.820	80.002	19.997	103.316	17.557	188.618	0.509
779.000	464.091	80.000	19.996	103.318	17.601	185.668	0.517
779.500	464.380	80.000	19.997	103.310	17.652	182.269	0.536
779.999	464.632	80.000	19.997	103.284	17.698	179.218	0.551
780.499	464.929	80.000	19.995	103.262	17.742	176.243	0.545
781.000	465.177	79.999	19.997	103.246	17.788	173.163	0.547
781.500	465.468	80.000	19.997	103.233	17.832	170.245	0.542
781.999	465.721	80.001	19.997	103.235	17.876	167.325	0.542
782.499	465.982	80.000	19.998	103.287	17.919	164.441	0.529
783.000	466.231	80.001	19.998	103.321	17.961	161.599	0.512
783.501	466.493	80.002	19.997	103.336	18.002	158.858	0.510
784.000	466.783	80.000	19.997	103.339	18.042	156.189	0.532
784.499	467.055	80.000	19.996	103.336	18.080	153.671	0.557
784.999	467.301	80.001	19.997	103.301	18.118	151.135	0.540
785.499	467.564	80.001	19.997	103.282	18.158	148.469	0.513
785.999	467.814	80.000	19.995	103.274	18.194	146.024	0.511
786.499	468.056	80.001	19.997	103.271	18.232	143.521	0.503
786.999	468.351	80.002	19.997	103.270	18.264	141.354	0.514
787.499	468.655	80.002	19.996	103.265	18.302	138.848	0.568
787.999	468.896	80.002	19.995	103.259	18.338	136.409	0.572
788.499	469.127	80.001	19.997	103.255	18.370	134.328	0.508
788.999	469.421	80.002	19.997	103.251	18.402	132.135	0.498
789.499	469.686	80.002	19.996	103.245	18.436	129.877	0.542
789.999	469.931	80.002	19.997	103.242	18.468	127.718	0.534
790.499	470.214	80.001	19.997	103.239	18.496	125.913	0.519
790.999	470.505	80.001	19.997	103.237	18.529	123.675	0.552
791.500	470.753	80.002	19.997	103.235	18.558	121.717	0.557
792.000	471.019	80.002	19.996	103.233	18.587	119.803	0.526
792.499	471.272	80.002	19.996	103.233	18.615	117.957	0.516
792.999	471.534	80.001	19.996	103.231	18.647	115.834	0.517
793.499	471.829	80.002	19.996	103.227	18.673	114.072	0.536
793.999	472.073	80.001	19.996	103.224	18.698	112.426	0.548
794.499	472.321	80.001	19.997	103.219	18.724	110.698	0.515
794.999	472.613	80.001	19.996	103.211	18.748	109.101	0.516
795.499	472.903	80.002	19.996	103.205	18.775	107.273	0.561
795.999	473.150	80.002	19.997	103.201	18.803	105.403	0.560
796.499	473.411	80.001	19.997	103.194	18.825	103.950	0.523
797.000	473.704	80.002	19.996	103.191	18.851	102.207	0.531
797.500	473.982	80.001	19.996	103.191	18.880	100.285	0.562
797.999	474.274	80.001	19.996	103.189	18.899	99.049	0.571
798.499	474.514	80.001	19.996	103.189	18.921	97.558	0.551
798.999	474.779	80.001	19.997	103.185	18.944	95.995	0.518
799.500	475.073	80.001	19.997	103.179	18.967	94.492	0.532
800.001	475.327	80.001	19.996	103.175	18.990	92.949	0.553
800.501	475.620	80.000	19.996	103.171	19.008	91.730	0.548
801.001	475.831	80.003	19.995	103.163	19.034	90.051	0.526
801.500	476.114	80.001	19.997	103.161	19.055	88.637	0.499
802.000	476.376	80.002	19.996	103.159	19.078	87.123	0.519
802.501	476.616	80.001	19.997	103.156	19.094	86.008	0.523
803.000	476.937	80.002	19.996	103.153	19.113	84.729	0.531
803.500	477.179	80.000	19.997	103.153	19.130	83.621	0.562
804.000	477.475	80.000	19.997	103.154	19.150	82.318	0.550
804.499	477.700	80.002	19.996	103.154	19.170	80.980	0.530
804.999	477.975	80.002	19.998	103.154	19.189	79.685	0.511
805.499	478.264	80.002	19.996	103.154	19.207	78.499	0.532
806.000	478.518	80.002	19.996	103.154	19.223	77.440	0.553
806.500	478.793	80.002	19.996	103.153	19.241	76.236	0.536
807.000	479.064	80.002	19.996	103.152	19.260	74.948	0.537
807.500	479.332	80.002	19.996	103.152	19.278	73.741	0.542
808.001	479.578	80.002	19.995	103.152	19.293	72.755	0.526
808.501	479.830	80.002	19.996	103.153	19.311	71.544	0.506
809.000	480.066	80.003	19.997	103.152	19.328	70.449	0.494
809.499	480.310	80.003	19.997	103.150	19.344	69.346	0.484
809.999	480.583	80.003	19.997	103.149	19.361	68.238	0.498
810.500	480.855	80.002	19.996	103.148	19.378	67.100	0.531
811.000	481.139	80.002	19.997	103.146	19.395	65.958	0.550
811.499	481.406	80.002	19.996	103.147	19.408	65.079	0.553
811.999	481.661	80.002	19.996	103.150	19.424	64.006	0.537
812.499	481.931	80.003	19.996	103.151	19.441	62.881	0.524
812.999	482.178	80.003	19.998	103.151	19.454	62.031	0.521
813.499	482.447	80.004	19.997	103.149	19.471	60.892	0.516
814.000	482.704	80.002	19.997	103.149	19.490	59.651	0.521
814.501	482.967	80.002	19.997	103.150	19.502	58.841	0.523
815.001	483.265	80.004	19.997	103.149	19.519	57.728	0.541
815.500	483.506	80.003	19.997	103.150	19.532	56.801	0.550
815.999	483.801	80.003	19.996	103.151	19.547	55.849	0.537
816.499	484.030	80.002	19.997	103.150	19.563	54.754	0.530
817.000	484.272	80.003	19.996	103.150	19.577	53.834	0.498
817.500	484.533	80.002	19.998	103.148	19.591	52.886	0.487
817.999	484.796	80.002	19.997	103.148	19.608	51.804	0.514
818.499	485.062	80.003	19.998	103.149	19.621	50.887	0.527
818.999	485.298	80.003	19.996	103.147	19.636	49.881	0.515
819.500	485.546	80.001	19.997	103.145	19.652	48.853	0.493
820.001	485.842	80.003	19.998	103.140	19.664	48.052	0.514
820.501	486.062	80.002	19.997	103.135	19.676	47.262	0.530
821.001	486.361	80.001	19.997	103.133	19.691	46.213	0.517
821.500	486.600	80.002	19.996	103.134	19.706	45.216	0.529
821.999	486.856	80.001	19.996	103.135	19.716	44.557	0.517
822.500	487.124	80.000	19.998	103.136	19.729	43.706	0.509
823.000	487.359	80.001	19.997	103.138	19.741	42.878	0.513
823.500	487.595	80.002	19.997	103.133	19.759	41.678	0.487
824.001	487.874	80.001	19.997	103.128	19.768	41.081	0.493
824.500	488.114	80.001	19.996	103.126	19.781	40.257	0.517
824.999	488.350	80.002	19.995	103.130	19.794	39.345	0.498
825.499	488.612	80.001	19.996	103.129	19.811	38.279	0.487
825.999	488.861	80.002	19.996	103.131	19.817	37.814	0.504
826.499	489.113	80.001	19.995	103.136	19.830	36.946	0.505
827.000	489.392	80.000	19.997	103.140	19.845	36.002	0.516
827.500	489.632	80.000	19.996	103.141	19.857	35.179	0.526
828.000	489.905	80.000	19.997	103.146	19.868	34.418	0.516
828.500	490.141	80.001	19.996	103.150	19.881	33.580	0.511
828.999	490.407	80.000	19.996	103.151	19.892	32.837	0.506
829.499	490.640	80.000	19.995	103.150	19.900	32.317	0.501
829.999	490.909	80.001	19.998	103.149	19.913	31.443	0.500
830.499	491.146	80.001	19.995	103.144	19.923	30.753	0.504
831.000	491.395	80.000	19.996	103.139	19.936	29.884	0.496
831.500	491.628	80.001	19.997	103.134	19.944	29.377	0.484
831.999	491.902	80.000	19.996	103.131	19.955	28.660	0.494
832.499	492.130	80.002	19.995	103.132	19.966	27.922	0.504
833.000	492.370	80.000	19.996	103.134	19.976	27.229	0.485
833.500	492.640	80.001	19.996	103.137	19.985	26.631	0.490
833.999	492.859	80.002	19.995	103.138	19.997	25.873	0.500
834.500	493.140	80.000	19.996	103.139	20.005	25.282	0.494
835.001	493.397	80.001	19.995	103.141	20.019	24.390	0.519
835.500	493.633	80.000	19.996	103.142	20.027	23.881	0.516
836.000	493.876	80.000	19.995	103.140	20.037	23.195	0.486
836.500	494.125	80.001	19.996	103.144	20.048	22.443	0.485
836.999	494.390	80.000	19.996	103.138	20.054	22.078	0.503
837.500	494.621	80.001	19.996	103.131	20.064	21.401	0.505
837.999	494.898	80.000	19.994	103.126	20.077	20.553	0.502
838.500	495.130	79.999	19.995	103.125	20.082	20.178	0.508
839.001	495.379	80.000	19.995	103.120	20.088	19.767	0.495
839.501	495.588	80.001	19.995	103.122	20.099	19.035	0.470
840.001	495.871	80.001	19.995	103.124	20.107	18.514	0.476
840.500	496.163	80.000	19.996	103.125	20.115	17.996	0.534
841.000	496.358	80.000	19.995	103.125	20.125	17.307	0.530
841.499	496.603	80.001	19.997	103.124	20.133	16.785	0.463
842.000	496.858	80.000	19.995	103.122	20.138	16.449	0.470
842.500	497.070	80.001	19.996	103.121	20.146	15.952	0.484
843.000	497.355	80.001	19.997	103.121	20.152	15.501	0.482
843.500	497.582	79.999	19.995	103.121	20.162	14.878	0.504
844.000	497.813	80.001	19.996	103.121	20.165	14.629	0.485
844.501	498.067	80.000	19.996	103.120	20.172	14.213	0.472
845.000	498.283	80.001	19.996	103.119	20.178	13.759	0.477
845.500	498.544	80.000	19.996	103.118	20.184	13.407	0.473
846.000	498.780	80.001	19.996	103.117	20.189	13.036	0.487
846.500	499.032	80.000	19.996	103.117	20.197	12.524	0.493
847.000	499.280	80.000	19.995	103.117	20.201	12.273	0.494
847.500	499.575	80.001	19.996	103.118	20.206	11.899	0.521
848.001	499.804	80.001	19.997	103.119	20.214	11.379	0.534
848.500	500.053	80.002	19.995	103.119	20.216	11.262	0.501
848.999	500.299	80.000	19.995	103.119	20.220	10.967	0.486
849.499	500.566	80.001	19.995	103.119	20.227	10.550	0.505
849.999	500.780	80.000	19.997	103.117	20.230	10.353	0.497
850.499	501.036	79.999	19.996	103.116	20.236	9.896	0.475
850.999	501.262	80.001	19.996	103.115	20.239	9.719	0.476
851.499	501.526	80.000	19.995	103.116	20.247	9.213	0.486
851.999	501.760	80.000	19.995	103.116	20.250	9.003	0.494
852.499	502.005	80.002	19.996	103.116	20.251	8.944	0.489
852.999	502.250	80.001	19.996	103.115	20.255	8.671	0.485
853.499	502.496	80.001	19.996	103.116	20.257	8.507	0.490
853.999	502.731	80.001	19.995	103.114	20.260	8.356	0.486
854.499	502.946	80.002	19.996	103.113	20.261	8.243	0.466
854.999	503.227	80.001	19.996	103.113	20.265	7.978	0.473
855.499	503.439	80.000	19.997	103.114	20.268	7.771	0.495
855.999	503.691	80.002	19.996	103.114	20.272	7.543	0.478
856.499	503.918	80.001	19.996	103.115	20.279	7.049	0.471
856.999	504.139	80.002	19.996	103.115	20.275	7.316	0.463
857.499	504.387	80.000	19.997	103.117	20.277	7.196	0.459
857.999	504.643	80.000	19.996	103.116	20.280	6.980	0.487
858.499	504.863	80.001	19.995	103.116	20.283	6.786	0.490
858.999	505.100	80.001	19.995	103.115	20.286	6.569	0.466
859.500	505.379	80.002	19.996	103.115	20.287	6.504	0.486
860.001	505.580	80.001	19.996	103.113	20.291	6.265	0.498
860.501	505.850	80.002	19.996	103.111	20.288	6.440	0.475
861.001	506.077	80.001	19.996	103.112	20.292	6.181	0.484
861.500	506.316	80.001	19.997	103.112	20.292	6.176	0.481
861.999	506.544	80.001	19.995	103.111	20.293	6.153	0.466
862.499	506.802	80.001	19.995	103.109	20.294	6.075	0.477
862.999	507.008	80.001	19.996	103.109	20.295	6.011	0.475
863.499	507.265	79.999	19.995	103.106	20.293	6.132	0.463
864.000	507.513	80.001	19.996	103.104	20.296	5.942	0.484
864.500	507.771	80.001	19.996	103.105	20.294	6.052	0.506
865.000	507.998	80.001	19.995	103.104	20.297	5.854	0.495
865.500	508.245	80.003	19.996	103.105	20.295	5.967	0.479
865.999	508.477	80.000	19.996	103.106	20.292	6.209	0.476
866.499	508.726	80.002	19.995	103.105	20.296	5.906	0.480
867.000	508.943	80.002	19.995	103.104	20.298	5.765	0.474
867.501	509.174	80.002	19.997	103.106	20.298	5.809	0.457
868.000	509.441	80.003	19.997	103.106	20.300	5.689	0.473
868.500	509.659	80.002	19.996	103.107	20.297	5.861	0.492
869.001	509.917	80.002	19.996	103.105	20.299	5.698	0.480
869.500	510.141	80.002	19.995	103.101	20.301	5.599	0.479
870.000	510.398	80.002	19.997	103.101	20.301	5.615	0.482
870.500	510.664	80.003	19.996	103.101	20.298	5.777	0.502
870.999	510.881	80.002	19.997	103.100	20.300	5.641	0.503
871.499	511.128	80.002	19.996	103.110	20.300	5.671	0.473
871.999	511.372	80.002	19.996	103.096	20.303	5.494	0.477
872.500	511.608	80.001	19.996	103.069	20.301	5.620	0.486
872.999	511.842	80.001	19.996	103.050	20.302	5.557	0.476
873.499	512.126	80.002	19.996	103.036	20.299	5.762	0.494
874.000	512.329	80.002	19.996	103.024	20.302	5.513	0.502
874.500	512.582	80.002	19.996	103.047	20.303	5.441	0.471
874.999	512.814	80.002	19.997	103.101	20.303	5.465	0.471
875.499	513.085	80.001	19.996	103.129	20.304	5.389	0.494
875.999	513.312	80.001	19.997	103.146	20.301	5.631	0.500
876.499	513.571	80.002	19.998	103.154	20.303	5.461	0.492
877.000	513.849	80.001	19.999	103.149	20.302	5.537	0.511
877.501	514.064	80.001	19.997	103.120	20.305	5.360	0.515
878.000	514.344	80.000	19.997	103.104	20.304	5.398	0.494
878.500	514.578	80.001	19.996	103.099	20.304	5.404	0.505
879.001	514.820	80.001	19.997	103.096	20.304	5.371	0.495
879.501	515.082	80.001	19.997	103.094	20.307	5.206	0.491
880.000	515.324	80.001	19.995	103.090	20.302	5.502	0.504
880.500	515.600	80.001	19.996	103.090	20.305	5.345	0.511
881.001	515.842	80.000	19.996	103.087	20.302	5.561	0.518
881.501	516.090	80.001	19.996	103.087	20.304	5.412	0.504
882.000	516.342	80.001	19.997	103.087	20.303	5.467	0.495
882.499	516.607	79.999	19.997	103.095	20.303	5.484	0.509
882.999	516.878	80.001	19.999	103.102	20.306	5.288	0.527
883.499	517.140	80.001	19.997	103.108	20.307	5.222	0.534
883.999	517.366	80.000	19.997	103.108	20.304	5.390	0.510
884.499	517.633	80.001	19.997	103.104	20.304	5.371	0.491
884.999	517.879	80.001	19.996	103.102	20.304	5.378	0.504
885.499	518.140	80.000	19.997	103.100	20.307	5.166	0.510
886.000	518.414	80.002	19.996	103.101	20.307	5.220	0.521
886.500	518.646	80.001	19.996	103.103	20.307	5.216	0.521
886.999	518.901	80.002	19.997	103.108	20.306	5.269	0.497
887.499	519.177	80.000	19.997	103.109	20.307	5.221	0.509
887.999	519.414	80.001	19.996	103.109	20.306	5.241	0.522
888.499	519.700	80.002	19.996	103.106	20.307	5.219	0.518
889.000	519.950	80.002	19.997	103.104	20.309	5.092	0.529
889.500	520.208	80.002	19.997	103.101	20.304	5.365	0.522
890.000	520.453	80.002	19.996	103.101	20.307	5.179	0.505
890.500	520.717	80.001	19.996	103.102	20.304	5.391	0.506
891.000	520.945	80.001	19.996	103.104	20.302	5.499	0.501
891.501	521.217	80.003	19.997	103.107	20.304	5.381	0.496
892.000	521.482	80.001	19.995	103.111	20.304	5.367	0.518
892.499	521.722	80.002	19.996	103.110	20.302	5.501	0.521
892.999	522.001	80.003	19.997	103.110	20.303	5.477	0.512
893.499	522.261	80.002	19.996	103.111	20.302	5.516	0.529
893.999	522.495	80.004	19.995	103.111	20.303	5.480	0.516
894.499	522.775	80.002	19.995	103.112	20.301	5.594	0.504
894.999	523.038	80.003	19.997	103.113	20.305	5.349	0.529
895.499	523.301	80.002	19.997	103.113	20.306	5.284	0.535
895.999	523.508	80.002	19.996	103.112	20.302	5.511	0.498
896.499	523.816	80.001	19.996	103.112	20.303	5.483	0.492
896.999	524.050	80.002	19.996	103.112	20.302	5.505	0.528
897.499	524.298	80.003	19.996	103.108	20.304	5.418	0.512
897.999	524.576	80.002	19.996	103.104	20.306	5.296	0.505
898.499	524.837	80.002	19.996	103.099	20.304	5.394	0.533
899.000	525.118	80.003	19.995	103.097	20.302	5.562	0.540
899.501	525.384	80.001	19.995	103.095	20.299	5.703	0.544
900.000	525.645	80.002	19.995	103.094	20.300	5.641	0.537
900.500	525.892	80.001	19.996	103.095	20.301	5.575	0.518
901.000	526.180	80.001	19.995	103.098	20.301	5.569	0.521
901.499	526.435	80.001	19.997	103.101	20.302	5.534	0.539
901.999	526.685	80.000	19.996	103.098	20.301	5.588	0.524
902.499	526.942	80.001	19.997	103.097	20.305	5.302	0.506
902.999	527.197	80.002	19.996	103.099	20.306	5.295	0.510
903.500	527.428	79.998	19.997	103.100	20.303	5.480	0.499
904.001	527.699	80.000	19.997	103.100	20.305	5.316	0.494
904.500	527.997	79.998	19.997	103.104	20.302	5.505	0.536
904.999	528.215	79.999	19.997	103.109	20.299	5.704	0.543
905.499	528.459	79.999	19.999	103.111	20.302	5.518	0.489
905.999	528.715	79.999	19.998	103.111	20.300	5.659	0.481
906.499	528.994	79.999	19.997	103.110	20.302	5.545	0.517
907.000	529.254	79.998	19.996	103.109	20.301	5.627	0.536
907.501	529.489	79.999	19.998	103.105	20.304	5.426	0.517
908.000	529.770	79.999	19.997	103.103	20.303	5.463	0.506
908.499	530.033	80.000	19.997	103.100	20.301	5.621	0.530
908.999	530.288	79.999	19.997	103.094	20.304	5.400	0.531
909.499	530.579	80.000	19.997	103.088	20.303	5.446	0.532
910.000	530.817	79.999	19.997	103.089	20.302	5.519	0.537
910.501	531.108	79.999	19.996	103.088	20.301	5.569	0.529
911.001	531.338	79.999	19.998	103.089	20.303	5.449	0.525
911.501	531.619	79.999	19.997	103.093	20.301	5.630	0.516
912.001	531.840	80.001	19.998	103.094	20.303	5.475	0.506
912.501	532.114	79.998	19.997	103.094	20.306	5.289	0.498
913.001	532.394	79.999	19.997	103.098	20.305	5.315	0.525
913.501	532.649	79.998	19.997	103.100	20.305	5.324	0.544
914.001	532.874	79.999	19.996	103.105	20.303	5.446	0.507
914.500	533.171	79.999	19.996	103.111	20.303	5.448	0.502
914.999	533.414	80.000	19.996	103.110	20.305	5.356	0.531
915.500	533.704	79.998	19.996	103.103	20.304	5.365	0.536
916.000	533.926	79.999	19.996	103.098	20.304	5.426	0.522
916.500	534.195	79.999	19.997	103.093	20.305	5.334	0.501
917.000	534.508	80.000	19.996	103.090	20.304	5.372	0.537
917.499	534.741	80.000	19.997	103.090	20.305	5.308	0.564
917.999	535.013	80.001	19.996	103.096	20.304	5.378	0.526
918.499	535.267	79.999	19.996	103.101	20.306	5.297	0.515
918.999	535.546	80.000	19.996	103.098	20.307	5.179	0.529
919.499	535.793	80.001	19.995	103.095	20.305	5.350	0.529
920.000	536.013	80.001	19.996	103.093	20.304	5.422	0.497
920.500	536.295	80.000	19.996	103.090	20.303	5.480	0.485
921.000	536.562	80.000	19.996	103.090	20.303	5.483	0.525
921.501	536.836	80.000	19.996	103.091	20.301	5.574	0.545
922.000	537.094	80.000	19.995	103.091	20.301	5.609	0.537
922.500	537.352	80.001	19.997	103.093	20.303	5.434	0.524
923.000	537.635	80.001	19.996	103.095	20.302	5.528	0.529
923.499	537.888	80.000	19.996	103.096	20.304	5.408	0.539
924.000	538.139	80.001	19.994	103.096	20.300	5.692	0.520
924.501	538.368	80.000	19.996	103.097	20.300	5.697	0.492
925.001	538.624	80.003	19.997	103.099	20.302	5.515	0.482
925.501	538.885	80.002	19.996	103.101	20.301	5.603	0.501
926.000	539.157	80.002	19.996	103.100	20.303	5.481	0.525
926.499	539.425	80.002	19.996	103.099	20.302	5.518	0.536
927.000	539.654	79.999	19.996	103.101	20.300	5.636	0.519
927.499	539.919	80.001	19.996	103.103	20.302	5.500	0.496
927.999	540.195	80.001	19.996	103.101	20.303	5.476	0.518
928.500	540.458	80.002	19.995	103.098	20.303	5.474	0.540
929.000	540.721	80.001	19.997	103.102	20.304	5.406	0.532
929.500	540.955	80.000	19.996	103.106	20.303	5.444	0.511
930.000	541.233	80.001	19.997	103.103	20.302	5.564	0.504
930.500	541.498	80.001	19.996	103.103	20.299	5.747	0.528
931.000	541.749	80.002	19.997	103.107	20.302	5.526	0.530
931.501	542.003	80.000	19.996	103.109	20.304	5.393	0.511
932.000	542.251	79.999	19.996	103.106	20.299	5.747	0.503
932.499	542.557	80.001	19.996	103.106	20.300	5.635	0.528
932.999	542.773	79.999	19.997	103.108	20.300	5.638	0.538
933.499	543.030	80.001	19.996	103.108	20.303	5.460	0.498
934.000	543.299	80.000	19.996	103.107	20.303	5.443	0.500
934.500	543.539	80.000	19.996	103.110	20.303	5.473	0.518
934.999	543.815	79.999	19.997	103.112	20.302	5.543	0.512
935.499	544.035	80.000	19.995	103.111	20.301	5.620	0.506
935.999	544.277	79.999	19.996	103.108	20.302	5.552	0.479
936.500	544.529	80.000	19.996	103.105	20.301	5.607	0.478
936.999	544.792	79.999	19.996	103.103	20.302	5.535	0.504
937.499	545.056	80.000	19.996	103.103	20.300	5.646	0.521
937.999	545.318	79.998	19.996	103.105	20.303	5.432	0.526
938.499	545.574	79.999	19.996	103.108	20.303	5.436	0.522
939.000	545.790	79.998	19.996	103.108	20.304	5.375	0.495
939.500	546.089	79.999	19.996	103.108	20.305	5.325	0.494
940.000	546.326	80.000	19.996	103.107	20.305	5.362	0.526
940.500	546.581	79.999	19.996	103.105	20.305	5.349	0.514
940.999	546.844	79.999	19.997	103.104	20.304	5.386	0.505
941.499	547.124	80.000	19.995	103.107	20.306	5.283	0.530
941.999	547.385	80.000	19.997	103.108	20.305	5.362	0.542
942.499	547.621	80.000	19.996	103.108	20.304	5.427	0.519
942.999	547.898	80.001	19.998	103.108	20.304	5.377	0.505
943.499	548.127	80.000	19.996	103.108	20.305	5.332	0.509
943.999	548.415	79.999	19.997	103.109	20.305	5.303	0.512
944.499	548.676	79.999	19.997	103.111	20.301	5.575	0.533
944.999	548.895	80.001	19.997	103.112	20.305	5.308	0.515
945.499	549.149	80.000	19.995	103.115	20.306	5.262	0.476
945.999	549.385	80.001	19.995	103.116	20.307	5.183	0.481
946.500	549.661	80.001	19.996	103.116	20.308	5.120	0.501
947.001	549.946	80.000	19.997	103.113	20.306	5.296	0.536
947.500	550.175	80.001	19.996	103.111	20.306	5.233	0.538
947.999	550.454	80.000	19.997	103.110	20.303	5.489	0.511
948.500	550.686	80.001	19.995	103.110	20.303	5.452	0.510
949.000	550.915	80.002	19.996	103.109	20.301	5.572	0.486
949.500	551.162	80.001	19.995	103.111	20.305	5.342	0.469
950.000	551.437	80.001	19.996	103.113	20.301	5.572	0.499
950.500	551.735	80.002	19.997	103.114	20.303	5.453	0.547
950.999	551.954	80.002	19.995	103.114	20.304	5.390	0.545
951.500	552.236	80.002	19.996	103.114	20.304	5.416	0.509
952.000	552.468	80.002	19.996	103.114	20.306	5.274	0.507
952.499	552.775	80.002	19.995	103.115	20.305	5.334	0.526
952.999	553.013	80.002	19.995	103.115	20.301	5.585	0.542
953.499	553.282	80.002	19.996	103.114	20.308	5.154	0.526
953.999	553.512	80.003	19.996	103.113	20.303	5.462	0.503
954.499	553.794	80.003	19.995	103.112	20.306	5.274	0.506
954.999	554.044	80.002	19.995	103.110	20.303	5.454	0.522
955.499	554.326	80.001	19.995	103.106	20.307	5.191	0.532
955.999	554.524	80.002	19.995	103.106	20.306	5.246	0.506
956.499	554.821	80.002	19.995	103.107	20.304	5.394	0.488
957.000	555.087	80.003	19.995	103.108	20.302	5.515	0.529
957.501	555.360	80.001	19.995	103.109	20.304	5.421	0.551
958.000	555.589	80.002	19.995	103.113	20.303	5.451	0.521
958.499	555.845	80.002	19.995	103.113	20.305	5.314	0.494
958.999	556.093	80.001	19.995	103.114	20.302	5.523	0.494
959.499	556.352	80.003	19.996	103.114	20.301	5.569	0.505
959.999	556.641	80.002	19.995	103.115	20.301	5.600	0.527
960.499	556.906	80.001	19.995	103.117	20.303	5.482	0.551
960.999	557.133	80.002	19.995	103.117	20.301	5.577	0.523
961.500	557.396	80.000	19.995	103.117	20.302	5.562	0.491
962.001	557.634	80.002	19.995	103.117	20.303	5.459	0.496
962.501	557.913	80.002	19.996	103.117	20.302	5.525	0.509
963.001	558.163	80.001	19.995	103.116	20.304	5.431	0.523
963.501	558.420	80.001	19.995	103.116	20.302	5.515	0.518
964.001	558.682	80.001	19.995	103.117	20.302	5.552	0.513
964.500	558.969	80.000	19.996	103.117	20.304	5.406	0.534
964.999	559.234	80.000	19.997	103.116	20.302	5.552	0.550
965.499	559.478	80.001	19.996	103.116	20.303	5.482	0.531
965.999	559.749	80.001	19.997	103.117	20.301	5.583	0.512
966.499	560.029	80.001	19.996	103.116	20.303	5.436	0.533
966.999	560.271	80.001	19.997	103.117	20.305	5.322	0.536
967.499	560.531	80.000	19.995	103.118	20.302	5.561	0.512
968.000	560.795	80.000	19.997	103.118	20.300	5.668	0.514
968.501	561.048	80.001	19.996	103.117	20.303	5.499	0.521
969.000	561.289	80.002	19.995	103.117	20.301	5.598	0.506
969.499	561.566	80.000	19.996	103.118	20.302	5.565	0.506
969.999	561.846	80.000	19.996	103.118	20.304	5.429	0.537
970.499	562.107	80.001	19.996	103.118	20.303	5.442	0.549
971.000	562.339	80.001	19.996	103.122	20.306	5.292	0.517
971.501	562.591	80.000	19.995	103.125	20.305	5.329	0.489
972.000	562.864	80.001	19.996	103.127	20.303	5.443	0.505
972.499	563.113	80.001	19.997	103.129	20.304	5.418	0.523
972.999	563.354	80.002	19.996	103.130	20.305	5.309	0.506
973.499	563.634	80.001	19.997	103.126	20.308	5.159	0.506
973.999	563.901	80.002	19.996	103.124	20.303	5.454	0.534
974.499	564.127	80.001	19.996	103.121	20.304	5.421	0.520
975.000	564.391	80.002	19.996	103.118	20.303	5.454	0.491
975.500	564.654	80.000	19.996	103.118	20.303	5.438	0.509
975.999	564.897	80.000	19.996	103.118	20.303	5.434	0.517
976.499	565.174	80.001	19.996	103.118	20.306	5.233	0.513
977.000	565.448	80.001	19.996	103.118	20.301	5.567	0.535
977.500	565.692	80.002	19.996	103.118	20.304	5.371	0.535
977.999	565.918	80.001	19.996	103.118	20.303	5.493	0.494
978.500	566.235	80.003	19.997	103.118	20.303	5.443	0.506
978.999	566.474	80.002	19.995	103.118	20.302	5.545	0.549
979.499	566.720	80.001	19.995	103.119	20.302	5.539	0.521
980.000	567.011	80.002	19.995	103.120	20.300	5.644	0.511
980.501	567.259	80.002	19.996	103.120	20.300	5.674	0.538
981.001	567.511	80.003	19.995	103.119	20.304	5.401	0.520
981.501	567.773	80.002	19.995	103.119	20.304	5.377	0.507
982.001	568.022	80.002	19.995	103.119	20.301	5.631	0.513
982.500	568.280	80.001	19.996	103.118	20.303	5.446	0.509
982.999	568.552	80.002	19.996	103.118	20.301	5.631	0.518
983.500	568.825	80.001	19.996	103.119	20.304	5.422	0.537
984.001	569.092	80.001	19.995	103.119	20.299	5.714	0.542
984.500	569.350	80.001	19.996	103.119	20.303	5.473	0.532
984.999	569.577	80.000	19.995	103.119	20.304	5.380	0.505
985.499	569.849	80.001	19.996	103.119	20.302	5.546	0.492
986.000	570.110	80.001	19.996	103.118	20.301	5.598	0.516
986.500	570.346	80.000	19.995	103.118	20.303	5.449	0.515
987.000	570.637	80.000	19.994	103.117	20.302	5.533	0.512
987.500	570.883	80.000	19.997	103.117	20.305	5.318	0.532
987.999	571.129	79.999	19.996	103.116	20.304	5.399	0.515
988.499	571.378	80.000	19.996	103.117	20.301	5.569	0.494
988.999	571.615	80.000	19.996	103.117	20.302	5.522	0.490
989.499	571.893	80.001	19.996	103.117	20.300	5.633	0.501
989.999	572.138	79.999	19.995	103.116	20.305	5.353	0.519
990.500	572.375	80.000	19.997	103.116	20.303	5.491	0.502
991.001	572.657	79.999	19.996	103.115	20.299	5.723	0.501
991.500	572.907	79.999	19.997	103.113	20.297	5.863	0.526
991.999	573.190	80.000	19.996	103.112	20.300	5.644	0.532
992.500	573.437	80.001	19.996	103.110	20.300	5.692	0.531
993.000	573.674	79.999	19.997	103.106	20.301	5.579	0.507
993.499	573.945	80.001	19.997	103.107	20.300	5.675	0.496
993.999	574.205	80.001	19.997	103.107	20.301	5.603	0.520
994.499	574.513	80.000	19.998	103.107	20.298	5.819	0.550
994.999	574.762	80.000	19.997	103.111	20.303	5.481	0.562
995.500	575.025	80.000	19.997	103.114	20.305	5.328	0.534
996.000	575.294	80.000	19.998	103.114	20.302	5.520	0.522
996.499	575.555	80.000	19.997	103.114	20.300	5.660	0.531
997.000	575.768	80.000	19.998	103.115	20.300	5.688	0.502
997.499	576.055	79.999	19.998	103.114	20.301	5.576	0.487
997.999	576.276	80.001	19.998	103.114	20.301	5.594	0.504
998.499	576.543	80.000	19.997	103.114	20.300	5.664	0.498
998.999	576.807	80.000	19.997	103.114	20.301	5.609	0.509
999.500	577.057	80.000	19.996	103.114	20.305	5.340	0.522
1000.001	577.326	80.000	19.996	103.113	20.303	5.491	0.516
1000.500	577.582	80.000	19.997	103.114	20.301	5.600	0.522
1001.000	577.842	79.999	19.997	103.114	20.301	5.570	0.521
1001.501	578.107	80.000	19.997	103.114	20.300	5.640	0.520
1002.000	578.322	79.999	19.997	103.111	20.303	5.432	0.502
1002.499	578.583	80.000	19.997	103.108	20.305	5.333	0.478
1003.000	578.846	79.998	19.998	103.106	20.300	5.679	0.500
1003.501	579.138	80.000	19.998	103.106	20.302	5.543	0.539
1004.000	579.367	79.999	19.996	103.105	20.302	5.556	0.538
1004.499	579.604	80.000	19.997	103.106	20.299	5.712	0.494
1004.999	579.839	80.000	19.997	103.108	20.299	5.705	0.469
1005.499	580.086	80.000	19.997	103.108	20.298	5.767	0.477
1005.999	580.384	80.001	19.997	103.107	20.301	5.579	0.513
1006.499	580.639	80.001	19.998	103.107	20.302	5.502	0.549
1006.999	580.872	79.999	19.997	103.108	20.299	5.738	0.521
1007.499	581.132	80.002	19.998	103.110	20.303	5.486	0.490
1007.999	581.388	80.000	19.996	103.112	20.301	5.628	0.504
1008.499	581.662	80.001	19.997	103.114	20.304	5.370	0.523
1008.999	581.894	80.001	19.997	103.116	20.303	5.495	0.518
1009.500	582.166	80.001	19.998	103.116	20.302	5.523	0.505
1010.000	582.411	80.000	19.997	103.116	20.302	5.528	0.510
1010.499	582.711	80.001	19.996	103.117	20.304	5.427	0.531
1010.999	582.953	80.001	19.996	103.116	20.304	5.393	0.544
1011.499	583.202	80.000	19.995	103.113	20.302	5.519	0.517
1011.999	583.469	80.001	19.997	103.114	20.302	5.500	0.503
1012.499	583.693	80.001	19.996	103.114	20.302	5.508	0.504
1012.999	583.943	80.001	19.997	103.115	20.299	5.701	0.483
1013.499	584.215	80.002	19.997	103.115	20.304	5.386	0.498
1013.999	584.492	80.000	19.997	103.115	20.302	5.526	0.535
1014.499	584.702	80.001	19.997	103.114	20.304	5.425	0.518
1014.999	584.971	79.999	19.996	103.113	20.301	5.618	0.483
1015.499	585.201	80.000	19.996	103.113	20.299	5.738	0.489
1015.999	585.480	80.000	19.996	103.111	20.302	5.545	0.504
1016.499	585.726	80.000	19.996	103.109	20.301	5.622	0.517
1016.999	585.965	80.000	19.996	103.110	20.300	5.668	0.505
1017.500	586.215	80.001	19.997	103.110	20.301	5.578	0.487
1018.001	586.430	80.000	19.995	103.111	20.299	5.727	0.477
1018.500	586.708	80.000	19.996	103.115	20.298	5.777	0.479
1018.999	586.960	80.000	19.995	103.118	20.303	5.471	0.511
1019.499	587.209	80.001	19.996	103.118	20.299	5.703	0.516
1019.999	587.480	80.000	19.996	103.118	20.303	5.434	0.511
1020.500	587.733	80.000	19.996	103.117	20.301	5.576	0.522
1021.000	587.988	80.001	19.996	103.116	20.301	5.574	0.516
1021.499	588.258	80.001	19.995	103.115	20.301	5.611	0.517
1022.000	588.537	79.999	19.996	103.115	20.299	5.759	0.537
1022.500	588.742	80.000	19.996	103.116	20.301	5.617	0.516
1022.999	588.994	80.000	19.996	103.116	20.299	5.737	0.471
1023.499	589.316	80.001	19.995	103.117	20.300	5.642	0.516
1023.999	589.587	80.000	19.995	103.117	20.300	5.683	0.583
1024.499	589.808	80.000	19.996	103.117	20.300	5.672	0.542
1024.999	590.084	80.000	19.996	103.117	20.298	5.766	0.495
1025.499	590.338	80.001	19.996	103.117	20.300	5.661	0.514
1025.999	590.591	79.999	19.996	103.117	20.305	5.329	0.519
1026.500	590.844	80.001	19.996	103.117	20.301	5.582	0.506
1027.000	591.083	80.001	19.996	103.117	20.301	5.628	0.499
1027.499	591.369	80.001	19.996	103.116	20.300	5.668	0.509
1027.999	591.607	80.001	19.996	103.115	20.303	5.478	0.525
1028.500	591.855	80.002	19.996	103.112	20.300	5.661	0.505
1029.000	592.142	80.001	19.997	103.111	20.301	5.578	0.510
1029.500	592.380	80.001	19.995	103.111	20.300	5.657	0.530
1030.000	592.619	80.002	19.996	103.112	20.298	5.799	0.501
1030.500	592.909	80.002	19.996	103.114	20.303	5.476	0.503
1031.000	593.154	80.002	19.996	103.117	20.300	5.696	0.532
1031.499	593.437	80.002	19.996	103.117	20.303	5.454	0.532
1031.999	593.691	80.002	19.996	103.118	20.300	5.677	0.533
1032.499	593.964	80.001	19.996	103.118	20.298	5.794	0.532
1032.999	594.200	80.001	19.996	103.118	20.296	5.939	0.518
1033.499	594.462	80.002	19.996	103.117	20.300	5.644	0.503
1034.000	594.755	80.001	19.996	103.118	20.302	5.537	0.527
1034.500	595.039	80.001	19.996	103.117	20.297	5.891	0.567
1035.000	595.284	80.003	19.997	103.117	20.298	5.781	0.553
1035.501	595.504	80.002	19.996	103.117	20.299	5.758	0.497
1036.000	595.819	80.001	19.995	103.117	20.298	5.773	0.500
1036.500	596.071	80.002	19.995	103.117	20.298	5.770	0.551
1037.001	596.293	80.001	19.995	103.116	20.299	5.709	0.520
1037.501	596.609	80.003	19.995	103.116	20.296	5.925	0.506
1038.000	596.837	80.002	19.995	103.117	20.300	5.694	0.541
1038.499	597.114	80.003	19.996	103.116	20.300	5.642	0.525
1039.000	597.371	80.001	19.995	103.116	20.298	5.794	0.519
1039.500	597.655	80.002	19.996	103.116	20.297	5.889	0.537
1040.000	597.919	80.002	19.995	103.116	20.300	5.672	0.544
1040.500	598.170	80.001	19.996	103.115	20.302	5.511	0.532
1040.999	598.415	80.001	19.994	103.115	20.300	5.672	0.506
1041.499	598.655	80.000	19.996	103.115	20.299	5.736	0.490
1042.000	598.972	80.001	19.995	103.115	20.302	5.534	0.521
1042.501	599.168	80.002	19.995	103.115	20.303	5.493	0.535
1043.001	599.418	80.001	19.996	103.117	20.304	5.371	0.480
1043.501	599.716	80.002	19.995	103.117	20.303	5.439	0.497
1044.001	599.936	80.002	19.995	103.118	20.303	5.458	0.532
1044.501	600.206	80.001	19.995	103.117	20.303	5.489	0.504
1045.001	600.480	80.001	19.995	103.117	20.302	5.537	0.518
1045.501	600.746	80.002	19.995	103.115	20.302	5.521	0.542
1046.001	600.990	80.001	19.996	103.115	20.300	5.642	0.524
1046.501	601.271	80.000	19.995	103.114	20.299	5.727	0.518
1047.001	601.536	80.002	19.995	103.114	20.298	5.808	0.536
1047.500	601.770	80.001	19.994	103.116	20.301	5.628	0.522
1047.999	602.054	80.001	19.994	103.117	20.300	5.679	0.508
1048.499	602.283	80.001	19.993	103.117	20.298	5.803	0.515
1048.998	602.533	80.002	19.996	103.117	20.300	5.668	0.496
1049.498	602.807	80.001	19.996	103.116	20.304	5.412	0.502
1049.999	603.070	80.002	19.994	103.116	20.300	5.675	0.531
1050.499	603.327	80.002	19.995	103.116	20.299	5.725	0.528
1050.998	603.591	80.002	19.996	103.116	20.299	5.718	0.520
1051.499	603.825	80.001	19.996	103.116	20.301	5.611	0.510
1052.000	604.105	80.001	19.995	103.117	20.304	5.382	0.506
1052.501	604.390	80.003	19.996	103.117	20.302	5.548	0.540
1053.000	604.607	80.003	19.996	103.116	20.301	5.581	0.533
1053.499	604.900	80.002	19.996	103.115	20.299	5.729	0.506
1053.999	605.166	80.003	19.996	103.112	20.303	5.443	0.535
1054.499	605.384	80.002	19.995	103.112	20.302	5.563	0.522
1055.000	605.649	80.003	19.996	103.113	20.302	5.550	0.484
1055.500	605.920	80.002	19.996	103.113	20.303	5.438	0.510
1056.000	606.178	80.003	19.995	103.113	20.303	5.491	0.532
1056.500	606.455	80.004	19.995	103.115	20.301	5.607	0.532
1057.000	606.681	80.003	19.996	103.115	20.302	5.513	0.519
1057.501	606.948	80.003	19.996	103.115	20.301	5.602	0.498
1058.000	607.261	80.003	19.996	103.115	20.300	5.668	0.537
1058.500	607.472	80.002	19.996	103.114	20.299	5.721	0.552
1059.000	607.774	80.003	19.995	103.113	20.302	5.565	0.519
1059.500	608.010	80.004	19.996	103.112	20.300	5.661	0.525
1060.000	608.268	80.003	19.996	103.110	20.300	5.670	0.516
1060.500	608.518	80.003	19.995	103.109	20.300	5.670	0.501
1060.999	608.764	80.004	19.996	103.109	20.300	5.659	0.502
1061.499	609.038	80.004	19.997	103.108	20.301	5.620	0.508
1061.999	609.285	80.004	19.995	103.108	20.298	5.815	0.521
1062.500	609.560	80.003	19.996	103.110	20.299	5.708	0.522
1063.000	609.830	80.003	19.996	103.110	20.297	5.872	0.534
1063.499	610.090	80.003	19.997	103.110	20.300	5.690	0.537
1064.000	610.332	80.004	19.997	103.111	20.303	5.470	0.516
1064.501	610.555	80.003	19.997	103.111	20.300	5.690	0.484
1065.001	610.823	80.003	19.997	103.111	20.296	5.898	0.478
1065.501	611.103	80.002	19.996	103.111	20.297	5.841	0.520
1066.000	611.362	80.002	19.996	103.112	20.301	5.629	0.543
1066.500	611.594	80.004	19.995	103.113	20.296	5.908	0.515
1067.000	611.875	80.002	19.997	103.113	20.298	5.781	0.502
1067.500	612.119	80.002	19.996	103.113	20.301	5.624	0.519
1068.001	612.392	80.002	19.998	103.113	20.302	5.519	0.522
1068.500	612.652	80.003	19.997	103.113	20.301	5.613	0.525
1068.999	612.933	80.001	19.997	103.111	20.300	5.683	0.537
1069.499	613.194	80.000	19.997	103.111	20.300	5.636	0.541
1070.000	613.458	80.000	19.998	103.112	20.301	5.576	0.533
1070.501	613.721	80.001	19.997	103.111	20.300	5.638	0.526
1071.000	613.935	80.002	19.997	103.108	20.300	5.696	0.502
1071.500	614.209	80.001	19.996	103.108	20.300	5.662	0.483
1072.000	614.473	80.000	19.997	103.108	20.303	5.485	0.513
1072.500	614.762	80.002	19.996	103.107	20.302	5.532	0.545
1073.000	614.986	80.001	19.996	103.107	20.303	5.452	0.533
1073.500	615.279	80.001	19.996	103.106	20.301	5.605	0.515
1074.000	615.500	80.000	19.996	103.102	20.298	5.782	0.515
1074.499	615.783	80.001	19.996	103.102	20.300	5.675	0.509
1074.999	616.042	80.001	19.997	103.103	20.302	5.565	0.523
1075.499	616.296	80.002	19.997	103.105	20.301	5.587	0.528
1075.999	616.542	80.002	19.995	103.109	20.298	5.795	0.507
1076.500	616.803	80.001	19.997	103.113	20.298	5.775	0.503
1077.000	617.030	80.001	19.997	103.114	20.300	5.644	0.497
1077.499	617.335	80.000	19.997	103.114	20.301	5.567	0.509
1078.000	617.570	80.001	19.997	103.114	20.300	5.639	0.536
1078.500	617.801	80.002	19.995	103.114	20.298	5.780	0.504
1078.999	618.075	80.001	19.997	103.111	20.300	5.650	0.485
1079.499	618.318	80.001	19.996	103.110	20.299	5.742	0.510
1079.999	618.560	80.001	19.996	103.111	20.298	5.825	0.501
1080.499	618.838	80.002	19.996	103.110	20.299	5.699	0.503
1080.999	619.134	80.000	19.995	103.108	20.300	5.664	0.547
1081.499	619.342	80.000	19.997	103.110	20.297	5.895	0.539
1082.000	619.647	80.001	19.996	103.111	20.299	5.749	0.509
1082.501	619.901	80.002	19.996	103.110	20.300	5.664	0.536
1083.000	620.141	80.001	19.996	103.111	20.299	5.747	0.526
1083.500	620.419	80.000	19.995	103.112	20.300	5.641	0.506
1084.001	620.672	80.001	19.996	103.113	20.300	5.668	0.525
1084.501	620.926	80.000	19.996	103.113	20.300	5.657	0.520
1085.000	621.181	80.001	19.996	103.114	20.304	5.410	0.509
1085.500	621.440	80.001	19.996	103.115	20.301	5.613	0.512
1086.000	621.708	80.001	19.997	103.115	20.299	5.738	0.520
1086.499	621.971	80.002	19.995	103.115	20.301	5.605	0.529
1086.999	622.220	80.002	19.997	103.115	20.303	5.454	0.522
1087.500	622.417	80.002	19.997	103.115	20.299	5.716	0.479
1088.000	622.734	80.000	19.996	103.115	20.296	5.922	0.480
1088.499	622.956	80.000	19.997	103.115	20.298	5.767	0.526
1088.999	623.234	80.002	19.996	103.115	20.298	5.801	0.519
1089.499	623.465	80.002	19.997	103.113	20.299	5.740	0.505
1090.000	623.758	80.000	19.996	103.113	20.298	5.777	0.517
1090.501	624.009	80.001	19.995	103.112	20.297	5.836	0.534
1091.001	624.254	80.001	19.996	103.112	20.298	5.808	0.520
1091.501	624.500	80.001	19.996	103.113	20.298	5.797	0.494
1092.001	624.787	80.001	19.996	103.115	20.297	5.889	0.511
1092.500	625.008	80.001	19.996	103.114	20.300	5.654	0.520
1092.999	625.302	80.001	19.997	103.115	20.296	5.907	0.512
1093.500	625.567	80.001	19.996	103.115	20.300	5.691	0.537
1094.001	625.813	80.000	19.998	103.115	20.300	5.634	0.535
1094.500	626.058	80.000	19.996	103.117	20.299	5.727	0.501
1094.999	626.300	80.001	19.996	103.117	20.300	5.694	0.489
1095.499	626.562	79.998	19.996	103.115	20.300	5.668	0.496
1095.999	626.853	80.001	19.996	103.113	20.298	5.794	0.529
1096.499	627.092	80.000	19.997	103.110	20.300	5.698	0.541
1096.999	627.332	80.000	19.996	103.108	20.301	5.629	0.504
1097.500	627.648	80.000	19.998	103.107	20.301	5.583	0.518
1098.000	627.862	79.999	19.996	103.107	20.301	5.593	0.543
1098.499	628.136	80.000	19.997	103.109	20.298	5.770	0.509
1099.000	628.406	79.998	19.997	103.111	20.299	5.748	0.516
1099.500	628.635	80.000	19.997	103.112	20.302	5.556	0.521
1099.999	628.878	79.999	19.997	103.112	20.297	5.879	0.485
1100.499	629.190	80.000	19.997	103.114	20.298	5.779	0.514
1100.999	629.412	80.000	19.996	103.113	20.299	5.753	0.545
1101.499	629.654	80.000	19.996	103.114	20.298	5.828	0.499
1101.999	629.874	80.001	19.995	103.112	20.302	5.541	0.463
1102.499	630.136	80.000	19.996	103.106	20.301	5.566	0.471
1103.000	630.394	80.000	19.996	103.100	20.299	5.715	0.501
1103.500	630.683	80.000	19.996	103.099	20.299	5.750	0.534
1103.999	630.906	80.000	19.996	103.097	20.297	5.847	0.529
1104.499	631.188	79.999	19.997	103.099	20.298	5.777	0.509
1104.999	631.438	79.999	19.996	103.104	20.300	5.659	0.519
1105.500	631.682	80.000	19.995	103.111	20.299	5.730	0.513
1106.001	631.942	79.999	19.996	103.113	20.300	5.675	0.499
1106.500	632.244	80.000	19.997	103.115	20.299	5.758	0.533
1106.999	632.460	80.001	19.996	103.115	20.298	5.828	0.540
1107.499	632.711	79.999	19.995	103.117	20.299	5.747	0.493
1107.999	632.967	80.000	19.995	103.117	20.298	5.789	0.487
1108.500	633.213	79.999	19.995	103.117	20.298	5.788	0.504
1109.000	633.497	79.999	19.995	103.118	20.299	5.714	0.516
1109.500	633.725	80.000	19.996	103.118	20.300	5.649	0.521
1110.000	634.004	80.000	19.995	103.117	20.299	5.738	0.510
1110.500	634.253	80.002	19.995	103.117	20.297	5.836	0.518
1111.000	634.499	80.001	19.995	103.118	20.294	6.053	0.511
1111.500	634.782	80.002	19.996	103.116	20.299	5.756	0.511
1112.001	635.034	80.001	19.994	103.116	20.297	5.872	0.532
1112.500	635.271	80.000	19.996	103.113	20.299	5.754	0.513
1113.000	635.523	80.001	19.995	103.110	20.299	5.717	0.489
1113.500	635.812	80.001	19.995	103.104	20.300	5.693	0.514
1114.000	636.071	80.002	19.995	103.104	20.298	5.802	0.544
1114.500	636.287	80.001	19.994	103.104	20.295	5.981	0.512
1115.000	636.582	80.002	19.996	103.107	20.299	5.734	0.493
1115.500	636.855	80.002	19.996	103.109	20.299	5.714	0.540
1116.000	637.109	80.002	19.996	103.111	20.297	5.847	0.547
1116.501	637.341	80.003	19.996	103.109	20.299	5.710	0.506
1117.000	637.557	80.002	19.996	103.109	20.295	5.970	0.467
1117.499	637.827	80.003	19.995	103.108	20.297	5.832	0.467
1118.000	638.068	80.003	19.996	103.108	20.301	5.616	0.499
1118.500	638.315	80.002	19.996	103.108	20.298	5.806	0.500
1118.999	638.590	80.003	19.996	103.109	20.299	5.756	0.505
1119.500	638.835	80.002	19.995	103.109	20.297	5.874	0.521
1120.001	639.123	80.002	19.995	103.109	20.295	5.983	0.527
1120.501	639.358	80.003	19.996	103.110	20.302	5.563	0.528
1121.001	639.624	80.003	19.996	103.111	20.296	5.904	0.512
1121.500	639.895	80.003	19.997	103.111	20.290	6.313	0.519
1122.000	640.103	80.002	19.996	103.109	20.298	5.821	0.508
1122.500	640.343	80.004	19.996	103.103	20.298	5.786	0.463
1122.999	640.603	80.000	19.996	103.097	20.296	5.946	0.474
1123.500	640.845	80.002	19.995	103.092	20.294	6.081	0.501
1124.001	641.115	80.002	19.996	103.091	20.299	5.723	0.507
1124.500	641.352	80.002	19.996	103.093	20.298	5.798	0.510
1124.999	641.605	80.002	19.996	103.100	20.296	5.909	0.499
1125.500	641.865	80.002	19.996	103.105	20.296	5.942	0.502
1126.000	642.106	80.003	19.996	103.112	20.298	5.791	0.507
1126.500	642.347	80.002	19.996	103.115	20.299	5.740	0.491
1127.001	642.646	80.002	19.995	103.114	20.298	5.819	0.511
1127.501	642.893	80.002	19.995	103.114	20.293	6.107	0.543
1128.000	643.108	80.002	19.996	103.113	20.297	5.832	0.504
1128.499	643.338	80.002	19.997	103.111	20.296	5.924	0.453
1128.999	643.580	80.001	19.994	103.106	20.298	5.801	0.458
1129.499	643.849	80.002	19.996	103.105	20.296	5.956	0.491
1129.998	644.104	80.001	19.995	103.105	20.297	5.852	0.518
1130.499	644.377	80.001	19.995	103.105	20.300	5.697	0.526
1130.999	644.590	80.002	19.996	103.107	20.294	6.077	0.507
1131.498	644.817	80.002	19.996	103.111	20.298	5.776	0.463
1131.998	645.067	80.002	19.996	103.110	20.296	5.920	0.459
1132.498	645.345	80.002	19.995	103.109	20.297	5.847	0.503
1132.999	645.621	80.002	19.996	103.109	20.293	6.156	0.541
1133.499	645.860	80.002	19.996	103.109	20.299	5.708	0.534
1134.000	646.049	80.003	19.996	103.111	20.297	5.880	0.471
1134.500	646.322	80.004	19.996	103.113	20.294	6.040	0.445
1135.000	646.577	80.002	19.997	103.110	20.296	5.954	0.495
1135.500	646.833	80.002	19.994	103.105	20.296	5.950	0.519
1135.999	647.066	80.004	19.996	103.101	20.296	5.908	0.500
1136.499	647.311	80.003	19.995	103.101	20.295	6.031	0.484
1137.000	647.580	80.002	19.995	103.102	20.296	5.898	0.496
1137.501	647.843	80.004	19.996	103.108	20.295	5.968	0.523
1138.001	648.100	80.003	19.996	103.113	20.297	5.876	0.526
1138.501	648.367	80.002	19.994	103.116	20.299	5.723	0.522
1139.001	648.602	80.002	19.994	103.116	20.295	5.992	0.513
1139.501	648.866	80.003	19.995	103.115	20.294	6.072	0.500
1140.001	649.123	80.004	19.996	103.114	20.296	5.908	0.510
1140.501	649.349	80.003	19.995	103.114	20.296	5.910	0.502
1141.001	649.622	80.003	19.996	103.112	20.296	5.930	0.491
1141.500	649.852	80.004	19.995	103.108	20.299	5.712	0.501
1141.999	650.121	80.002	19.995	103.108	20.296	5.945	0.501
1142.499	650.356	80.003	19.994	103.107	20.297	5.873	0.502
1143.000	650.606	80.005	19.994	103.107	20.298	5.816	0.494
1143.500	650.867	80.003	19.994	103.107	20.299	5.725	0.498
1144.000	651.133	80.004	19.994	103.110	20.297	5.853	0.519
1144.500	651.324	80.004	19.995	103.109	20.296	5.947	0.492
1145.000	651.595	80.005	19.994	103.110	20.301	5.631	0.459
1145.500	651.856	80.003	19.995	103.109	20.299	5.745	0.497
1146.000	652.102	80.001	19.995	103.111	20.301	5.615	0.520
1146.500	652.366	80.004	19.995	103.110	20.297	5.867	0.508
1147.000	652.586	80.003	19.995	103.110	20.302	5.500	0.497
1147.501	652.872	80.004	19.996	103.109	20.297	5.875	0.495
1148.000	653.114	80.003	19.996	103.106	20.301	5.624	0.517
1148.499	653.394	80.004	19.995	103.105	20.299	5.738	0.525
1149.000	653.629	80.002	19.995	103.106	20.299	5.744	0.519
1149.500	653.867	80.002	19.996	103.107	20.300	5.672	0.495
1149.999	654.100	80.001	19.995	103.109	20.298	5.830	0.472
1150.500	654.363	80.001	19.996	103.113	20.301	5.596	0.483
1151.000	654.639	80.001	19.995	103.114	20.301	5.569	0.517
1151.499	654.887	80.001	19.996	103.115	20.300	5.677	0.531
1152.000	655.140	80.001	19.996	103.115	20.298	5.792	0.512
1152.501	655.415	80.001	19.995	103.115	20.297	5.878	0.515
1153.001	655.657	80.000	19.996	103.115	20.300	5.652	0.523
1153.500	655.916	80.001	19.995	103.116	20.297	5.869	0.509
1153.999	656.148	80.001	19.996	103.115	20.296	5.920	0.496
1154.499	656.396	80.000	19.995	103.115	20.299	5.743	0.485
1154.999	656.648	80.000	19.996	103.116	20.295	5.966	0.490
1155.500	656.920	80.001	19.997	103.115	20.296	5.911	0.512
1156.001	657.168	80.000	19.995	103.111	20.297	5.884	0.522
1156.501	657.394	80.001	19.994	103.112	20.296	5.950	0.497
1157.000	657.691	80.000	19.996	103.113	20.301	5.583	0.499
1157.500	657.936	80.000	19.997	103.113	20.299	5.736	0.532
1158.000	658.169	80.002	19.996	103.115	20.301	5.615	0.510
1158.499	658.409	80.000	19.996	103.117	20.297	5.849	0.475
1158.999	658.733	80.000	19.995	103.117	20.294	6.067	0.519
1159.499	658.931	80.001	19.996	103.116	20.299	5.727	0.544
1159.999	659.198	80.001	19.997	103.116	20.296	5.949	0.494
1160.499	659.443	80.000	19.996	103.115	20.299	5.764	0.488
1160.999	659.692	79.999	19.996	103.117	20.300	5.676	0.503
1161.499	659.939	80.000	19.996	103.117	20.293	6.124	0.495
1161.999	660.201	79.999	19.997	103.117	20.296	5.936	0.503
1162.499	660.451	80.000	19.997	103.116	20.297	5.853	0.510
1162.999	660.681	80.000	19.996	103.117	20.296	5.911	0.496
1163.499	660.922	80.001	19.997	103.117	20.297	5.865	0.475
1163.999	661.181	79.999	19.996	103.115	20.299	5.755	0.485
1164.499	661.462	79.998	19.996	103.111	20.295	5.967	0.520
1164.999	661.673	80.000	19.995	103.110	20.297	5.860	0.517
1165.499	661.957	80.000	19.997	103.108	20.295	5.985	0.494
1166.000	662.181	80.000	19.994	103.108	20.295	5.972	0.501
1166.501	662.450	80.001	19.996	103.110	20.296	5.924	0.501
1167.001	662.706	80.001	19.996	103.114	20.297	5.897	0.509
1167.501	662.946	80.001	19.996	103.115	20.300	5.694	0.510
1168.000	663.209	80.001	19.996	103.116	20.299	5.709	0.500
1168.499	663.457	80.001	19.997	103.117	20.298	5.781	0.507
1169.000	663.681	80.000	19.997	103.117	20.298	5.803	0.491
1169.501	663.969	80.001	19.998	103.117	20.298	5.775	0.492
1170.000	664.180	80.001	19.996	103.117	20.300	5.637	0.505
1170.500	664.430	80.001	19.996	103.117	20.299	5.731	0.480
1171.001	664.688	80.001	19.996	103.117	20.298	5.795	0.485
1171.500	664.975	80.000	19.996	103.117	20.299	5.732	0.527
1172.000	665.207	80.001	19.995	103.117	20.296	5.898	0.532
1172.501	665.469	80.001	19.995	103.116	20.297	5.872	0.507
1173.001	665.734	80.000	19.996	103.117	20.298	5.773	0.510
1173.500	665.959	80.001	19.995	103.117	20.296	5.955	0.508
1173.999	666.214	79.999	19.996	103.113	20.295	6.014	0.485
1174.500	666.461	80.001	19.995	103.112	20.295	6.023	0.492
1175.000	666.726	79.999	19.998	103.114	20.294	6.042	0.507
1175.499	666.997	80.000	19.995	103.114	20.294	6.051	0.524
1175.999	667.243	80.001	19.997	103.114	20.294	6.097	0.526
1176.499	667.511	80.000	19.996	103.116	20.294	6.096	0.516
1177.000	667.771	79.999	19.995	103.117	20.294	6.040	0.521
1177.501	668.013	80.001	19.996	103.116	20.298	5.786	0.515
1178.000	668.258	79.999	19.996	103.116	20.298	5.824	0.495
1178.499	668.514	80.000	19.997	103.116	20.296	5.913	0.494
1179.000	668.766	80.000	19.995	103.118	20.295	5.968	0.504
1179.500	669.027	80.000	19.997	103.119	20.298	5.791	0.511
1179.999	669.294	80.000	19.996	103.120	20.294	6.062	0.520
1180.499	669.567	80.000	19.995	103.120	20.297	5.872	0.533
1181.000	669.845	80.000	19.996	103.120	20.294	6.084	0.545
1181.500	670.124	80.001	19.996	103.118	20.296	5.948	0.554
1182.000	670.346	80.001	19.997	103.115	20.296	5.921	0.529
1182.500	670.618	80.000	19.996	103.111	20.293	6.100	0.498
1183.000	670.898	80.000	19.997	103.110	20.295	6.016	0.523
1183.500	671.126	79.999	19.995	103.109	20.295	6.028	0.530
1184.001	671.418	80.000	19.997	103.109	20.295	6.029	0.514
1184.500	671.696	80.000	19.997	103.109	20.293	6.153	0.545
1184.999	671.939	80.000	19.997	103.109	20.297	5.897	0.546
1185.500	672.172	79.998	19.998	103.105	20.294	6.033	0.499
1186.001	672.474	80.000	19.997	103.104	20.297	5.873	0.505
1186.500	672.687	79.999	19.997	103.103	20.297	5.896	0.525
1187.000	673.029	80.000	19.998	103.106	20.295	5.989	0.535
1187.500	673.277	79.999	19.996	103.109	20.295	6.016	0.572
1188.000	673.506	80.001	19.996	103.111	20.294	6.079	0.533
1188.501	673.750	80.001	19.996	103.109	20.294	6.042	0.475
1189.000	674.037	80.000	19.997	103.108	20.295	5.965	0.502
1189.500	674.269	79.999	19.997	103.104	20.295	6.012	0.525
1190.000	674.548	79.999	19.998	103.100	20.293	6.145	0.515
1190.500	674.858	79.999	19.997	103.100	20.294	6.056	0.550
1191.000	675.115	79.999	19.998	103.103	20.293	6.152	0.578
1191.499	675.391	80.001	19.998	103.105	20.290	6.361	0.550
1192.000	675.631	80.000	19.996	103.109	20.292	6.186	0.524
1192.500	675.922	80.000	19.997	103.113	20.293	6.118	0.523
1193.000	676.181	80.001	19.997	103.113	20.291	6.232	0.541
1193.500	676.454	80.001	19.996	103.113	20.294	6.049	0.542
1193.999	676.693	80.001	19.996	103.113	20.293	6.149	0.522
1194.500	676.938	80.002	19.997	103.113	20.296	5.908	0.498
1195.000	677.209	80.001	19.997	103.112	20.294	6.038	0.500
1195.500	677.477	80.002	19.997	103.113	20.292	6.225	0.527
1196.001	677.780	80.002	19.996	103.113	20.294	6.051	0.555
1196.501	677.991	80.002	19.996	103.112	20.292	6.167	0.543
1197.000	678.262	80.002	19.996	103.112	20.296	5.950	0.498
1197.500	678.508	80.001	19.996	103.109	20.293	6.118	0.499
1198.000	678.805	80.002	19.997	103.108	20.294	6.055	0.530
1198.499	679.041	80.000	19.997	103.108	20.293	6.112	0.538
1199.000	679.327	80.001	19.997	103.109	20.291	6.272	0.527
1199.500	679.610	80.002	19.996	103.109	20.295	5.968	0.545
1199.999	679.888	80.002	19.996	103.110	20.295	6.024	0.565
1200.499	680.119	80.003	19.994	103.107	20.290	6.321	0.535
1201.000	680.355	80.002	19.995	103.103	20.290	6.363	0.488
1201.500	680.635	80.001	19.995	103.102	20.291	6.253	0.492
1202.000	680.901	80.003	19.996	103.103	20.293	6.103	0.531
1202.500	681.141	80.003	19.996	103.102	20.293	6.124	0.526
1203.001	681.388	80.004	19.997	103.106	20.291	6.258	0.497
1203.500	681.673	80.002	19.996	103.107	20.291	6.247	0.510
1204.000	681.905	80.002	19.995	103.107	20.290	6.328	0.525
1204.500	682.178	80.003	19.994	103.108	20.291	6.282	0.511
1205.000	682.431	80.003	19.995	103.110	20.292	6.192	0.515
1205.500	682.705	80.003	19.995	103.111	20.291	6.286	0.526
1206.001	682.939	80.002	19.995	103.110	20.292	6.199	0.518
1206.501	683.179	80.002	19.996	103.111	20.290	6.357	0.491
1207.000	683.444	80.002	19.996	103.109	20.290	6.331	0.489
1207.499	683.742	80.003	19.996	103.109	20.289	6.407	0.534
1207.999	683.966	80.002	19.995	103.108	20.294	6.073	0.543
1208.499	684.231	80.002	19.995	103.109	20.292	6.197	0.506
1208.999	684.468	80.001	19.995	103.108	20.292	6.228	0.496
1209.499	684.758	80.002	19.995	103.108	20.294	6.042	0.515
1209.999	684.985	80.003	19.996	103.108	20.292	6.166	0.522
1210.499	685.281	80.002	19.995	103.108	20.296	5.963	0.520
1210.999	685.504	80.002	19.997	103.109	20.292	6.206	0.521
1211.499	685.817	80.002	19.996	103.111	20.290	6.321	0.527
1211.999	686.042	80.002	19.995	103.112	20.294	6.048	0.537
1212.499	686.298	80.002	19.996	103.113	20.291	6.291	0.510
1212.999	686.583	80.002	19.995	103.114	20.294	6.094	0.511
1213.499	686.815	80.002	19.996	103.114	20.294	6.053	0.529
1214.000	687.083	80.001	19.995	103.113	20.293	6.111	0.508
1214.500	687.311	80.000	19.996	103.114	20.292	6.208	0.498
1214.999	687.571	80.001	19.996	103.114	20.291	6.245	0.493
1215.500	687.861	80.001	19.996	103.113	20.293	6.118	0.519
1216.000	688.094	80.001	19.997	103.113	20.293	6.125	0.536
1216.499	688.374	80.003	19.995	103.112	20.295	6.031	0.518
1216.999	688.592	80.002	19.996	103.109	20.292	6.215	0.505
1217.500	688.843	80.001	19.996	103.104	20.292	6.193	0.483
1218.000	689.110	80.002	19.995	103.102	20.292	6.208	0.493
1218.499	689.319	80.002	19.995	103.102	20.293	6.127	0.497
1218.999	689.635	80.001	19.996	103.103	20.293	6.133	0.501
1219.500	689.838	80.001	19.996	103.106	20.294	6.083	0.522
1220.000	690.109	80.003	19.995	103.111	20.289	6.376	0.496
1220.500	690.392	80.001	19.996	103.113	20.290	6.313	0.514
1221.000	690.640	80.004	19.994	103.115	20.288	6.439	0.543
1221.500	690.876	80.002	19.996	103.114	20.290	6.352	0.508
1222.001	691.136	80.002	19.996	103.114	20.288	6.450	0.490
1222.500	691.382	80.003	19.994	103.112	20.291	6.278	0.500
1222.999	691.635	80.003	19.994	103.113	20.291	6.253	0.502
1223.499	691.907	80.004	19.995	103.112	20.292	6.199	0.512
1224.000	692.146	80.003	19.997	103.113	20.290	6.299	0.518
1224.501	692.429	80.003	19.995	103.113	20.293	6.144	0.516
1225.001	692.634	80.003	19.995	103.113	20.293	6.160	0.505
1225.501	692.891	80.003	19.993	103.113	20.290	6.339	0.475
1226.000	693.116	80.003	19.995	103.111	20.291	6.267	0.472
1226.499	693.391	80.003	19.995	103.107	20.291	6.268	0.491
1227.000	693.651	80.003	19.997	103.108	20.291	6.273	0.518
1227.500	693.908	80.003	19.995	103.109	20.289	6.367	0.526
1228.000	694.177	80.004	19.995	103.109	20.294	6.059	0.521
1228.500	694.437	80.003	19.996	103.110	20.292	6.172	0.528
1229.000	694.643	80.002	19.995	103.114	20.290	6.330	0.497
1229.500	694.931	80.003	19.996	103.114	20.291	6.282	0.480
1229.999	695.186	80.002	19.995	103.115	20.292	6.225	0.519
1230.499	695.398	80.002	19.995	103.115	20.290	6.326	0.505
1230.999	695.668	80.002	19.995	103.115	20.291	6.240	0.474
1231.499	695.939	80.003	19.995	103.112	20.289	6.378	0.511
1232.000	696.155	80.001	19.995	103.111	20.291	6.293	0.514
1232.500	696.449	80.002	19.995	103.111	20.290	6.356	0.499
1233.000	696.644	80.003	19.995	103.111	20.289	6.375	0.500
1233.501	696.901	80.001	19.995	103.111	20.291	6.279	0.471
1234.000	697.149	80.000	19.995	103.114	20.290	6.364	0.479
1234.500	697.401	80.000	19.995	103.114	20.289	6.413	0.502
1235.000	697.615	80.001	19.997	103.114	20.289	6.393	0.483
1235.499	697.862	80.001	19.997	103.114	20.288	6.437	0.464
1235.999	698.136	80.001	19.997	103.115	20.289	6.380	0.492
1236.500	698.364	80.001	19.997	103.115	20.292	6.214	0.512
1237.001	698.615	80.001	19.996	103.116	20.290	6.310	0.490
1237.500	698.866	80.001	19.996	103.117	20.294	6.035	0.491
1237.999	699.120	80.001	19.995	103.117	20.293	6.125	0.504
1238.500	699.394	80.000	19.995	103.117	20.289	6.394	0.516
1238.999	699.615	80.001	19.995	103.118	20.292	6.221	0.511
1239.499	699.834	80.002	19.994	103.116	20.291	6.254	0.468
1239.999	700.120	80.001	19.996	103.115	20.291	6.243	0.472
1240.499	700.315	80.001	19.994	103.115	20.294	6.097	0.493
1240.999	700.546	80.001	19.994	103.115	20.294	6.075	0.453
1241.500	700.807	80.001	19.996	103.115	20.290	6.352	0.459
1242.000	701.028	80.001	19.996	103.116	20.291	6.262	0.487
1242.500	701.260	80.002	19.995	103.118	20.290	6.315	0.468
1243.001	701.523	80.001	19.996	103.117	20.293	6.123	0.474
1243.501	701.771	80.001	19.995	103.117	20.290	6.341	0.503
1244.000	702.035	80.000	19.995	103.118	20.293	6.101	0.512
1244.500	702.228	80.001	19.995	103.119	20.291	6.274	0.484
1244.999	702.460	80.001	19.996	103.119	20.288	6.466	0.441
1245.499	702.699	80.001	19.994	103.120	20.292	6.171	0.448
1245.999	702.971	80.001	19.995	103.120	20.289	6.403	0.491
1246.499	703.202	80.001	19.995	103.118	20.291	6.282	0.507
1246.999	703.442	80.001	19.995	103.116	20.288	6.488	0.487
1247.500	703.722	80.002	19.994	103.116	20.291	6.273	0.495
1248.000	703.935	80.001	19.995	103.114	20.287	6.540	0.507
1248.500	704.145	80.001	19.996	103.113	20.290	6.322	0.458
1249.001	704.407	80.001	19.996	103.113	20.290	6.363	0.447
1249.500	704.650	80.000	19.995	103.111	20.291	6.285	0.489
1249.999	704.875	80.001	19.996	103.104	20.289	6.422	0.487
1250.499	705.142	80.001	19.996	103.099	20.294	6.071	0.480
1250.999	705.402	80.001	19.997	103.101	20.290	6.338	0.509
1251.500	705.625	80.001	19.995	103.099	20.291	6.265	0.505
1252.000	705.873	80.001	19.997	103.100	20.292	6.196	0.477
1252.499	706.114	80.002	19.996	103.105	20.290	6.322	0.480
1253.000	706.368	80.002	19.995	103.109	20.289	6.368	0.492
1253.500	706.597	80.001	19.997	103.110	20.291	6.237	0.489
1253.999	706.816	80.002	19.996	103.110	20.292	6.226	0.465
1254.500	707.098	80.001	19.997	103.106	20.289	6.391	0.474
1255.000	707.327	80.001	19.996	103.104	20.289	6.370	0.507
1255.500	707.596	80.001	19.996	103.102	20.289	6.394	0.505
1256.001	707.825	80.001	19.996	103.100	20.290	6.359	0.498
1256.500	708.063	80.003	19.996	103.101	20.289	6.426	0.482
1257.000	708.330	80.002	19.997	103.105	20.285	6.634	0.486
1257.500	708.562	80.002	19.997	103.108	20.288	6.435	0.503
1258.000	708.796	80.002	19.996	103.108	20.286	6.606	0.482
1258.500	709.027	80.003	19.997	103.109	20.285	6.669	0.465
1259.000	709.262	80.002	19.996	103.110	20.291	6.275	0.465
1259.500	709.510	80.002	19.997	103.110	20.288	6.475	0.474
1259.999	709.752	80.001	19.996	103.109	20.288	6.457	0.487
1260.500	710.003	80.001	19.996	103.109	20.289	6.405	0.492
1261.000	710.240	80.002	19.996	103.107	20.287	6.564	0.491
1261.499	710.469	80.002	19.995	103.101	20.289	6.407	0.477
1261.999	710.730	80.002	19.996	103.098	20.292	6.177	0.478
1262.500	710.982	80.001	19.996	103.098	20.293	6.142	0.502
1263.001	711.233	80.001	19.997	103.099	20.282	6.852	0.508
1263.501	711.463	80.001	19.996	103.101	20.287	6.553	0.492
1264.000	711.696	80.000	19.996	103.107	20.285	6.667	0.472
1264.499	711.977	80.001	19.996	103.107	20.288	6.461	0.488
1265.000	712.207	80.001	19.996	103.108	20.285	6.682	0.513
1265.500	712.469	80.002	19.997	103.108	20.285	6.654	0.502
1265.999	712.709	80.001	19.995	103.109	20.284	6.735	0.497
1266.500	712.952	80.001	19.996	103.109	20.286	6.625	0.493
1266.999	713.156	80.000	19.996	103.111	20.285	6.661	0.465
1267.499	713.451	80.000	19.998	103.111	20.285	6.694	0.473
1268.000	713.684	80.002	19.997	103.112	20.286	6.606	0.513
1268.499	713.897	80.001	19.996	103.113	20.285	6.634	0.486
1268.999	714.138	80.001	19.996	103.112	20.282	6.864	0.449
1269.499	714.399	80.001	19.996	103.112	20.283	6.826	0.478
1270.000	714.646	80.000	19.996	103.113	20.285	6.658	0.506
1270.500	714.884	80.002	19.996	103.110	20.287	6.559	0.497
1270.999	715.106	80.001	19.995	103.110	20.287	6.544	0.472
1271.499	715.380	80.003	19.997	103.111	20.284	6.756	0.478
1272.000	715.598	80.002	19.997	103.112	20.284	6.732	0.494
1272.500	715.866	80.002	19.996	103.111	20.287	6.548	0.489
1273.000	716.127	80.000	19.997	103.114	20.287	6.536	0.508
1273.501	716.343	80.001	19.998	103.113	20.285	6.690	0.503
1274.000	716.601	79.999	19.997	103.114	20.286	6.581	0.476
1274.499	716.855	80.001	19.997	103.114	20.287	6.557	0.493
1275.000	717.095	80.002	19.996	103.114	20.287	6.498	0.503
1275.500	717.311	80.001	19.996	103.114	20.286	6.584	0.475
1275.999	717.542	80.003	19.997	103.114	20.285	6.634	0.451
1276.500	717.831	80.002	19.996	103.113	20.285	6.649	0.483
1277.001	718.039	80.002	19.995	103.108	20.287	6.542	0.508
1277.500	718.308	80.002	19.996	103.108	20.287	6.529	0.487
1278.000	718.516	80.001	19.996	103.107	20.287	6.562	0.477
1278.500	718.767	80.002	19.997	103.103	20.287	6.537	0.468
1278.999	719.034	80.002	19.997	103.100	20.288	6.459	0.489
1279.499	719.252	80.002	19.995	103.105	20.287	6.532	0.501
1279.999	719.496	80.002	19.996	103.107	20.287	6.521	0.473
1280.500	719.761	80.002	19.996	103.112	20.289	6.372	0.486
1281.000	720.004	80.002	19.997	103.117	20.286	6.567	0.509
1281.499	720.216	80.002	19.996	103.120	20.285	6.662	0.482
1282.000	720.512	80.003	19.996	103.119	20.286	6.610	0.482
1282.500	720.733	80.003	19.996	103.118	20.284	6.750	0.513
1282.999	721.003	80.002	19.996	103.114	20.283	6.793	0.504
1283.500	721.242	80.003	19.997	103.113	20.285	6.651	0.500
1284.000	721.488	80.003	19.996	103.113	20.285	6.671	0.497
1284.499	721.726	80.002	19.996	103.113	20.287	6.511	0.484
1284.999	721.982	80.002	19.997	103.113	20.283	6.804	0.489
1285.500	722.243	80.002	19.996	103.113	20.288	6.490	0.506
1286.001	722.477	80.002	19.996	103.113	20.285	6.671	0.506
1286.500	722.711	80.003	19.996	103.114	20.285	6.669	0.481
1287.000	722.983	80.002	19.997	103.114	20.285	6.662	0.487
1287.501	723.211	80.001	19.996	103.115	20.282	6.861	0.503
1288.000	723.462	80.001	19.996	103.115	20.279	7.041	0.489
1288.500	723.730	80.002	19.996	103.115	20.281	6.916	0.499
1288.999	724.005	80.001	19.996	103.115	20.283	6.797	0.531
1289.500	724.246	80.004	19.996	103.114	20.283	6.788	0.529
1290.000	724.495	80.002	19.996	103.109	20.284	6.731	0.503
1290.500	724.765	80.001	19.995	103.106	20.282	6.853	0.505
1291.000	725.019	80.003	19.995	103.105	20.281	6.899	0.522
1291.499	725.223	80.002	19.996	103.105	20.283	6.765	0.491
1291.999	725.476	80.003	19.995	103.107	20.283	6.799	0.457
1292.499	725.755	80.002	19.995	103.112	20.282	6.834	0.495
1292.999	725.994	80.003	19.996	103.115	20.279	7.059	0.526
1293.499	726.235	80.003	19.996	103.115	20.283	6.775	0.499
1293.999	726.473	80.002	19.995	103.115	20.280	6.980	0.479
1294.499	726.751	80.002	19.995	103.114	20.283	6.805	0.497
1294.999	726.987	80.002	19.996	103.113	20.283	6.766	0.515
1295.500	727.237	80.002	19.995	103.113	20.282	6.836	0.500
1296.000	727.439	80.003	19.994	103.114	20.279	7.050	0.469
1296.500	727.712	80.002	19.995	103.112	20.281	6.945	0.463
1297.000	727.941	80.002	19.994	103.111	20.282	6.834	0.488
1297.501	728.220	80.001	19.995	103.112	20.281	6.959	0.505
1298.000	728.447	80.002	19.995	103.111	20.282	6.860	0.507
1298.499	728.705	80.002	19.996	103.107	20.278	7.133	0.496
1298.999	728.949	80.003	19.994	103.107	20.281	6.938	0.493
1299.499	729.214	80.003	19.996	103.104	20.281	6.940	0.505
1299.999	729.438	80.002	19.994	103.099	20.280	6.991	0.499
1300.499	729.680	80.003	19.995	103.099	20.283	6.822	0.478
1300.999	729.938	80.002	19.996	103.104	20.285	6.697	0.483
1301.500	730.146	80.004	19.995	103.105	20.283	6.776	0.483
1302.001	730.405	80.003	19.996	103.108	20.280	6.971	0.467
1302.501	730.673	80.003	19.995	103.107	20.280	7.004	0.497
1303.000	730.934	80.003	19.995	103.101	20.280	7.010	0.528
1303.500	731.182	80.002	19.996	103.097	20.284	6.743	0.519
1304.000	731.401	80.002	19.994	103.091	20.282	6.846	0.488
1304.499	731.656	80.004	19.996	103.090	20.281	6.946	0.470
1304.999	731.898	80.003	19.995	103.096	20.282	6.885	0.485
1305.499	732.139	80.004	19.994	103.100	20.283	6.815	0.490
1305.999	732.421	80.003	19.996	103.103	20.277	7.167	0.503
1306.499	732.633	80.004	19.995	103.103	20.280	6.986	0.509
1306.999	732.861	80.003	19.995	103.101	20.281	6.913	0.468
1307.499	733.126	80.004	19.995	103.098	20.282	6.896	0.467
1308.000	733.350	80.003	19.995	103.097	20.282	6.837	0.491
1308.501	733.624	80.003	19.995	103.097	20.280	6.996	0.494
1309.000	733.892	80.003	19.995	103.101	20.281	6.950	0.520
1309.499	734.081	80.004	19.995	103.102	20.280	7.005	0.500
1310.000	734.355	80.005	19.996	103.106	20.280	7.016	0.460
1310.500	734.599	80.005	19.996	103.106	20.279	7.053	0.490
1311.000	734.855	80.004	19.995	103.107	20.281	6.903	0.508
1311.501	735.111	80.003	19.995	103.108	20.279	7.036	0.506
1312.001	735.345	80.003	19.994	103.109	20.280	7.018	0.501
1312.500	735.575	80.003	19.995	103.109	20.281	6.953	0.477
1313.000	735.856	80.004	19.994	103.111	20.281	6.913	0.487
1313.500	736.090	80.004	19.996	103.107	20.278	7.164	0.514
1314.000	736.365	80.003	19.994	103.107	20.282	6.845	0.512
1314.500	736.595	80.003	19.995	103.108	20.277	7.221	0.507
1314.999	736.863	80.003	19.995	103.109	20.277	7.222	0.502
1315.499	737.083	80.004	19.995	103.109	20.279	7.032	0.493
1315.999	737.333	80.001	19.995	103.113	20.280	6.995	0.479
1316.500	737.587	80.002	19.995	103.114	20.277	7.165	0.487
1317.001	737.840	80.002	19.996	103.114	20.280	6.990	0.505
1317.500	738.088	80.002	19.995	103.114	20.277	7.185	0.504
1317.999	738.337	80.001	19.994	103.114	20.279	7.060	0.499
1318.499	738.593	80.002	19.995	103.114	20.279	7.051	0.501
1318.999	738.864	80.001	19.994	103.115	20.278	7.126	0.516
1319.500	739.068	80.002	19.996	103.115	20.279	7.075	0.501
1320.000	739.311	80.003	19.995	103.116	20.278	7.099	0.461
1320.499	739.600	80.004	19.996	103.115	20.277	7.167	0.490
1320.999	739.844	80.002	19.995	103.115	20.278	7.154	0.532
1321.499	740.091	80.003	19.995	103.115	20.280	7.018	0.512
1321.999	740.353	80.002	19.995	103.114	20.277	7.180	0.500
1322.499	740.594	80.003	19.995	103.114	20.279	7.073	0.506
1323.000	740.828	80.002	19.995	103.114	20.278	7.112	0.489
1323.500	741.124	80.002	19.994	103.114	20.278	7.114	0.502
1323.999	741.346	80.002	19.995	103.115	20.278	7.112	0.524
1324.500	741.584	80.003	19.995	103.116	20.277	7.187	0.489
1325.001	741.846	80.003	19.996	103.116	20.278	7.161	0.480
1325.500	742.093	80.003	19.995	103.116	20.276	7.263	0.504
1325.999	742.392	80.003	19.995	103.114	20.278	7.145	0.528
1326.499	742.578	80.002	19.995	103.111	20.277	7.165	0.516
1326.999	742.901	80.004	19.996	103.110	20.279	7.054	0.497
1327.500	743.129	80.003	19.995	103.110	20.274	7.390	0.530
1327.999	743.391	80.002	19.995	103.110	20.278	7.150	0.521
1328.499	743.640	80.002	19.996	103.110	20.280	7.009	0.501
