Sample ID:	C:\MCC\MCC Cal\Test\Ext_Plywood_MCC_30K_min_211007_R3.txt
Sample Weight (mg):	4.4
Heating Rate (C/s):	0.5
Combustor Temp (C):	900
N2 Flow Rate (cc/min):	80
O2 Flow Rate (cc/min):	20
Calibration File:	C:\MCC\MCC Cal\Coeff1 JN10440_30_210304.txt.txt
T Correction Coefficients:	0	1.024463	0
Time Shift (s):	14
*
Time (s)	Temperature (C)	N2 flow rate (cc/min)	O2 flow rate (cc/min)	Flow Rate (cc/min)	Oxygen (%)	HRR (W/g)	Heating rate (C/s)
0.000	106.181	79.997	19.995	100.694	19.985	-0.165	0.013
0.500	106.145	79.996	19.997	100.689	19.982	0.025	0.002
1.000	106.143	79.996	19.996	100.684	19.982	0.065	-0.035
1.500	106.187	79.996	19.997	100.682	19.979	0.274	0.002
2.000	106.170	79.997	19.997	100.685	19.982	0.084	0.035
2.500	106.164	79.997	19.997	100.686	19.983	0.017	0.002
3.000	106.188	79.997	19.996	100.686	19.982	0.048	-0.003
3.500	106.164	79.997	19.996	100.687	19.983	0.008	0.009
4.000	106.169	79.996	19.995	100.686	19.983	-0.034	-0.010
4.500	106.166	79.997	19.996	100.681	19.985	-0.130	-0.009
5.000	106.181	79.998	19.996	100.676	19.979	0.266	0.007
5.500	106.169	79.997	19.996	100.674	19.983	-0.006	0.008
6.000	106.155	79.996	19.996	100.672	19.982	0.059	-0.011
6.500	106.172	79.998	19.996	100.668	19.981	0.155	-0.011
7.000	106.173	79.995	19.995	100.668	19.982	0.092	0.010
7.500	106.137	79.997	19.996	100.668	19.981	0.155	-0.009
8.001	106.186	79.996	19.996	100.671	19.983	-0.025	-0.011
8.502	106.146	79.997	19.996	100.675	19.982	0.067	0.011
9.001	106.177	79.997	19.997	100.681	19.980	0.170	0.000
9.500	106.186	79.996	19.996	100.686	19.981	0.123	0.016
10.000	106.170	79.997	19.996	100.689	19.980	0.167	0.016
10.500	106.153	79.996	19.996	100.687	19.979	0.301	-0.020
11.000	106.154	79.998	19.995	100.687	19.981	0.165	-0.024
11.500	106.133	79.998	19.997	100.687	19.981	0.140	-0.018
12.000	106.184	79.997	19.995	100.687	19.979	0.251	0.005
12.500	106.167	79.997	19.995	100.691	19.980	0.167	0.032
13.000	106.123	79.996	19.995	100.691	19.983	0.000	-0.013
13.501	106.144	79.999	19.995	100.690	19.983	-0.017	-0.042
14.001	106.152	79.997	19.996	100.691	19.983	-0.036	0.003
14.500	106.141	79.997	19.995	100.694	19.981	0.132	0.013
15.000	106.143	79.997	19.995	100.696	19.981	0.149	-0.006
15.501	106.164	79.997	19.996	100.702	19.982	0.034	0.007
16.001	106.155	79.997	19.996	100.703	19.980	0.218	0.018
16.500	106.138	79.996	19.996	100.700	19.981	0.117	-0.007
17.001	106.157	79.999	19.995	100.698	19.980	0.197	-0.012
17.501	106.143	79.998	19.995	100.697	19.979	0.289	0.004
18.000	106.151	79.998	19.995	100.696	19.977	0.389	-0.000
18.500	106.185	79.997	19.996	100.701	19.979	0.299	0.018
19.000	106.151	79.998	19.995	100.705	19.978	0.330	0.021
19.500	106.143	79.998	19.996	100.708	19.976	0.483	-0.021
20.000	106.186	79.998	19.996	100.708	19.977	0.397	-0.004
20.500	106.142	79.999	19.995	100.710	19.977	0.418	0.017
21.000	106.200	79.996	19.996	100.708	19.974	0.617	0.007
21.500	106.116	79.997	19.996	100.712	19.976	0.479	-0.006
22.000	106.154	79.997	19.996	100.713	19.973	0.669	-0.036
22.500	106.204	79.997	19.994	100.714	19.974	0.612	0.021
23.000	106.169	79.997	19.995	100.717	19.975	0.585	0.051
23.500	106.192	79.997	19.996	100.738	19.973	0.681	0.001
24.000	106.156	79.996	19.995	100.736	19.973	0.690	-0.012
24.500	106.238	79.998	19.996	100.734	19.975	0.594	0.016
25.000	106.210	79.996	19.995	100.735	19.969	0.987	0.050
25.500	106.224	79.997	19.996	100.739	19.971	0.834	0.020
26.001	106.239	79.996	19.995	100.726	19.970	0.884	0.008
26.501	106.242	79.997	19.995	100.732	19.972	0.767	0.023
27.000	106.258	79.998	19.996	100.741	19.968	1.064	0.018
27.500	106.289	79.997	19.997	100.747	19.968	1.095	0.033
28.000	106.308	79.998	19.997	100.749	19.972	0.775	0.048
28.500	106.339	79.997	19.996	100.753	19.967	1.139	0.050
29.000	106.319	79.997	19.996	100.754	19.967	1.101	0.031
29.501	106.376	79.998	19.996	100.764	19.966	1.185	0.024
30.001	106.365	79.996	19.996	100.757	19.963	1.411	0.041
30.500	106.419	79.996	19.996	100.744	19.964	1.333	0.044
31.000	106.387	79.996	19.997	100.730	19.965	1.281	0.033
31.500	106.400	79.996	19.996	100.725	19.968	1.039	0.002
32.000	106.406	79.996	19.997	100.715	19.965	1.254	0.000
32.500	106.472	79.997	19.996	100.728	19.967	1.156	0.045
33.000	106.448	79.998	19.997	100.769	19.965	1.256	0.057
33.500	106.477	79.996	19.997	100.805	19.964	1.377	0.024
34.000	106.496	79.996	19.996	100.825	19.964	1.331	0.027
34.500	106.500	79.998	19.997	100.833	19.965	1.268	0.035
35.000	106.544	79.996	19.996	100.835	19.964	1.325	0.035
35.500	106.585	79.998	19.996	100.812	19.962	1.508	0.067
36.000	106.594	79.996	19.995	100.792	19.965	1.281	0.068
36.500	106.604	79.997	19.995	100.784	19.964	1.379	0.034
37.000	106.656	79.996	19.995	100.784	19.961	1.558	0.041
37.501	106.708	79.996	19.996	100.786	19.959	1.713	0.083
38.001	106.731	79.998	19.996	100.790	19.959	1.711	0.089
38.500	106.785	79.997	19.996	100.798	19.962	1.512	0.076
39.000	106.827	79.998	19.997	100.806	19.958	1.782	0.086
39.500	106.863	79.997	19.997	100.814	19.957	1.821	0.087
40.000	106.848	79.997	19.996	100.821	19.955	1.968	0.050
40.500	106.914	79.998	19.996	100.826	19.956	1.944	0.036
41.000	106.936	79.999	19.996	100.827	19.955	1.955	0.069
41.500	106.954	79.997	19.996	100.828	19.956	1.934	0.064
42.000	107.029	79.999	19.996	100.832	19.954	2.084	0.067
42.500	107.090	79.999	19.995	100.835	19.956	1.884	0.114
43.000	107.118	79.999	19.996	100.839	19.955	2.022	0.112
43.500	107.170	80.000	19.996	100.838	19.955	1.994	0.084
44.000	107.226	79.998	19.996	100.841	19.953	2.103	0.094
44.500	107.256	79.999	19.996	100.843	19.953	2.163	0.097
45.001	107.331	80.000	19.996	100.843	19.951	2.243	0.096
45.501	107.369	79.998	19.995	100.845	19.951	2.303	0.109
46.001	107.442	79.999	19.996	100.852	19.955	2.003	0.112
46.501	107.508	79.999	19.996	100.855	19.950	2.381	0.125
47.000	107.547	79.999	19.996	100.857	19.947	2.550	0.122
47.500	107.597	79.997	19.995	100.862	19.950	2.326	0.097
48.000	107.660	79.997	19.996	100.864	19.948	2.458	0.101
48.500	107.715	79.998	19.996	100.866	19.947	2.564	0.115
49.000	107.791	79.998	19.997	100.866	19.948	2.520	0.124
49.500	107.833	79.997	19.997	100.869	19.945	2.721	0.125
50.001	107.918	79.998	19.996	100.872	19.946	2.667	0.123
50.501	107.972	79.998	19.996	100.877	19.949	2.389	0.133
51.001	108.032	79.997	19.996	100.877	19.942	2.907	0.127
51.501	108.138	79.997	19.996	100.878	19.945	2.704	0.140
52.000	108.178	79.997	19.997	100.877	19.943	2.854	0.155
52.500	108.268	79.997	19.995	100.876	19.943	2.854	0.138
53.000	108.389	79.997	19.995	100.876	19.941	2.992	0.171
53.500	108.424	79.997	19.996	100.879	19.945	2.715	0.183
54.000	108.539	79.996	19.996	100.884	19.943	2.827	0.153
54.500	108.588	79.997	19.995	100.890	19.941	3.003	0.157
55.001	108.664	79.996	19.996	100.891	19.939	3.140	0.144
55.501	108.761	79.997	19.996	100.890	19.942	2.930	0.148
56.000	108.843	79.998	19.997	100.890	19.941	2.969	0.176
56.500	108.966	79.996	19.996	100.888	19.941	2.972	0.192
57.000	109.018	79.997	19.997	100.886	19.940	3.053	0.190
57.500	109.108	79.996	19.996	100.886	19.940	3.032	0.159
58.000	109.214	79.997	19.997	100.891	19.940	3.046	0.169
58.500	109.299	79.997	19.996	100.894	19.941	2.977	0.193
59.000	109.421	79.997	19.996	100.896	19.940	3.042	0.199
59.500	109.495	79.996	19.997	100.899	19.936	3.324	0.202
60.000	109.624	79.999	19.996	100.902	19.936	3.326	0.199
60.500	109.711	79.997	19.997	100.902	19.940	3.038	0.209
61.001	109.816	79.997	19.997	100.902	19.940	3.098	0.204
61.501	109.898	79.998	19.996	100.903	19.941	3.005	0.189
62.000	109.984	79.996	19.996	100.903	19.939	3.157	0.178
62.500	110.134	79.999	19.996	100.903	19.939	3.148	0.202
63.000	110.228	79.998	19.997	100.902	19.936	3.344	0.239
63.500	110.304	79.996	19.996	100.901	19.939	3.152	0.207
64.000	110.441	79.998	19.997	100.901	19.943	2.880	0.192
64.500	110.539	79.999	19.997	100.902	19.937	3.288	0.224
65.000	110.646	79.998	19.996	100.902	19.938	3.237	0.220
65.500	110.754	80.000	19.998	100.902	19.938	3.233	0.210
66.001	110.844	79.999	19.996	100.902	19.938	3.235	0.206
66.501	110.954	79.999	19.997	100.900	19.936	3.358	0.199
67.001	111.100	79.999	19.997	100.897	19.937	3.246	0.228
67.500	111.178	79.999	19.997	100.896	19.938	3.175	0.240
68.000	111.308	80.000	19.996	100.898	19.938	3.183	0.216
68.500	111.393	80.001	19.995	100.901	19.936	3.365	0.212
69.000	111.542	80.000	19.996	100.908	19.937	3.294	0.225
69.501	111.652	80.001	19.996	100.911	19.939	3.104	0.246
70.001	111.798	80.000	19.997	100.918	19.939	3.152	0.257
70.500	111.895	80.000	19.997	100.916	19.939	3.108	0.249
71.000	112.026	80.000	19.996	100.913	19.937	3.283	0.236
71.500	112.185	80.000	19.996	100.908	19.939	3.164	0.259
72.000	112.280	79.999	19.996	100.908	19.933	3.548	0.272
72.500	112.380	79.999	19.996	100.908	19.936	3.339	0.225
73.000	112.533	79.998	19.995	100.915	19.939	3.168	0.224
73.500	112.664	80.000	19.996	100.920	19.933	3.582	0.268
74.000	112.799	79.999	19.995	100.927	19.936	3.385	0.275
74.500	112.921	79.999	19.996	100.934	19.933	3.540	0.262
75.001	113.053	80.000	19.995	100.935	19.934	3.523	0.255
75.501	113.213	79.999	19.996	100.936	19.935	3.415	0.272
76.001	113.351	79.999	19.995	100.938	19.934	3.488	0.295
76.501	113.489	79.998	19.996	100.939	19.934	3.506	0.287
77.000	113.635	79.998	19.995	100.939	19.934	3.469	0.280
77.500	113.766	79.998	19.995	100.939	19.930	3.811	0.281
78.000	113.920	79.998	19.995	100.940	19.932	3.667	0.281
78.500	114.077	79.999	19.995	100.940	19.932	3.669	0.298
79.000	114.217	79.998	19.995	100.940	19.933	3.569	0.304
79.500	114.339	79.998	19.996	100.940	19.931	3.676	0.280
80.000	114.524	79.998	19.995	100.940	19.932	3.638	0.285
80.501	114.668	79.998	19.994	100.940	19.931	3.740	0.318
81.001	114.835	79.998	19.995	100.940	19.931	3.738	0.320
81.500	114.998	79.996	19.995	100.940	19.930	3.775	0.321
82.000	115.141	79.998	19.995	100.941	19.933	3.562	0.318
82.500	115.326	79.997	19.996	100.941	19.928	3.938	0.317
83.000	115.413	79.995	19.996	100.940	19.931	3.744	0.300
83.501	115.592	79.998	19.996	100.940	19.927	3.997	0.269
84.001	115.780	79.998	19.995	100.941	19.931	3.717	0.317
84.500	115.934	79.997	19.996	100.941	19.929	3.859	0.355
85.000	116.110	79.997	19.995	100.941	19.928	3.917	0.336
85.500	116.274	79.996	19.997	100.943	19.929	3.828	0.335
86.000	116.412	79.997	19.996	100.943	19.930	3.811	0.321
86.500	116.595	79.997	19.996	100.943	19.926	4.043	0.312
87.000	116.773	79.998	19.995	100.943	19.929	3.852	0.341
87.500	116.949	80.000	19.996	100.943	19.924	4.224	0.357
88.000	117.103	79.998	19.996	100.943	19.927	4.021	0.342
88.500	117.264	79.997	19.995	100.943	19.928	3.940	0.322
89.000	117.407	79.998	19.996	100.943	19.929	3.877	0.309
89.500	117.564	79.998	19.996	100.943	19.926	4.061	0.302
90.000	117.744	79.999	19.995	100.944	19.924	4.196	0.319
90.500	117.937	79.999	19.997	100.943	19.929	3.886	0.355
91.000	118.088	79.996	19.996	100.942	19.926	4.092	0.358
91.500	118.313	79.998	19.997	100.948	19.926	4.062	0.359
92.000	118.426	79.997	19.996	100.951	19.927	4.004	0.357
92.501	118.600	79.997	19.996	100.952	19.927	3.983	0.313
93.001	118.821	79.998	19.996	100.954	19.925	4.150	0.341
93.501	119.020	79.998	19.996	100.955	19.925	4.109	0.408
94.001	119.194	79.999	19.996	100.954	19.927	4.028	0.397
94.500	119.353	79.998	19.996	100.952	19.926	4.098	0.353
95.000	119.531	79.998	19.996	100.957	19.926	4.046	0.335
95.500	119.707	79.999	19.996	100.956	19.926	4.036	0.345
96.000	119.886	79.998	19.997	100.955	19.924	4.209	0.355
96.500	120.116	79.998	19.997	100.950	19.924	4.244	0.382
97.000	120.278	79.997	19.997	100.953	19.925	4.111	0.401
97.500	120.449	79.998	19.995	100.949	19.923	4.276	0.362
98.000	120.649	79.998	19.996	100.956	19.924	4.209	0.352
98.500	120.850	79.998	19.996	100.962	19.924	4.201	0.386
99.000	121.040	79.998	19.996	100.968	19.921	4.424	0.396
99.500	121.261	79.996	19.996	100.965	19.922	4.343	0.401
100.000	121.420	79.999	19.996	100.964	19.922	4.338	0.396
100.500	121.595	79.997	19.996	100.962	19.923	4.297	0.357
101.000	121.809	79.998	19.996	100.961	19.922	4.324	0.362
101.500	121.998	79.998	19.995	100.962	19.921	4.430	0.396
102.000	122.171	79.997	19.996	100.967	19.921	4.403	0.383
102.500	122.422	79.997	19.995	100.972	19.925	4.138	0.393
103.000	122.582	79.997	19.996	100.974	19.924	4.218	0.417
103.500	122.816	79.996	19.996	100.975	19.925	4.122	0.402
104.000	122.982	79.998	19.996	100.969	19.925	4.132	0.397
104.500	123.208	79.997	19.996	100.964	19.922	4.367	0.397
105.000	123.396	79.998	19.996	100.959	19.922	4.384	0.403
105.500	123.611	79.997	19.995	100.958	19.922	4.328	0.408
106.000	123.831	79.997	19.995	100.961	19.922	4.336	0.419
106.500	124.022	79.997	19.996	100.967	19.923	4.251	0.423
107.000	124.273	79.997	19.995	100.972	19.925	4.109	0.427
107.500	124.473	79.997	19.994	100.971	19.925	4.109	0.447
108.000	124.677	79.996	19.997	100.966	19.923	4.307	0.428
108.500	124.903	79.996	19.996	100.960	19.924	4.219	0.417
109.000	125.088	79.995	19.996	100.957	19.924	4.225	0.420
109.500	125.292	79.997	19.995	100.958	19.925	4.164	0.399
110.000	125.461	79.997	19.996	100.960	19.927	3.973	0.381
110.501	125.698	79.997	19.996	100.961	19.924	4.204	0.390
111.001	125.922	79.998	19.996	100.960	19.928	3.950	0.433
111.500	126.112	79.997	19.995	100.958	19.926	4.050	0.437
112.000	126.349	79.997	19.996	100.956	19.926	4.034	0.421
112.500	126.543	79.998	19.996	100.954	19.923	4.292	0.429
113.000	126.800	79.997	19.996	100.953	19.924	4.180	0.441
113.500	127.003	79.996	19.995	100.956	19.931	3.738	0.456
114.000	127.181	79.998	19.995	100.955	19.924	4.234	0.420
114.500	127.412	79.997	19.995	100.955	19.926	4.094	0.395
115.000	127.641	79.996	19.995	100.958	19.924	4.186	0.435
115.500	127.873	79.998	19.996	100.965	19.923	4.282	0.460
116.001	128.065	79.997	19.996	100.965	19.924	4.227	0.443
116.501	128.372	79.997	19.996	100.963	19.923	4.279	0.462
117.000	128.556	79.997	19.995	100.960	19.927	4.017	0.495
117.501	128.740	79.996	19.996	100.959	19.925	4.119	0.429
118.001	128.982	79.998	19.995	100.958	19.924	4.240	0.397
118.500	129.224	79.998	19.996	100.964	19.923	4.282	0.455
119.000	129.426	79.996	19.996	100.968	19.927	3.998	0.464
119.500	129.658	79.997	19.996	100.973	19.924	4.194	0.439
120.000	129.840	79.998	19.995	100.977	19.925	4.163	0.424
120.500	130.082	79.997	19.995	100.978	19.924	4.246	0.419
121.000	130.344	79.999	19.996	100.977	19.926	4.104	0.464
121.500	130.569	79.999	19.996	100.977	19.925	4.137	0.495
122.000	130.743	79.999	19.995	100.975	19.923	4.265	0.443
122.500	130.986	79.998	19.996	100.968	19.925	4.167	0.409
123.000	131.246	79.999	19.997	100.964	19.925	4.123	0.460
123.500	131.483	79.999	19.995	100.963	19.926	4.071	0.500
124.000	131.726	79.997	19.995	100.959	19.923	4.259	0.488
124.500	131.950	79.997	19.996	100.958	19.924	4.177	0.473
125.000	132.166	79.998	19.996	100.965	19.924	4.202	0.454
125.501	132.397	79.996	19.996	100.969	19.922	4.361	0.444
126.001	132.608	79.998	19.997	100.968	19.924	4.213	0.445
126.500	132.847	79.998	19.997	100.972	19.926	4.100	0.445
127.000	133.066	79.998	19.997	100.975	19.926	4.034	0.454
127.500	133.329	79.999	19.997	100.975	19.926	4.048	0.470
128.000	133.527	79.998	19.996	100.973	19.929	3.854	0.472
128.500	133.751	79.997	19.996	100.974	19.924	4.205	0.441
129.000	134.005	79.999	19.996	100.975	19.925	4.119	0.450
129.500	134.241	79.999	19.997	100.971	19.923	4.299	0.484
130.000	134.484	79.997	19.996	100.972	19.919	4.549	0.485
130.500	134.699	79.998	19.996	100.972	19.921	4.394	0.469
131.000	134.964	79.998	19.997	100.973	19.922	4.338	0.468
131.500	135.163	79.999	19.997	100.974	19.924	4.242	0.472
132.000	135.399	79.997	19.996	100.977	19.925	4.132	0.450
132.500	135.690	79.998	19.996	100.973	19.924	4.217	0.481
133.000	135.933	79.998	19.996	100.969	19.923	4.305	0.531
133.500	136.153	79.998	19.996	100.966	19.921	4.403	0.499
134.000	136.401	79.999	19.997	100.965	19.921	4.419	0.465
134.500	136.615	79.999	19.997	100.964	19.920	4.532	0.465
135.000	136.907	79.997	19.997	100.967	19.923	4.298	0.484
135.500	137.155	79.997	19.997	100.969	19.918	4.643	0.523
136.000	137.370	79.998	19.996	100.968	19.922	4.380	0.501
136.500	137.615	79.998	19.996	100.967	19.925	4.165	0.461
137.000	137.881	79.997	19.996	100.965	19.920	4.529	0.485
137.500	138.101	79.998	19.996	100.965	19.920	4.516	0.498
138.000	138.348	79.996	19.996	100.965	19.919	4.543	0.476
138.500	138.569	79.998	19.996	100.966	19.922	4.345	0.468
139.000	138.872	79.998	19.995	100.964	19.923	4.287	0.496
139.500	139.101	79.998	19.996	100.965	19.922	4.329	0.528
140.000	139.344	79.997	19.996	100.966	19.920	4.464	0.502
140.500	139.576	79.999	19.996	100.966	19.923	4.268	0.474
141.000	139.830	79.999	19.996	100.969	19.921	4.443	0.481
141.500	140.057	79.999	19.996	100.970	19.918	4.633	0.483
142.000	140.331	79.998	19.996	100.968	19.922	4.320	0.491
142.500	140.597	79.998	19.995	100.964	19.922	4.354	0.520
143.000	140.830	80.000	19.996	100.962	19.923	4.312	0.519
143.500	141.043	79.999	19.996	100.961	19.924	4.225	0.473
144.000	141.257	79.998	19.996	100.962	19.924	4.218	0.437
144.500	141.576	79.999	19.996	100.966	19.924	4.220	0.480
145.000	141.793	79.999	19.996	100.970	19.921	4.393	0.534
145.500	142.080	79.999	19.996	100.971	19.921	4.439	0.520
146.000	142.289	80.000	19.996	100.968	19.925	4.143	0.500
146.500	142.558	79.999	19.997	100.967	19.923	4.280	0.487
147.000	142.808	79.999	19.996	100.960	19.922	4.320	0.499
147.500	143.032	79.999	19.995	100.956	19.920	4.464	0.497
148.000	143.307	80.001	19.996	100.954	19.924	4.231	0.487
148.500	143.557	80.000	19.996	100.952	19.925	4.166	0.512
149.000	143.810	79.999	19.996	100.948	19.922	4.364	0.514
149.500	144.059	79.999	19.995	100.946	19.924	4.245	0.502
150.000	144.326	80.000	19.997	100.943	19.919	4.537	0.509
150.500	144.584	80.000	19.997	100.940	19.922	4.343	0.521
151.001	144.837	79.999	19.997	100.943	19.922	4.360	0.518
151.500	145.088	79.998	19.997	100.944	19.922	4.364	0.507
152.000	145.360	79.998	19.997	100.947	19.924	4.195	0.514
152.500	145.639	79.999	19.997	100.948	19.920	4.466	0.537
153.000	145.830	79.999	19.996	100.948	19.923	4.300	0.511
153.500	146.124	79.997	19.997	100.945	19.919	4.598	0.478
154.000	146.344	79.999	19.998	100.943	19.922	4.341	0.499
154.500	146.643	79.998	19.998	100.941	19.921	4.402	0.516
155.000	146.887	79.997	19.997	100.941	19.922	4.350	0.531
155.500	147.136	79.998	19.997	100.941	19.924	4.227	0.518
156.000	147.385	79.997	19.997	100.945	19.923	4.274	0.496
156.500	147.636	79.997	19.997	100.951	19.921	4.396	0.499
157.000	147.902	79.998	19.997	100.951	19.920	4.466	0.508
157.500	148.141	79.996	19.997	100.950	19.922	4.349	0.511
158.000	148.423	79.997	19.997	100.950	19.920	4.475	0.513
158.500	148.678	79.998	19.998	100.946	19.919	4.585	0.529
159.000	148.932	79.997	19.996	100.939	19.916	4.775	0.523
159.500	149.202	79.997	19.996	100.943	19.919	4.542	0.517
160.000	149.446	79.998	19.997	100.950	19.922	4.350	0.519
160.500	149.725	79.997	19.996	100.951	19.920	4.467	0.518
161.000	149.991	79.997	19.996	100.951	19.920	4.498	0.534
161.500	150.185	79.996	19.997	100.953	19.921	4.402	0.503
162.000	150.466	79.997	19.997	100.949	19.926	4.087	0.468
162.500	150.737	79.998	19.997	100.943	19.922	4.323	0.513
163.000	150.974	79.999	19.997	100.942	19.923	4.258	0.530
163.500	151.259	79.997	19.996	100.942	19.920	4.521	0.515
164.000	151.508	79.996	19.997	100.940	19.922	4.352	0.528
164.501	151.743	79.998	19.996	100.940	19.924	4.216	0.509
165.001	152.005	79.997	19.996	100.940	19.921	4.458	0.491
165.500	152.256	79.996	19.995	100.940	19.924	4.241	0.505
166.000	152.534	79.997	19.996	100.941	19.925	4.135	0.521
166.500	152.758	79.996	19.996	100.941	19.925	4.145	0.516
167.000	153.016	79.997	19.995	100.942	19.924	4.241	0.492
167.500	153.249	79.995	19.994	100.944	19.924	4.204	0.486
168.000	153.544	79.996	19.998	100.945	19.923	4.299	0.509
168.500	153.760	79.995	19.996	100.946	19.926	4.059	0.519
169.000	154.028	79.996	19.997	100.947	19.924	4.183	0.498
169.500	154.276	79.998	19.996	100.947	19.921	4.454	0.500
170.000	154.540	79.997	19.996	100.946	19.922	4.335	0.514
170.500	154.774	79.998	19.995	100.944	19.920	4.510	0.505
171.000	155.034	79.995	19.996	100.943	19.923	4.281	0.496
171.500	155.273	79.997	19.995	100.943	19.923	4.260	0.497
172.000	155.505	79.998	19.996	100.943	19.924	4.218	0.485
172.500	155.807	79.998	19.995	100.943	19.920	4.488	0.503
173.000	156.031	79.996	19.995	100.943	19.922	4.373	0.530
173.500	156.280	79.996	19.996	100.942	19.921	4.440	0.499
174.000	156.545	79.996	19.996	100.941	19.922	4.388	0.493
174.500	156.816	79.997	19.994	100.942	19.921	4.400	0.525
175.000	157.092	79.996	19.996	100.942	19.918	4.629	0.542
175.500	157.368	79.997	19.996	100.943	19.917	4.682	0.550
176.000	157.593	79.998	19.996	100.943	19.921	4.414	0.527
176.500	157.867	79.998	19.996	100.943	19.922	4.320	0.500
177.000	158.151	79.997	19.996	100.943	19.919	4.534	0.528
177.500	158.349	79.996	19.995	100.944	19.925	4.156	0.520
178.000	158.618	79.999	19.996	100.943	19.923	4.310	0.475
178.500	158.866	79.997	19.996	100.943	19.922	4.382	0.492
179.000	159.165	79.997	19.996	100.943	19.916	4.747	0.532
179.500	159.406	79.997	19.995	100.942	19.921	4.409	0.544
180.000	159.649	79.997	19.995	100.942	19.921	4.457	0.512
180.500	159.902	79.995	19.996	100.942	19.917	4.694	0.490
181.000	160.190	79.997	19.995	100.941	19.923	4.294	0.518
181.500	160.421	79.994	19.995	100.942	19.920	4.492	0.530
182.000	160.702	79.998	19.996	100.941	19.918	4.638	0.515
182.500	160.917	79.997	19.996	100.938	19.920	4.504	0.504
183.000	161.180	79.996	19.995	100.936	19.919	4.538	0.487
183.500	161.437	79.996	19.996	100.933	19.920	4.479	0.500
184.000	161.670	79.996	19.997	100.933	19.921	4.450	0.505
184.500	161.927	79.996	19.995	100.935	19.917	4.680	0.490
185.000	162.208	79.997	19.997	100.937	19.922	4.374	0.514
185.500	162.446	79.994	19.996	100.940	19.919	4.547	0.528
186.000	162.673	79.995	19.997	100.942	19.921	4.445	0.492
186.500	162.952	79.996	19.996	100.940	19.920	4.495	0.486
187.000	163.201	79.997	19.996	100.940	19.920	4.486	0.517
187.500	163.415	79.995	19.996	100.940	19.921	4.457	0.495
188.000	163.694	79.997	19.997	100.940	19.921	4.421	0.478
188.500	163.995	79.995	19.996	100.937	19.919	4.574	0.537
189.000	164.191	79.995	19.996	100.932	19.919	4.545	0.538
189.500	164.451	79.997	19.996	100.928	19.917	4.716	0.476
190.000	164.706	79.995	19.997	100.927	19.918	4.635	0.486
190.501	164.979	79.995	19.996	100.928	19.917	4.706	0.521
191.000	165.253	79.996	19.996	100.931	19.915	4.867	0.537
191.500	165.503	79.997	19.996	100.938	19.915	4.865	0.536
192.000	165.734	79.997	19.997	100.938	19.917	4.687	0.503
192.500	165.977	79.996	19.996	100.937	19.917	4.742	0.478
193.000	166.254	79.996	19.996	100.936	19.913	4.980	0.497
193.500	166.528	79.997	19.995	100.936	19.916	4.786	0.536
194.000	166.771	79.996	19.996	100.934	19.916	4.757	0.534
194.500	166.995	79.995	19.995	100.934	19.918	4.633	0.492
195.000	167.263	79.996	19.995	100.934	19.917	4.683	0.480
195.500	167.496	79.996	19.995	100.929	19.915	4.859	0.497
196.000	167.775	79.997	19.996	100.924	19.919	4.533	0.507
196.500	167.995	79.997	19.995	100.919	19.920	4.530	0.505
197.000	168.290	79.997	19.995	100.917	19.917	4.716	0.507
197.500	168.565	79.998	19.997	100.917	19.919	4.549	0.542
198.000	168.776	79.998	19.996	100.918	19.917	4.731	0.528
198.500	168.996	79.998	19.996	100.922	19.918	4.633	0.458
199.000	169.282	79.997	19.997	100.925	19.918	4.650	0.468
199.500	169.517	79.998	19.996	100.927	19.918	4.631	0.513
200.000	169.798	79.998	19.997	100.923	19.918	4.665	0.519
200.500	169.993	79.999	19.996	100.923	19.919	4.568	0.497
201.000	170.259	79.997	19.996	100.920	19.919	4.568	0.468
201.500	170.516	80.000	19.996	100.914	19.919	4.564	0.492
202.000	170.739	79.998	19.996	100.912	19.919	4.591	0.502
202.500	170.997	79.997	19.996	100.912	19.915	4.844	0.481
203.000	171.244	80.000	19.996	100.909	19.917	4.731	0.493
203.500	171.480	79.998	19.995	100.906	19.918	4.652	0.494
204.000	171.761	79.999	19.996	100.909	19.914	4.936	0.500
204.500	171.945	79.998	19.995	100.908	19.916	4.759	0.491
205.000	172.184	79.997	19.995	100.905	19.916	4.794	0.445
205.500	172.451	79.998	19.996	100.906	19.913	5.009	0.465
206.000	172.722	80.001	19.996	100.906	19.913	5.003	0.521
206.500	172.938	79.998	19.995	100.906	19.916	4.759	0.512
207.000	173.206	79.998	19.995	100.913	19.916	4.815	0.486
207.500	173.439	79.998	19.996	100.916	19.912	5.053	0.493
208.000	173.692	79.999	19.997	100.914	19.913	5.005	0.493
208.500	173.962	79.999	19.997	100.915	19.913	4.996	0.504
209.000	174.205	79.998	19.996	100.913	19.912	5.076	0.518
209.500	174.466	79.998	19.995	100.908	19.912	5.048	0.508
210.000	174.704	79.998	19.997	100.907	19.913	4.994	0.501
210.500	174.954	79.998	19.997	100.907	19.913	4.994	0.494
211.000	175.192	79.997	19.997	100.905	19.914	4.911	0.488
211.500	175.439	80.000	19.998	100.906	19.913	5.003	0.487
212.000	175.714	79.998	19.997	100.910	19.913	4.970	0.503
212.501	175.943	79.999	19.996	100.912	19.911	5.132	0.513
213.001	176.142	79.997	19.996	100.914	19.912	5.080	0.466
213.500	176.388	79.997	19.996	100.916	19.912	5.090	0.437
214.000	176.672	79.998	19.997	100.914	19.912	5.103	0.488
214.500	176.915	79.998	19.996	100.910	19.910	5.234	0.529
215.000	177.193	79.997	19.998	100.907	19.909	5.284	0.524
215.500	177.406	79.997	19.997	100.905	19.913	5.001	0.506
216.000	177.609	79.997	19.997	100.903	19.911	5.170	0.453
216.500	177.876	79.996	19.996	100.903	19.911	5.168	0.442
217.000	178.112	79.998	19.996	100.900	19.912	5.068	0.486
217.500	178.393	79.998	19.997	100.900	19.912	5.101	0.510
218.000	178.627	79.997	19.997	100.900	19.910	5.235	0.516
218.500	178.866	79.997	19.997	100.901	19.910	5.212	0.494
219.000	179.096	79.997	19.999	100.902	19.912	5.093	0.471
219.500	179.346	79.998	19.998	100.907	19.912	5.095	0.474
220.000	179.603	79.997	19.997	100.912	19.909	5.285	0.493
220.500	179.827	79.997	19.999	100.913	19.909	5.278	0.494
221.000	180.051	79.998	19.998	100.912	19.908	5.360	0.465
221.500	180.325	79.998	19.996	100.913	19.911	5.164	0.473
222.000	180.559	79.999	19.996	100.909	19.909	5.310	0.503
222.500	180.800	79.999	19.996	100.904	19.904	5.644	0.492
223.000	181.035	79.999	19.996	100.905	19.907	5.422	0.476
223.500	181.276	79.999	19.996	100.905	19.908	5.366	0.476
224.000	181.541	79.999	19.996	100.906	19.910	5.245	0.491
224.500	181.802	79.999	19.997	100.908	19.908	5.366	0.516
225.000	182.033	79.999	19.996	100.909	19.908	5.378	0.509
225.500	182.294	79.999	19.996	100.910	19.910	5.236	0.492
226.000	182.522	80.000	19.997	100.910	19.906	5.504	0.490
226.500	182.747	79.999	19.996	100.910	19.907	5.414	0.471
227.000	182.992	80.000	19.996	100.909	19.905	5.535	0.462
227.500	183.249	79.999	19.995	100.908	19.906	5.491	0.486
228.000	183.506	80.000	19.997	100.906	19.907	5.453	0.507
228.500	183.744	80.000	19.997	100.908	19.904	5.656	0.504
229.000	184.014	79.999	19.997	100.906	19.902	5.759	0.502
229.500	184.256	79.999	19.996	100.905	19.902	5.754	0.510
230.000	184.485	80.000	19.996	100.908	19.904	5.646	0.491
230.500	184.729	80.000	19.996	100.910	19.905	5.569	0.472
231.000	184.968	79.998	19.996	100.907	19.903	5.738	0.477
231.500	185.218	79.999	19.995	100.906	19.905	5.571	0.486
232.000	185.448	79.997	19.996	100.906	19.902	5.805	0.485
232.500	185.695	79.999	19.995	100.904	19.903	5.721	0.479
233.000	185.997	79.997	19.996	100.904	19.904	5.652	0.513
233.500	186.248	79.998	19.996	100.906	19.904	5.633	0.551
234.000	186.503	79.999	19.996	100.908	19.904	5.621	0.530
234.500	186.724	79.997	19.997	100.908	19.903	5.723	0.491
235.000	187.023	79.998	19.995	100.908	19.903	5.696	0.498
235.500	187.241	79.998	19.996	100.909	19.902	5.761	0.518
236.000	187.475	79.997	19.996	100.909	19.903	5.684	0.484
236.500	187.733	79.996	19.996	100.909	19.902	5.778	0.472
237.000	187.935	79.996	19.996	100.911	19.903	5.732	0.476
237.500	188.188	79.996	19.996	100.913	19.901	5.836	0.458
238.000	188.459	79.996	19.997	100.913	19.903	5.740	0.490
238.500	188.722	79.996	19.996	100.912	19.897	6.117	0.529
239.000	188.942	79.996	19.996	100.912	19.898	6.040	0.509
239.500	189.221	79.997	19.995	100.910	19.900	5.952	0.491
240.000	189.403	79.997	19.997	100.908	19.898	6.038	0.480
240.500	189.680	79.996	19.996	100.907	19.898	6.086	0.460
241.000	189.923	79.995	19.996	100.906	19.897	6.164	0.490
241.500	190.192	79.995	19.997	100.906	19.896	6.235	0.516
242.000	190.401	79.995	19.996	100.906	19.892	6.467	0.495
242.500	190.670	79.995	19.996	100.906	19.897	6.137	0.478
243.000	190.882	79.996	19.996	100.905	19.899	6.016	0.480
243.500	191.133	79.994	19.997	100.905	19.896	6.233	0.472
244.000	191.359	79.997	19.997	100.905	19.894	6.364	0.470
244.500	191.626	79.995	19.998	100.905	19.894	6.360	0.485
245.000	191.881	79.996	19.996	100.905	19.894	6.366	0.507
245.500	192.120	79.996	19.997	100.905	19.896	6.236	0.509
246.000	192.380	79.996	19.996	100.905	19.895	6.274	0.497
246.500	192.619	79.996	19.997	100.903	19.891	6.539	0.499
247.000	192.883	79.996	19.997	100.904	19.896	6.224	0.501
247.500	193.141	79.992	19.996	100.904	19.895	6.254	0.512
248.000	193.353	79.995	19.997	100.905	19.894	6.352	0.496
248.500	193.650	79.995	19.997	100.906	19.893	6.421	0.490
249.000	193.849	79.995	19.997	100.910	19.893	6.427	0.503
249.500	194.072	79.994	19.998	100.911	19.893	6.427	0.459
250.000	194.323	79.996	19.997	100.913	19.891	6.563	0.448
250.500	194.587	79.996	19.997	100.913	19.891	6.583	0.494
251.000	194.827	79.995	19.996	100.913	19.892	6.514	0.509
251.500	195.112	79.997	19.996	100.910	19.892	6.477	0.515
252.000	195.309	79.996	19.996	100.908	19.891	6.556	0.504
252.500	195.581	79.996	19.996	100.906	19.890	6.655	0.476
253.000	195.817	79.996	19.996	100.906	19.889	6.746	0.489
253.500	196.021	79.996	19.996	100.904	19.889	6.698	0.474
254.000	196.290	79.995	19.997	100.905	19.891	6.594	0.456
254.500	196.525	79.996	19.996	100.906	19.893	6.417	0.489
255.000	196.757	79.997	19.995	100.905	19.889	6.711	0.485
255.500	197.006	79.997	19.996	100.907	19.889	6.722	0.474
256.000	197.231	79.997	19.995	100.914	19.890	6.671	0.477
256.500	197.494	79.998	19.995	100.913	19.888	6.784	0.481
257.000	197.716	79.997	19.996	100.913	19.888	6.782	0.487
257.500	197.987	79.996	19.995	100.914	19.888	6.757	0.489
258.000	198.198	79.998	19.995	100.912	19.887	6.841	0.487
258.500	198.488	79.997	19.996	100.905	19.885	6.985	0.491
259.000	198.744	79.999	19.996	100.905	19.885	6.972	0.523
259.500	199.010	79.995	19.996	100.905	19.884	7.043	0.534
260.000	199.233	79.997	19.996	100.906	19.885	7.028	0.506
260.500	199.450	79.997	19.996	100.906	19.882	7.187	0.464
261.000	199.739	79.997	19.996	100.906	19.884	7.041	0.473
261.500	199.940	79.997	19.995	100.907	19.883	7.133	0.498
262.000	200.215	79.997	19.995	100.907	19.881	7.271	0.483
262.500	200.445	79.997	19.997	100.904	19.882	7.212	0.491
263.000	200.695	79.996	19.995	100.904	19.883	7.147	0.493
263.500	200.942	79.996	19.996	100.904	19.881	7.294	0.488
264.000	201.164	79.997	19.996	100.903	19.879	7.417	0.482
264.500	201.438	79.998	19.996	100.902	19.877	7.592	0.483
265.000	201.643	79.997	19.996	100.902	19.876	7.626	0.488
265.501	201.940	79.997	19.996	100.902	19.882	7.219	0.491
266.001	202.193	79.997	19.996	100.901	19.879	7.402	0.526
266.500	202.384	79.997	19.996	100.901	19.878	7.511	0.497
267.000	202.671	79.995	19.995	100.901	19.880	7.358	0.461
267.500	202.900	79.997	19.995	100.901	19.878	7.475	0.497
268.000	203.156	79.996	19.996	100.901	19.878	7.534	0.501
268.500	203.425	79.996	19.996	100.901	19.876	7.670	0.505
269.000	203.644	79.996	19.997	100.901	19.880	7.334	0.506
269.500	203.892	79.996	19.996	100.902	19.879	7.461	0.478
270.000	204.143	79.998	19.996	100.902	19.880	7.392	0.483
270.500	204.370	79.996	19.995	100.902	19.878	7.498	0.488
271.000	204.633	79.996	19.997	100.903	19.880	7.350	0.484
271.500	204.834	79.995	19.996	100.903	19.880	7.361	0.477
272.000	205.125	79.996	19.996	100.904	19.877	7.551	0.478
272.500	205.366	79.997	19.996	100.904	19.879	7.455	0.512
273.000	205.595	79.996	19.996	100.903	19.878	7.469	0.501
273.500	205.831	79.996	19.996	100.903	19.875	7.701	0.467
274.000	206.093	79.996	19.996	100.903	19.877	7.559	0.481
274.500	206.297	79.997	19.996	100.902	19.876	7.609	0.482
275.000	206.548	79.996	19.996	100.901	19.876	7.653	0.460
275.500	206.784	79.998	19.996	100.901	19.873	7.824	0.471
276.000	207.042	79.996	19.996	100.901	19.873	7.872	0.490
276.500	207.287	79.996	19.996	100.901	19.874	7.774	0.498
277.000	207.533	79.997	19.996	100.902	19.875	7.711	0.497
277.500	207.751	79.996	19.996	100.902	19.874	7.793	0.478
278.000	208.034	79.998	19.996	100.902	19.869	8.133	0.483
278.500	208.233	79.997	19.997	100.902	19.871	7.981	0.492
279.000	208.495	79.996	19.996	100.901	19.870	8.050	0.472
279.500	208.742	79.997	19.997	100.900	19.871	8.012	0.485
280.000	208.986	79.997	19.996	100.900	19.868	8.202	0.499
280.500	209.246	79.998	19.998	100.900	19.871	7.999	0.497
281.000	209.456	79.997	19.997	100.900	19.871	8.004	0.487
281.500	209.730	79.999	19.996	100.900	19.870	8.050	0.478
282.000	209.992	79.998	19.996	100.900	19.872	7.935	0.510
282.500	210.201	79.998	19.996	100.900	19.868	8.233	0.503
283.000	210.461	79.997	19.996	100.900	19.867	8.283	0.470
283.500	210.703	79.998	19.996	100.901	19.868	8.225	0.485
284.000	210.957	79.999	19.996	100.900	19.870	8.072	0.499
284.500	211.211	79.998	19.996	100.900	19.867	8.277	0.502
285.000	211.462	79.998	19.996	100.900	19.869	8.179	0.506
285.500	211.692	79.998	19.995	100.900	19.868	8.200	0.493
286.000	211.934	79.998	19.995	100.900	19.868	8.242	0.477
286.500	212.203	79.998	19.996	100.900	19.867	8.283	0.492
287.000	212.420	79.998	19.995	100.900	19.867	8.285	0.498
287.500	212.657	79.998	19.996	100.900	19.864	8.523	0.469
288.000	212.915	79.997	19.997	100.901	19.866	8.392	0.475
288.500	213.143	79.998	19.997	100.901	19.868	8.248	0.491
289.000	213.390	79.998	19.997	100.901	19.869	8.172	0.481
289.500	213.610	79.999	19.997	100.902	19.862	8.628	0.471
290.000	213.854	79.998	19.996	100.902	19.864	8.511	0.465
290.500	214.090	79.998	19.995	100.902	19.869	8.162	0.472
291.000	214.349	79.997	19.996	100.902	19.867	8.293	0.488
291.500	214.582	79.996	19.996	100.903	19.867	8.304	0.494
292.001	214.844	79.996	19.996	100.902	19.864	8.507	0.493
292.500	215.082	79.998	19.996	100.902	19.863	8.569	0.497
293.000	215.306	79.997	19.996	100.902	19.863	8.553	0.481
293.500	215.568	79.997	19.998	100.901	19.865	8.427	0.474
294.000	215.809	79.997	19.996	100.902	19.865	8.438	0.495
294.500	216.054	79.996	19.996	100.902	19.862	8.634	0.495
295.000	216.308	79.998	19.995	100.902	19.863	8.584	0.493
295.500	216.564	79.998	19.995	100.902	19.864	8.484	0.504
296.000	216.808	79.998	19.995	100.903	19.860	8.776	0.505
296.500	217.063	79.997	19.996	100.903	19.862	8.613	0.500
297.000	217.282	79.998	19.996	100.903	19.860	8.795	0.486
297.500	217.524	79.997	19.996	100.904	19.861	8.728	0.467
298.000	217.772	79.997	19.995	100.904	19.861	8.684	0.475
298.500	218.008	79.996	19.996	100.904	19.859	8.833	0.487
299.000	218.247	79.997	19.996	100.905	19.860	8.810	0.480
299.500	218.508	79.997	19.996	100.905	19.862	8.670	0.488
300.000	218.753	79.996	19.995	100.905	19.862	8.663	0.503
300.500	219.002	79.998	19.995	100.905	19.864	8.515	0.499
301.000	219.230	79.997	19.995	100.905	19.864	8.482	0.485
301.500	219.528	79.998	19.996	100.904	19.866	8.344	0.502
302.000	219.753	79.996	19.996	100.905	19.862	8.663	0.525
302.500	219.964	79.997	19.995	100.905	19.862	8.615	0.479
303.000	220.266	79.996	19.996	100.905	19.865	8.457	0.474
303.500	220.494	79.999	19.996	100.905	19.860	8.787	0.522
304.000	220.736	79.998	19.995	100.904	19.863	8.597	0.500
304.500	221.005	79.999	19.996	100.903	19.860	8.809	0.490
305.000	221.234	79.998	19.996	100.903	19.860	8.799	0.504
305.500	221.494	79.998	19.997	100.903	19.860	8.790	0.493
306.000	221.708	79.999	19.997	100.903	19.861	8.694	0.481
306.500	221.957	79.998	19.995	100.903	19.861	8.752	0.468
307.000	222.183	79.999	19.995	100.902	19.861	8.694	0.469
307.500	222.470	79.999	19.997	100.902	19.861	8.736	0.494
308.000	222.746	79.999	19.995	100.902	19.859	8.844	0.538
308.501	222.961	79.998	19.996	100.902	19.859	8.857	0.527
309.000	223.185	79.998	19.996	100.901	19.860	8.790	0.465
309.500	223.454	79.998	19.996	100.901	19.860	8.788	0.466
310.000	223.710	79.999	19.994	100.901	19.857	8.978	0.508
310.500	223.935	80.000	19.996	100.901	19.857	8.978	0.503
311.000	224.148	79.998	19.996	100.901	19.857	8.976	0.459
311.500	224.429	79.999	19.996	100.901	19.858	8.963	0.466
312.000	224.666	79.998	19.996	100.901	19.856	9.097	0.506
312.500	224.888	79.998	19.996	100.902	19.857	9.018	0.489
313.000	225.183	79.998	19.995	100.902	19.855	9.152	0.488
313.500	225.428	79.998	19.997	100.903	19.857	9.033	0.528
314.000	225.689	79.997	19.996	100.903	19.853	9.256	0.523
314.500	225.961	79.997	19.996	100.903	19.856	9.075	0.520
315.000	226.233	79.996	19.996	100.903	19.856	9.043	0.539
315.500	226.475	79.999	19.995	100.905	19.855	9.131	0.529
316.000	226.688	79.996	19.997	100.906	19.853	9.318	0.485
316.500	226.976	79.996	19.996	100.910	19.853	9.272	0.478
317.000	227.188	79.995	19.996	100.912	19.854	9.203	0.501
317.500	227.432	79.997	19.996	100.912	19.855	9.166	0.478
318.000	227.679	79.996	19.995	100.911	19.853	9.293	0.473
318.500	227.942	79.996	19.996	100.910	19.854	9.211	0.501
319.000	228.179	79.996	19.997	100.908	19.853	9.273	0.505
319.500	228.445	79.995	19.996	100.909	19.850	9.516	0.502
320.000	228.687	79.995	19.996	100.910	19.852	9.344	0.505
320.500	229.009	79.994	19.995	100.913	19.856	9.110	0.535
321.000	229.226	79.995	19.995	100.913	19.851	9.450	0.551
321.500	229.458	79.996	19.996	100.912	19.851	9.427	0.495
322.000	229.733	79.996	19.995	100.910	19.850	9.490	0.478
322.500	230.001	79.997	19.997	100.911	19.852	9.354	0.525
323.001	230.217	79.995	19.996	100.908	19.851	9.425	0.513
323.500	230.492	79.996	19.997	100.907	19.850	9.474	0.487
324.000	230.746	79.996	19.996	100.906	19.852	9.357	0.510
324.500	230.948	79.996	19.997	100.905	19.849	9.580	0.493
325.000	231.214	79.998	19.996	100.903	19.850	9.505	0.462
325.500	231.474	79.997	19.996	100.903	19.851	9.426	0.497
326.000	231.697	79.997	19.998	100.903	19.849	9.580	0.504
326.500	231.958	79.996	19.997	100.907	19.850	9.496	0.483
327.000	232.221	79.997	19.997	100.912	19.849	9.578	0.504
327.500	232.463	79.997	19.997	100.913	19.848	9.657	0.515
328.000	232.736	79.997	19.997	100.912	19.853	9.275	0.510
328.500	232.962	79.997	19.996	100.911	19.850	9.500	0.507
329.000	233.240	79.997	19.997	100.907	19.851	9.426	0.502
329.500	233.436	79.997	19.996	100.900	19.848	9.649	0.489
330.000	233.677	79.996	19.997	100.900	19.847	9.729	0.455
330.500	233.934	79.997	19.998	100.900	19.849	9.562	0.468
331.000	234.170	79.996	19.997	100.900	19.847	9.706	0.496
331.500	234.455	79.996	19.996	100.905	19.846	9.781	0.507
332.000	234.688	79.996	19.997	100.906	19.850	9.469	0.520
332.500	234.924	79.996	19.998	100.908	19.848	9.624	0.493
333.000	235.188	79.997	19.996	100.909	19.850	9.517	0.484
333.501	235.428	79.996	19.996	100.908	19.845	9.887	0.502
334.001	235.695	79.996	19.997	100.903	19.845	9.833	0.506
334.500	235.917	79.996	19.998	100.902	19.845	9.881	0.498
335.000	236.157	79.997	19.996	100.901	19.848	9.622	0.475
335.500	236.395	79.995	19.998	100.902	19.850	9.528	0.470
336.000	236.637	79.996	19.998	100.903	19.847	9.741	0.479
336.500	236.922	79.996	19.997	100.903	19.847	9.751	0.503
337.000	237.173	79.996	19.997	100.904	19.849	9.552	0.532
337.500	237.417	79.997	19.997	100.903	19.850	9.536	0.515
338.000	237.660	79.997	19.998	100.904	19.847	9.740	0.491
338.500	237.901	79.996	19.997	100.908	19.847	9.717	0.486
339.000	238.169	79.997	19.997	100.909	19.844	9.911	0.497
339.500	238.389	79.997	19.997	100.909	19.847	9.740	0.498
340.000	238.626	79.996	19.996	100.914	19.842	10.103	0.472
340.500	238.920	79.997	19.997	100.918	19.843	10.005	0.494
341.000	239.163	79.996	19.997	100.916	19.843	10.002	0.534
341.500	239.375	79.997	19.996	100.916	19.845	9.833	0.496
342.000	239.648	79.997	19.997	100.916	19.844	9.912	0.470
342.500	239.878	79.996	19.997	100.915	19.843	10.004	0.494
343.000	240.164	79.996	19.998	100.908	19.840	10.211	0.510
343.500	240.387	79.995	19.996	100.906	19.839	10.267	0.513
344.000	240.656	79.996	19.997	100.904	19.839	10.307	0.501
344.500	240.871	79.999	19.996	100.905	19.841	10.180	0.488
345.000	241.117	79.997	19.997	100.901	19.840	10.226	0.472
345.500	241.400	79.997	19.996	100.901	19.838	10.397	0.495
346.000	241.667	79.997	19.996	100.902	19.839	10.306	0.539
346.500	241.925	79.994	19.997	100.906	19.838	10.344	0.538
347.001	242.153	79.995	19.996	100.905	19.837	10.465	0.506
347.500	242.385	79.997	19.995	100.906	19.838	10.379	0.473
348.000	242.627	79.996	19.997	100.907	19.838	10.368	0.466
348.500	242.918	79.998	19.996	100.907	19.839	10.268	0.503
349.000	243.190	79.997	19.996	100.906	19.837	10.445	0.548
349.500	243.403	79.996	19.995	100.908	19.838	10.371	0.525
350.000	243.649	79.995	19.996	100.909	19.838	10.381	0.472
350.500	243.917	79.997	19.996	100.912	19.835	10.544	0.486
351.000	244.191	79.997	19.996	100.915	19.836	10.484	0.528
351.500	244.448	79.995	19.996	100.917	19.836	10.514	0.536
352.000	244.693	79.996	19.997	100.918	19.836	10.527	0.517
352.500	244.917	79.998	19.996	100.920	19.834	10.633	0.486
353.000	245.163	79.996	19.996	100.919	19.835	10.573	0.469
353.500	245.384	79.996	19.996	100.917	19.836	10.537	0.468
354.000	245.666	79.997	19.996	100.917	19.835	10.614	0.485
354.500	245.900	79.997	19.997	100.918	19.837	10.430	0.510
355.000	246.158	79.997	19.997	100.917	19.836	10.519	0.505
355.500	246.459	79.999	19.995	100.915	19.832	10.790	0.525
356.000	246.668	79.998	19.996	100.914	19.834	10.632	0.534
356.500	246.938	79.998	19.995	100.911	19.830	10.902	0.495
357.000	247.211	79.998	19.995	100.910	19.832	10.791	0.511
357.500	247.389	79.997	19.996	100.908	19.830	10.966	0.497
358.000	247.638	79.998	19.996	100.907	19.831	10.854	0.439
358.500	247.899	79.997	19.996	100.910	19.829	10.980	0.468
359.000	248.157	79.999	19.995	100.914	19.830	10.929	0.515
359.500	248.441	79.998	19.996	100.917	19.829	11.025	0.531
360.000	248.678	79.997	19.995	100.921	19.828	11.077	0.531
360.500	248.912	80.000	19.996	100.927	19.825	11.261	0.496
361.000	249.167	79.999	19.995	100.927	19.827	11.137	0.480
361.500	249.486	79.998	19.996	100.924	19.828	11.049	0.531
362.000	249.737	79.998	19.995	100.921	19.826	11.213	0.572
362.500	249.974	79.999	19.995	100.917	19.824	11.378	0.529
363.000	250.251	79.999	19.997	100.914	19.820	11.673	0.501
363.500	250.461	79.998	19.995	100.919	19.823	11.429	0.501
364.000	250.758	79.998	19.996	100.925	19.824	11.386	0.497
364.500	251.040	79.997	19.995	100.930	19.824	11.396	0.543
365.000	251.234	79.999	19.994	100.935	19.822	11.510	0.528
365.500	251.467	79.997	19.995	100.934	19.822	11.533	0.452
366.000	251.761	79.997	19.995	100.929	19.823	11.460	0.477
366.500	252.018	79.999	19.995	100.927	19.823	11.435	0.539
367.000	252.236	79.997	19.996	100.925	19.823	11.443	0.513
367.500	252.536	79.999	19.996	100.920	19.824	11.376	0.497
368.000	252.804	79.997	19.995	100.921	19.822	11.482	0.543
368.500	253.030	80.000	19.997	100.920	19.820	11.651	0.530
369.000	253.258	79.998	19.995	100.920	19.822	11.477	0.474
369.500	253.533	79.996	19.995	100.915	19.819	11.695	0.479
370.000	253.785	80.000	19.995	100.919	19.820	11.679	0.515
370.500	254.013	79.998	19.995	100.921	19.816	11.942	0.503
371.000	254.271	79.997	19.996	100.922	19.817	11.853	0.483
371.500	254.570	79.999	19.996	100.923	19.815	11.995	0.522
372.000	254.777	79.997	19.996	100.929	19.816	11.913	0.531
372.500	255.002	79.997	19.997	100.926	19.815	12.031	0.469
373.000	255.293	79.997	19.995	100.921	19.817	11.899	0.474
373.500	255.516	79.998	19.996	100.918	19.815	12.012	0.515
374.000	255.756	79.997	19.996	100.914	19.813	12.175	0.488
374.500	256.006	79.998	19.995	100.914	19.813	12.179	0.477
375.000	256.237	79.997	19.997	100.917	19.815	12.002	0.486
375.500	256.542	79.997	19.995	100.924	19.813	12.146	0.509
376.000	256.786	79.998	19.995	100.929	19.811	12.322	0.542
376.500	256.993	79.996	19.995	100.933	19.807	12.570	0.499
377.000	257.247	79.998	19.995	100.934	19.810	12.393	0.456
377.500	257.514	79.996	19.994	100.933	19.806	12.653	0.491
378.000	257.795	79.995	19.995	100.932	19.807	12.559	0.534
378.500	258.021	79.997	19.996	100.935	19.805	12.701	0.527
379.000	258.307	79.996	19.995	100.937	19.803	12.864	0.509
379.500	258.564	79.997	19.996	100.938	19.804	12.776	0.528
380.000	258.804	79.998	19.995	100.942	19.803	12.885	0.520
380.500	259.046	79.997	19.995	100.940	19.802	12.947	0.489
381.000	259.321	79.999	19.996	100.934	19.803	12.898	0.500
381.500	259.556	80.000	19.995	100.929	19.804	12.785	0.514
382.000	259.817	79.999	19.995	100.927	19.801	13.027	0.503
382.500	260.024	79.998	19.995	100.926	19.801	13.023	0.482
383.000	260.300	79.999	19.996	100.929	19.800	13.119	0.476
383.500	260.536	80.000	19.996	100.936	19.798	13.211	0.498
384.000	260.786	79.999	19.995	100.941	19.799	13.182	0.499
384.500	261.051	80.000	19.995	100.939	19.796	13.400	0.500
385.000	261.292	79.999	19.995	100.940	19.798	13.254	0.510
385.500	261.541	79.999	19.995	100.938	19.796	13.366	0.499
386.000	261.795	79.999	19.994	100.934	19.791	13.705	0.497
386.500	262.027	80.000	19.995	100.933	19.793	13.588	0.494
387.000	262.282	79.999	19.996	100.934	19.795	13.462	0.486
387.500	262.514	79.999	19.995	100.934	19.794	13.494	0.487
388.000	262.782	80.000	19.997	100.935	19.788	13.968	0.494
388.500	263.048	80.001	19.996	100.938	19.788	13.964	0.517
389.000	263.280	80.000	19.995	100.938	19.790	13.832	0.516
389.500	263.512	80.000	19.995	100.939	19.784	14.241	0.481
390.000	263.768	80.000	19.995	100.939	19.787	14.001	0.476
390.500	264.027	79.999	19.995	100.939	19.784	14.257	0.501
391.000	264.256	79.999	19.996	100.938	19.781	14.412	0.502
391.500	264.512	79.998	19.995	100.937	19.782	14.406	0.487
392.000	264.735	80.000	19.995	100.936	19.780	14.514	0.482
392.500	264.984	79.999	19.995	100.935	19.779	14.616	0.475
393.000	265.250	79.999	19.995	100.933	19.776	14.779	0.494
393.500	265.494	80.000	19.996	100.932	19.781	14.415	0.512
394.000	265.746	79.999	19.995	100.932	19.775	14.862	0.503
394.500	265.996	79.998	19.996	100.933	19.778	14.641	0.499
395.000	266.281	79.998	19.997	100.934	19.773	15.000	0.518
395.500	266.516	79.996	19.996	100.936	19.775	14.890	0.527
396.000	266.773	79.997	19.996	100.938	19.770	15.249	0.506
396.500	267.017	79.997	19.996	100.940	19.770	15.241	0.496
397.000	267.240	79.997	19.996	100.940	19.769	15.297	0.484
397.500	267.527	79.998	19.996	100.940	19.767	15.459	0.489
398.000	267.759	79.997	19.997	100.940	19.767	15.477	0.515
398.500	268.027	79.997	19.997	100.939	19.768	15.360	0.509
399.000	268.256	79.996	19.995	100.938	19.765	15.597	0.499
399.500	268.515	79.996	19.996	100.938	19.764	15.701	0.492
400.000	268.732	79.997	19.997	100.939	19.763	15.729	0.482
400.500	268.981	79.997	19.997	100.939	19.762	15.802	0.471
401.000	269.234	79.996	19.997	100.941	19.760	15.963	0.484
401.500	269.459	79.997	19.997	100.942	19.759	16.046	0.490
402.001	269.719	79.996	19.997	100.942	19.757	16.160	0.482
402.500	269.963	79.997	19.997	100.943	19.756	16.272	0.495
403.000	270.207	79.997	19.997	100.943	19.752	16.557	0.496
403.500	270.476	79.997	19.997	100.943	19.752	16.518	0.500
404.000	270.729	79.996	19.997	100.947	19.751	16.614	0.517
404.500	270.994	79.997	19.996	100.948	19.749	16.728	0.520
405.000	271.244	79.997	19.996	100.948	19.746	16.952	0.517
405.500	271.494	79.998	19.996	100.947	19.748	16.780	0.508
406.000	271.754	79.999	19.997	100.946	19.745	17.051	0.504
406.500	271.996	79.998	19.996	100.942	19.743	17.164	0.506
407.000	272.264	79.998	19.997	100.941	19.741	17.296	0.507
407.500	272.502	79.997	19.996	100.941	19.740	17.394	0.508
408.000	272.771	79.997	19.996	100.943	19.740	17.407	0.506
408.500	273.009	79.997	19.997	100.945	19.737	17.616	0.507
409.000	273.267	79.998	19.996	100.951	19.734	17.799	0.501
409.500	273.503	79.997	19.996	100.954	19.735	17.711	0.495
410.000	273.729	79.998	19.996	100.957	19.733	17.868	0.478
410.500	274.014	79.998	19.997	100.960	19.731	18.041	0.487
411.000	274.224	79.997	19.996	100.957	19.730	18.125	0.503
411.500	274.478	79.998	19.995	100.955	19.728	18.213	0.480
412.000	274.708	79.996	19.996	100.953	19.733	17.920	0.474
412.500	274.953	79.997	19.996	100.954	19.728	18.239	0.480
413.000	275.236	79.998	19.996	100.949	19.724	18.556	0.501
413.500	275.455	79.998	19.997	100.949	19.724	18.568	0.515
414.000	275.706	79.998	19.996	100.947	19.719	18.889	0.486
414.500	275.972	79.998	19.996	100.951	19.722	18.705	0.494
415.000	276.232	79.997	19.996	100.953	19.722	18.691	0.522
415.500	276.459	79.998	19.996	100.957	19.714	19.264	0.507
416.000	276.700	79.997	19.998	100.963	19.716	19.113	0.478
416.500	276.953	79.998	19.996	100.968	19.713	19.336	0.481
417.000	277.154	79.998	19.996	100.969	19.714	19.277	0.474
417.500	277.472	79.996	19.996	100.969	19.708	19.709	0.487
418.000	277.663	79.997	19.996	100.965	19.707	19.736	0.514
418.500	277.914	79.997	19.996	100.967	19.705	19.925	0.475
419.000	278.188	79.998	19.996	100.966	19.706	19.855	0.484
419.500	278.448	79.997	19.997	100.962	19.702	20.139	0.529
420.000	278.671	79.996	19.996	100.963	19.701	20.196	0.508
420.500	278.912	79.996	19.995	100.968	19.702	20.133	0.474
421.000	279.195	79.996	19.996	100.967	19.698	20.369	0.494
421.500	279.423	79.996	19.996	100.967	19.698	20.400	0.517
422.000	279.678	79.998	19.996	100.972	19.694	20.709	0.497
422.500	279.914	79.996	19.996	100.974	19.696	20.564	0.487
423.000	280.149	79.997	19.997	100.976	19.693	20.746	0.481
423.500	280.434	79.996	19.997	100.978	19.689	21.063	0.495
424.000	280.632	79.995	19.997	100.980	19.687	21.211	0.501
424.500	280.933	79.995	19.996	100.982	19.687	21.206	0.491
425.000	281.151	79.996	19.996	100.982	19.681	21.599	0.509
425.500	281.397	79.995	19.997	100.983	19.683	21.467	0.492
426.000	281.667	79.996	19.997	100.983	19.682	21.568	0.490
426.501	281.904	79.996	19.996	100.983	19.681	21.587	0.511
427.000	282.159	79.995	19.996	100.981	19.677	21.882	0.499
427.500	282.391	79.996	19.996	100.981	19.677	21.879	0.490
428.000	282.626	79.994	19.998	100.982	19.675	22.068	0.477
428.500	282.896	79.995	19.997	100.982	19.670	22.398	0.486
429.000	283.096	79.996	19.998	100.982	19.669	22.468	0.488
429.500	283.381	79.994	19.997	100.985	19.668	22.547	0.477
430.000	283.622	79.994	19.997	100.990	19.666	22.684	0.506
430.500	283.918	79.994	19.996	100.990	19.661	23.036	0.532
431.000	284.116	79.994	19.997	100.990	19.663	22.887	0.515
431.500	284.365	79.994	19.997	100.990	19.661	23.029	0.470
432.000	284.643	79.995	19.996	100.987	19.659	23.193	0.487
432.500	284.875	79.995	19.997	100.981	19.655	23.470	0.519
433.000	285.131	79.999	19.998	100.981	19.654	23.575	0.499
433.500	285.336	79.994	19.997	100.982	19.649	23.888	0.474
434.000	285.619	79.995	19.996	100.982	19.652	23.726	0.475
434.500	285.875	79.997	19.997	100.982	19.647	24.079	0.514
435.000	286.134	79.997	19.996	100.982	19.649	23.901	0.527
435.500	286.389	79.998	19.996	100.985	19.644	24.279	0.515
436.000	286.653	79.996	19.996	100.983	19.642	24.410	0.516
436.500	286.918	79.997	19.996	100.987	19.638	24.675	0.524
437.000	287.169	79.996	19.997	100.990	19.635	24.884	0.523
437.500	287.374	79.995	19.996	100.997	19.633	25.034	0.486
438.000	287.658	80.000	19.996	101.002	19.628	25.416	0.472
438.500	287.924	79.996	19.995	101.006	19.628	25.424	0.520
439.000	288.173	79.998	19.995	101.004	19.626	25.567	0.532
439.500	288.390	79.997	19.995	101.002	19.625	25.663	0.490
440.000	288.678	79.997	19.996	100.997	19.622	25.857	0.486
440.500	288.911	79.998	19.995	100.995	19.618	26.130	0.513
441.000	289.168	79.997	19.996	100.997	19.616	26.247	0.505
441.500	289.403	79.997	19.995	100.999	19.615	26.339	0.491
442.000	289.626	79.998	19.995	101.004	19.614	26.425	0.475
442.500	289.920	79.998	19.996	101.007	19.612	26.587	0.488
443.000	290.153	79.999	19.995	101.008	19.607	26.921	0.522
443.500	290.442	79.997	19.996	101.011	19.606	27.013	0.524
444.000	290.691	79.998	19.995	101.014	19.605	27.067	0.530
444.500	290.926	79.998	19.995	101.014	19.600	27.440	0.511
445.000	291.222	79.998	19.997	101.017	19.597	27.617	0.508
445.500	291.497	79.999	19.995	101.018	19.599	27.475	0.551
446.000	291.707	79.998	19.995	101.018	19.595	27.775	0.528
446.500	291.954	79.999	19.995	101.019	19.594	27.832	0.471
447.000	292.188	79.997	19.994	101.019	19.589	28.182	0.469
447.500	292.437	79.997	19.996	101.017	19.589	28.240	0.482
448.000	292.721	79.998	19.997	101.017	19.584	28.557	0.508
448.500	292.956	79.999	19.995	101.017	19.583	28.625	0.526
449.000	293.245	79.999	19.997	101.017	19.583	28.665	0.521
449.500	293.506	79.999	19.996	101.019	19.577	29.104	0.537
450.000	293.750	80.000	19.996	101.021	19.578	29.001	0.527
450.500	293.972	79.998	19.995	101.021	19.577	29.097	0.486
451.000	294.209	79.997	19.995	101.020	19.569	29.657	0.463
451.500	294.458	79.997	19.996	101.020	19.568	29.732	0.472
452.000	294.708	79.998	19.996	101.020	19.568	29.714	0.493
452.500	294.978	79.999	19.996	101.020	19.566	29.864	0.510
453.000	295.203	79.997	19.996	101.019	19.561	30.213	0.508
453.500	295.495	79.998	19.996	101.019	19.562	30.145	0.506
454.000	295.690	79.998	19.996	101.018	19.561	30.252	0.502
454.500	295.945	79.997	19.996	101.018	19.558	30.410	0.469
455.000	296.176	79.997	19.995	101.019	19.561	30.256	0.468
455.500	296.457	79.997	19.996	101.021	19.555	30.640	0.499
456.000	296.676	79.997	19.996	101.021	19.554	30.692	0.506
456.500	296.944	79.998	19.996	101.021	19.551	30.975	0.493
457.000	297.166	79.996	19.995	101.022	19.546	31.281	0.488
457.500	297.425	79.998	19.995	101.021	19.544	31.445	0.486
458.000	297.693	79.998	19.996	101.020	19.543	31.534	0.504
458.500	297.977	79.998	19.996	101.021	19.541	31.693	0.540
459.000	298.163	79.999	19.996	101.021	19.539	31.772	0.511
459.500	298.453	79.997	19.996	101.024	19.536	32.030	0.473
460.000	298.721	79.999	19.996	101.030	19.534	32.183	0.517
460.500	298.959	79.999	19.996	101.034	19.531	32.407	0.532
461.000	299.182	79.998	19.996	101.038	19.528	32.607	0.484
461.500	299.457	79.998	19.996	101.041	19.528	32.611	0.479
462.000	299.689	79.999	19.996	101.039	19.523	32.980	0.502
462.500	299.951	79.998	19.995	101.032	19.520	33.181	0.500
463.000	300.217	79.997	19.995	101.029	19.517	33.348	0.511
463.500	300.447	79.999	19.997	101.024	19.514	33.623	0.512
464.000	300.742	79.999	19.996	101.027	19.513	33.637	0.511
464.500	300.956	80.000	19.995	101.032	19.510	33.877	0.517
465.000	301.209	79.999	19.996	101.037	19.508	34.017	0.488
465.500	301.491	79.998	19.995	101.039	19.506	34.186	0.501
466.000	301.697	80.000	19.995	101.043	19.501	34.549	0.512
466.500	301.958	79.998	19.995	101.042	19.501	34.515	0.477
467.000	302.195	80.000	19.995	101.043	19.498	34.739	0.482
467.500	302.464	79.999	19.994	101.044	19.497	34.799	0.502
468.000	302.750	80.000	19.995	101.044	19.491	35.210	0.531
468.500	303.010	80.001	19.996	101.048	19.491	35.223	0.551
469.000	303.275	80.000	19.995	101.049	19.489	35.359	0.535
469.500	303.511	80.000	19.994	101.049	19.486	35.582	0.513
470.000	303.773	80.000	19.995	101.048	19.485	35.645	0.499
470.500	303.998	80.000	19.996	101.050	19.483	35.833	0.492
471.000	304.242	79.997	19.995	101.049	19.477	36.228	0.477
471.500	304.480	79.999	19.994	101.051	19.476	36.310	0.475
472.000	304.735	80.000	19.996	101.052	19.473	36.564	0.488
472.500	305.006	80.000	19.995	101.052	19.469	36.795	0.510
473.000	305.252	80.000	19.994	101.053	19.469	36.797	0.521
473.500	305.499	80.000	19.995	101.055	19.466	37.022	0.505
474.000	305.740	80.001	19.995	101.055	19.464	37.212	0.491
474.500	306.037	79.999	19.995	101.055	19.463	37.264	0.513
475.000	306.248	79.999	19.995	101.057	19.460	37.487	0.523
475.500	306.532	80.001	19.996	101.057	19.456	37.757	0.501
476.000	306.765	79.999	19.995	101.057	19.452	38.015	0.506
476.500	307.009	79.999	19.995	101.056	19.450	38.169	0.497
477.000	307.257	79.998	19.995	101.054	19.452	38.049	0.484
477.500	307.498	79.997	19.995	101.049	19.446	38.436	0.490
478.000	307.734	79.998	19.996	101.049	19.445	38.533	0.483
478.500	307.980	79.997	19.996	101.049	19.439	38.993	0.480
479.000	308.265	79.997	19.996	101.049	19.437	39.114	0.507
479.500	308.514	80.001	19.996	101.051	19.434	39.323	0.532
480.000	308.704	79.997	19.996	101.057	19.437	39.095	0.486
480.500	308.995	80.000	19.996	101.057	19.431	39.528	0.460
481.000	309.232	79.998	19.995	101.057	19.427	39.868	0.505
481.500	309.499	79.998	19.995	101.056	19.430	39.654	0.517
482.000	309.741	79.996	19.995	101.056	19.424	40.025	0.507
482.500	310.027	79.998	19.995	101.056	19.420	40.315	0.518
483.000	310.289	79.997	19.995	101.057	19.415	40.696	0.537
483.500	310.539	79.998	19.996	101.057	19.415	40.721	0.530
484.000	310.779	79.997	19.996	101.058	19.406	41.349	0.501
484.500	311.012	79.997	19.995	101.058	19.410	41.027	0.481
485.000	311.304	79.996	19.995	101.058	19.413	40.829	0.499
485.500	311.500	79.995	19.995	101.058	19.407	41.280	0.507
486.000	311.762	79.996	19.996	101.059	19.405	41.454	0.473
486.500	312.058	79.999	19.996	101.060	19.400	41.787	0.508
487.000	312.252	79.996	19.996	101.060	19.398	41.945	0.524
487.500	312.504	79.997	19.995	101.061	19.396	42.035	0.468
488.000	312.746	79.997	19.996	101.060	19.398	41.909	0.470
488.500	313.070	79.994	19.996	101.060	19.390	42.500	0.530
489.000	313.266	79.998	19.997	101.064	19.393	42.256	0.543
489.500	313.546	79.998	19.996	101.064	19.388	42.621	0.497
490.000	313.793	79.997	19.996	101.066	19.385	42.824	0.501
490.500	313.995	79.997	19.995	101.068	19.383	43.004	0.489
491.000	314.273	79.997	19.996	101.070	19.380	43.191	0.465
491.500	314.580	79.997	19.997	101.071	19.379	43.271	0.533
492.000	314.742	79.996	19.996	101.070	19.375	43.588	0.527
492.500	314.962	79.998	19.996	101.069	19.374	43.615	0.425
493.000	315.340	79.995	19.996	101.071	19.368	44.082	0.490
493.500	315.485	79.997	19.996	101.075	19.366	44.190	0.561
494.000	315.732	79.995	19.997	101.076	19.362	44.507	0.458
494.500	316.064	79.998	19.996	101.076	19.356	44.907	0.485
495.000	316.193	79.996	19.997	101.082	19.355	45.036	0.520
495.500	316.480	79.997	19.996	101.084	19.353	45.142	0.439
496.000	316.841	79.996	19.997	101.084	19.351	45.323	0.532
496.500	316.773	79.997	19.996	101.087	19.350	45.373	0.471
497.000	317.248	79.997	19.996	101.094	19.345	45.690	0.350
497.500	317.619	79.998	19.996	101.095	19.345	45.710	0.627
498.000	317.590	79.996	19.996	101.097	19.340	46.081	0.594
498.500	317.724	79.998	19.996	101.095	19.337	46.331	0.223
499.000	318.335	79.996	19.995	101.092	19.333	46.562	0.425
499.500	318.455	79.998	19.996	101.091	19.332	46.667	0.738
500.000	318.713	79.998	19.996	101.091	19.329	46.867	0.554
500.500	319.024	79.994	19.996	101.091	19.328	46.945	0.473
501.000	319.178	79.997	19.995	101.093	19.328	46.939	0.517
501.500	319.536	79.997	19.996	101.096	19.321	47.439	0.489
502.000	319.641	79.997	19.997	101.098	19.321	47.466	0.488
502.500	320.021	79.996	19.996	101.099	19.316	47.797	0.473
503.000	320.208	79.996	19.995	101.099	19.311	48.135	0.525
503.500	320.439	79.996	19.995	101.099	19.308	48.356	0.493
504.000	320.746	79.996	19.996	101.099	19.308	48.371	0.478
504.500	320.975	79.995	19.996	101.100	19.307	48.427	0.537
505.000	321.258	79.996	19.995	101.100	19.301	48.861	0.524
505.500	321.461	79.995	19.996	101.100	19.303	48.719	0.500
506.000	321.700	79.997	19.996	101.099	19.300	48.971	0.464
506.500	321.990	79.996	19.996	101.100	19.297	49.191	0.485
507.000	322.242	79.995	19.996	101.100	19.295	49.300	0.535
507.500	322.476	79.995	19.995	101.100	19.294	49.378	0.514
508.000	322.646	79.995	19.996	101.101	19.292	49.538	0.445
508.500	322.885	79.996	19.996	101.105	19.287	49.910	0.407
509.000	323.178	79.995	19.995	101.106	19.285	50.003	0.471
509.500	323.521	79.996	19.995	101.105	19.284	50.090	0.584
510.000	323.688	79.995	19.996	101.106	19.281	50.342	0.573
510.500	323.914	79.995	19.996	101.108	19.275	50.756	0.452
511.000	324.176	79.995	19.996	101.104	19.276	50.705	0.440
511.500	324.424	79.994	19.997	101.103	19.275	50.718	0.499
512.000	324.669	79.995	19.996	101.103	19.268	51.236	0.502
512.500	324.913	79.996	19.996	101.102	19.272	50.992	0.491
513.000	325.166	79.994	19.998	101.102	19.267	51.292	0.493
513.500	325.445	79.996	19.996	101.102	19.265	51.475	0.515
514.000	325.646	79.995	19.995	101.102	19.260	51.860	0.506
514.500	325.945	79.995	19.996	101.102	19.260	51.810	0.490
515.000	326.173	79.996	19.996	101.102	19.253	52.294	0.513
515.500	326.421	79.996	19.996	101.101	19.255	52.156	0.502
516.000	326.656	79.996	19.996	101.101	19.254	52.275	0.480
516.500	326.925	79.996	19.997	101.101	19.253	52.333	0.493
517.000	327.142	79.995	19.997	101.102	19.250	52.572	0.495
517.500	327.367	79.996	19.997	101.102	19.248	52.727	0.464
518.000	327.646	79.995	19.996	101.101	19.244	52.982	0.473
518.500	327.905	79.995	19.996	101.103	19.240	53.249	0.521
519.001	328.152	79.995	19.996	101.108	19.241	53.233	0.522
519.500	328.419	79.998	19.998	101.111	19.241	53.161	0.510
520.000	328.688	79.998	19.997	101.116	19.234	53.671	0.525
520.500	328.927	80.000	19.997	101.116	19.235	53.640	0.522
521.000	329.145	79.998	19.997	101.114	19.227	54.225	0.482
521.500	329.446	79.997	19.997	101.109	19.229	54.070	0.488
522.000	329.684	79.996	19.997	101.105	19.224	54.407	0.529
522.500	329.952	79.997	19.996	101.099	19.223	54.478	0.523
523.000	330.175	79.998	19.996	101.100	19.220	54.674	0.498
523.500	330.476	79.997	19.997	101.105	19.218	54.830	0.507
524.000	330.702	79.998	19.996	101.110	19.219	54.811	0.526
524.500	330.877	79.998	19.996	101.114	19.216	54.956	0.464
525.000	331.183	79.999	19.996	101.113	19.211	55.327	0.441
525.500	331.439	79.996	19.996	101.114	19.211	55.328	0.522
526.000	331.716	79.995	19.996	101.113	19.208	55.568	0.548
526.500	331.955	79.999	19.996	101.115	19.208	55.595	0.524
527.000	332.207	79.998	19.996	101.117	19.205	55.751	0.503
527.500	332.422	79.997	19.994	101.124	19.202	56.020	0.479
528.000	332.712	79.998	19.997	101.130	19.196	56.399	0.486
528.500	332.968	79.997	19.998	101.133	19.196	56.408	0.525
529.000	333.211	79.998	19.998	101.133	19.194	56.554	0.523
529.500	333.511	79.999	19.996	101.133	19.193	56.629	0.521
530.000	333.766	79.999	19.996	101.132	19.192	56.679	0.549
530.500	334.027	79.997	19.995	101.131	19.190	56.887	0.536
531.000	334.277	79.998	19.995	101.132	19.188	57.004	0.514
531.500	334.532	79.998	19.996	101.131	19.187	57.043	0.508
532.000	334.820	79.999	19.997	101.132	19.181	57.468	0.524
532.500	335.070	80.000	19.995	101.133	19.183	57.370	0.541
533.000	335.315	80.000	19.995	101.133	19.180	57.555	0.517
533.500	335.571	79.998	19.996	101.133	19.177	57.785	0.497
534.000	335.830	79.998	19.996	101.133	19.178	57.698	0.508
534.500	336.095	79.998	19.996	101.133	19.177	57.780	0.520
535.000	336.346	79.999	19.995	101.134	19.173	58.047	0.520
535.500	336.583	79.997	19.996	101.134	19.170	58.261	0.502
536.000	336.876	79.998	19.996	101.135	19.169	58.380	0.509
536.500	337.095	79.998	19.996	101.136	19.170	58.305	0.521
537.000	337.342	79.998	19.995	101.135	19.164	58.694	0.489
537.500	337.635	79.998	19.994	101.136	19.164	58.727	0.502
538.000	337.882	79.999	19.995	101.135	19.164	58.748	0.540
538.500	338.125	79.997	19.996	101.135	19.161	58.913	0.516
539.000	338.400	79.998	19.995	101.135	19.161	58.958	0.504
539.500	338.625	79.999	19.996	101.135	19.158	59.117	0.508
540.000	338.909	79.998	19.996	101.134	19.157	59.214	0.505
540.501	339.160	79.996	19.996	101.135	19.155	59.350	0.523
541.000	339.433	79.997	19.995	101.134	19.152	59.542	0.530
541.500	339.738	79.999	19.996	101.134	19.156	59.283	0.551
542.000	339.976	79.996	19.995	101.134	19.157	59.217	0.560
542.500	340.209	79.999	19.995	101.135	19.154	59.457	0.507
543.000	340.452	80.001	19.996	101.135	19.155	59.388	0.473
543.500	340.733	79.998	19.995	101.135	19.153	59.520	0.500
544.000	341.014	79.997	19.995	101.135	19.151	59.626	0.543
544.500	341.262	80.000	19.995	101.135	19.151	59.648	0.546
545.000	341.557	80.001	19.995	101.133	19.150	59.703	0.536
545.500	341.805	79.998	19.995	101.133	19.150	59.712	0.543
546.000	342.041	79.999	19.995	101.132	19.148	59.863	0.513
546.500	342.298	79.999	19.996	101.132	19.148	59.852	0.489
547.000	342.583	79.999	19.995	101.132	19.147	59.953	0.517
547.500	342.800	80.000	19.995	101.132	19.146	59.970	0.522
548.000	343.083	80.001	19.996	101.133	19.150	59.725	0.501
548.500	343.333	80.000	19.995	101.133	19.148	59.869	0.516
549.000	343.595	79.999	19.994	101.132	19.147	59.947	0.522
549.500	343.853	79.999	19.995	101.132	19.145	60.031	0.516
550.000	344.128	80.001	19.995	101.133	19.145	60.043	0.526
550.500	344.372	80.001	19.994	101.133	19.145	60.032	0.526
551.000	344.629	80.002	19.995	101.131	19.145	60.078	0.510
551.500	344.889	80.000	19.995	101.130	19.142	60.253	0.509
552.000	345.163	80.001	19.995	101.127	19.147	59.919	0.526
552.500	345.427	79.996	19.994	101.124	19.143	60.169	0.536
553.000	345.699	79.998	19.994	101.123	19.145	60.057	0.537
553.500	345.966	79.999	19.995	101.122	19.148	59.859	0.538
554.000	346.207	79.998	19.995	101.116	19.144	60.095	0.524
554.500	346.458	79.997	19.995	101.114	19.145	60.089	0.500
555.000	346.735	79.997	19.995	101.111	19.149	59.792	0.509
555.500	347.007	79.998	19.995	101.106	19.146	59.968	0.538
556.000	347.281	79.998	19.995	101.103	19.149	59.796	0.548
556.500	347.525	79.999	19.995	101.104	19.151	59.599	0.532
557.000	347.772	79.996	19.997	101.107	19.148	59.833	0.504
557.500	348.014	79.997	19.995	101.106	19.146	59.946	0.490
558.000	348.299	79.996	19.994	101.106	19.149	59.763	0.508
558.500	348.534	79.997	19.995	101.106	19.150	59.710	0.524
559.000	348.835	79.999	19.996	101.104	19.151	59.602	0.528
559.501	349.080	79.997	19.996	101.100	19.150	59.689	0.541
560.001	349.290	79.994	19.995	101.098	19.155	59.344	0.501
560.500	349.603	79.996	19.996	101.098	19.152	59.517	0.489
561.000	349.802	79.995	19.995	101.099	19.157	59.192	0.517
561.500	350.137	79.999	19.995	101.099	19.157	59.178	0.523
562.000	350.405	79.996	19.996	101.099	19.156	59.249	0.569
562.500	350.669	79.997	19.995	101.100	19.159	59.016	0.567
563.000	350.906	79.998	19.995	101.100	19.159	59.038	0.517
563.500	351.143	79.998	19.995	101.098	19.164	58.651	0.488
564.000	351.392	79.997	19.996	101.096	19.165	58.634	0.480
564.500	351.709	79.996	19.995	101.094	19.169	58.347	0.526
565.000	351.965	79.995	19.994	101.092	19.170	58.224	0.569
565.500	352.231	79.997	19.995	101.085	19.171	58.170	0.548
566.000	352.442	79.999	19.995	101.081	19.176	57.830	0.499
566.500	352.738	79.998	19.995	101.079	19.174	57.944	0.492
567.000	353.011	79.997	19.995	101.074	19.180	57.523	0.538
567.500	353.242	79.997	19.994	101.070	19.183	57.318	0.536
568.000	353.538	79.996	19.995	101.075	19.184	57.205	0.515
568.500	353.789	79.997	19.995	101.078	19.187	57.018	0.537
569.000	354.049	79.997	19.995	101.077	19.188	56.918	0.529
569.500	354.326	79.997	19.995	101.079	19.190	56.805	0.524
570.000	354.575	80.000	19.995	101.078	19.194	56.505	0.532
570.500	354.854	79.998	19.994	101.072	19.194	56.520	0.527
571.000	355.093	79.999	19.995	101.067	19.199	56.120	0.523
571.500	355.336	79.998	19.994	101.064	19.203	55.869	0.500
572.000	355.585	79.998	19.995	101.060	19.205	55.686	0.487
572.500	355.817	79.996	19.995	101.059	19.211	55.311	0.487
573.000	356.073	79.998	19.995	101.060	19.211	55.271	0.485
573.500	356.363	79.999	19.994	101.058	19.215	54.970	0.517
574.000	356.605	79.998	19.995	101.057	19.221	54.552	0.539
574.500	356.854	79.999	19.995	101.059	19.223	54.415	0.512
575.000	357.134	79.998	19.995	101.058	19.230	53.874	0.510
575.500	357.366	79.999	19.996	101.052	19.234	53.632	0.521
576.000	357.645	79.997	19.994	101.049	19.235	53.572	0.511
576.500	357.907	79.996	19.994	101.045	19.238	53.370	0.526
577.000	358.153	79.996	19.994	101.037	19.242	53.018	0.524
577.500	358.417	79.998	19.996	101.032	19.245	52.799	0.509
578.000	358.674	79.998	19.996	101.033	19.252	52.302	0.516
578.500	358.953	79.998	19.996	101.030	19.256	52.049	0.529
579.000	359.224	79.999	19.997	101.028	19.262	51.580	0.543
579.500	359.469	79.998	19.995	101.027	19.265	51.382	0.533
580.000	359.703	79.999	19.995	101.023	19.272	50.925	0.497
580.500	359.948	79.997	19.995	101.020	19.274	50.717	0.479
581.000	360.257	79.998	19.996	101.020	19.280	50.346	0.516
581.500	360.518	79.999	19.996	101.019	19.283	50.095	0.562
582.000	360.749	79.997	19.996	101.018	19.285	49.980	0.531
582.500	361.036	79.998	19.996	101.016	19.292	49.467	0.506
583.000	361.245	79.997	19.996	101.015	19.297	49.135	0.507
583.500	361.536	79.996	19.997	101.014	19.302	48.765	0.498
584.000	361.786	79.997	19.996	101.011	19.310	48.159	0.520
584.500	362.012	79.996	19.996	101.004	19.313	47.926	0.508
585.000	362.286	79.998	19.996	100.999	19.318	47.552	0.487
585.500	362.533	79.997	19.996	100.992	19.321	47.344	0.510
586.000	362.773	79.995	19.997	100.989	19.325	47.093	0.504
586.500	363.063	79.998	19.997	100.989	19.334	46.464	0.509
587.000	363.314	79.996	19.996	100.989	19.337	46.258	0.535
587.500	363.567	79.994	19.995	100.990	19.345	45.657	0.522
588.000	363.873	79.996	19.997	100.991	19.349	45.371	0.532
588.500	364.100	79.997	19.998	100.986	19.358	44.710	0.546
589.000	364.357	79.996	19.997	100.980	19.363	44.399	0.508
589.501	364.600	79.998	19.996	100.980	19.368	44.016	0.492
590.001	364.861	79.999	19.999	100.979	19.372	43.702	0.502
590.500	365.136	79.996	19.997	100.979	19.379	43.246	0.520
591.000	365.412	79.997	19.997	100.976	19.386	42.740	0.543
591.500	365.653	79.996	19.995	100.976	19.392	42.276	0.534
592.000	365.888	79.996	19.996	100.975	19.395	42.081	0.497
592.500	366.173	79.997	19.996	100.974	19.400	41.696	0.498
593.000	366.420	79.995	19.996	100.972	19.405	41.342	0.526
593.500	366.707	79.997	19.996	100.971	19.414	40.716	0.533
594.000	366.926	79.996	19.997	100.965	19.420	40.249	0.520
594.500	367.211	79.999	19.996	100.958	19.424	39.988	0.504
595.000	367.430	79.996	19.997	100.951	19.430	39.583	0.504
595.500	367.711	79.997	19.997	100.946	19.435	39.216	0.503
596.000	367.953	79.997	19.996	100.943	19.441	38.765	0.512
596.500	368.225	79.997	19.995	100.945	19.449	38.233	0.519
597.000	368.501	79.999	19.996	100.949	19.453	37.934	0.530
597.500	368.746	79.999	19.996	100.951	19.458	37.575	0.534
598.000	369.051	79.998	19.996	100.951	19.465	37.055	0.536
598.500	369.257	79.998	19.995	100.950	19.470	36.678	0.531
599.000	369.509	79.997	19.996	100.946	19.478	36.116	0.484
599.500	369.788	79.998	19.997	100.941	19.478	36.086	0.494
600.000	370.018	79.999	19.995	100.939	19.489	35.359	0.520
600.500	370.298	79.998	19.996	100.939	19.491	35.173	0.510
601.000	370.543	79.996	19.996	100.939	19.497	34.759	0.518
601.501	370.788	79.997	19.996	100.939	19.504	34.243	0.508
602.000	371.060	79.999	19.995	100.935	19.507	34.026	0.504
602.500	371.332	79.998	19.996	100.927	19.510	33.803	0.531
603.000	371.585	80.000	19.996	100.924	19.516	33.382	0.534
603.500	371.896	80.001	19.996	100.918	19.527	32.642	0.544
604.000	372.110	79.999	19.996	100.911	19.528	32.513	0.544
604.500	372.369	80.001	19.996	100.910	19.535	32.007	0.499
605.000	372.680	79.999	19.995	100.909	19.542	31.515	0.522
605.500	372.911	80.000	19.996	100.909	19.546	31.249	0.556
606.000	373.164	79.998	19.996	100.913	19.554	30.696	0.513
606.500	373.449	79.999	19.996	100.917	19.557	30.446	0.511
607.000	373.658	79.997	19.995	100.917	19.560	30.223	0.516
607.500	373.940	79.999	19.996	100.917	19.567	29.753	0.493
608.001	374.203	79.999	19.996	100.913	19.573	29.302	0.518
608.500	374.459	79.998	19.996	100.907	19.579	28.888	0.532
609.000	374.695	79.998	19.996	100.901	19.583	28.579	0.506
609.500	374.931	79.997	19.996	100.899	19.592	27.972	0.482
610.000	375.236	79.999	19.996	100.899	19.592	27.951	0.507
610.500	375.488	79.999	19.997	100.897	19.599	27.483	0.549
611.000	375.728	79.995	19.996	100.897	19.601	27.284	0.524
611.500	375.997	79.999	19.996	100.899	19.611	26.596	0.500
612.000	376.217	79.998	19.996	100.899	19.615	26.299	0.499
612.500	376.470	79.995	19.997	100.896	19.618	26.088	0.481
613.000	376.734	79.997	19.997	100.895	19.625	25.607	0.495
613.500	376.989	79.998	19.995	100.893	19.624	25.649	0.518
614.000	377.232	79.999	19.997	100.891	19.632	25.129	0.509
614.500	377.488	79.997	19.996	100.891	19.637	24.771	0.499
615.000	377.704	79.998	19.997	100.891	19.644	24.217	0.485
615.500	377.998	79.999	19.997	100.887	19.645	24.156	0.491
616.000	378.264	79.998	19.996	100.889	19.650	23.782	0.535
616.500	378.513	79.996	19.996	100.891	19.654	23.489	0.537
617.001	378.707	79.997	19.996	100.892	19.659	23.149	0.479
617.500	378.988	79.996	19.996	100.891	19.659	23.169	0.459
618.000	379.217	79.996	19.996	100.896	19.666	22.687	0.492
618.500	379.499	79.999	19.997	100.889	19.672	22.246	0.511
619.000	379.731	79.998	19.997	100.883	19.675	21.994	0.512
619.500	380.005	79.997	19.996	100.878	19.681	21.562	0.510
620.000	380.260	79.999	19.996	100.875	19.682	21.545	0.517
620.500	380.542	79.999	19.997	100.872	19.689	21.022	0.533
621.000	380.730	79.997	19.996	100.872	19.692	20.823	0.504
621.500	380.991	79.998	19.995	100.876	19.696	20.495	0.460
622.000	381.277	80.000	19.995	100.878	19.701	20.192	0.498
622.500	381.530	79.999	19.995	100.881	19.704	19.947	0.543
623.000	381.799	79.998	19.994	100.882	19.706	19.767	0.531
623.500	382.035	80.000	19.996	100.888	19.710	19.547	0.514
624.000	382.288	80.001	19.995	100.889	19.711	19.478	0.497
624.500	382.573	80.001	19.995	100.884	19.719	18.900	0.513
625.000	382.811	79.999	19.995	100.883	19.719	18.852	0.531
625.500	383.045	79.999	19.995	100.879	19.722	18.683	0.498
626.000	383.307	80.000	19.995	100.872	19.724	18.484	0.484
626.500	383.566	79.998	19.995	100.867	19.728	18.219	0.509
627.000	383.812	79.999	19.995	100.873	19.733	17.843	0.513
627.500	384.075	80.003	19.995	100.875	19.732	17.970	0.507
628.000	384.327	80.000	19.995	100.876	19.735	17.744	0.512
628.500	384.593	80.003	19.995	100.877	19.738	17.527	0.517
629.000	384.808	80.001	19.996	100.876	19.740	17.341	0.499
629.500	385.089	80.000	19.995	100.870	19.742	17.250	0.488
630.000	385.362	80.000	19.995	100.866	19.745	17.023	0.525
630.500	385.586	80.002	19.995	100.865	19.747	16.892	0.525
631.000	385.826	80.001	19.996	100.865	19.751	16.579	0.480
631.500	386.068	80.002	19.995	100.866	19.751	16.568	0.473
632.000	386.332	80.001	19.995	100.868	19.754	16.358	0.494
632.500	386.568	79.999	19.994	100.872	19.756	16.212	0.503
633.000	386.840	80.000	19.995	100.873	19.757	16.122	0.504
633.500	387.105	79.999	19.995	100.874	19.758	16.097	0.523
634.000	387.301	79.997	19.995	100.874	19.761	15.897	0.499
634.500	387.641	80.000	19.995	100.872	19.764	15.665	0.499
635.000	387.893	79.999	19.994	100.869	19.764	15.644	0.564
635.500	388.115	80.001	19.995	100.867	19.765	15.610	0.533
636.000	388.368	79.999	19.994	100.867	19.768	15.331	0.474
636.500	388.603	79.997	19.995	100.865	19.768	15.335	0.481
637.000	388.870	79.999	19.994	100.867	19.768	15.347	0.495
637.500	389.101	79.998	19.994	100.866	19.773	15.036	0.500
638.000	389.360	79.997	19.994	100.868	19.772	15.061	0.494
638.500	389.633	79.997	19.995	100.870	19.776	14.773	0.511
639.000	389.887	79.997	19.995	100.872	19.778	14.617	0.530
639.500	390.138	79.995	19.995	100.872	19.780	14.499	0.516
640.000	390.342	79.995	19.994	100.873	19.781	14.470	0.480
640.500	390.629	79.996	19.995	100.874	19.780	14.516	0.473
641.000	390.875	79.996	19.995	100.873	19.781	14.424	0.512
641.500	391.133	79.996	19.995	100.871	19.782	14.376	0.518
642.000	391.371	79.996	19.995	100.870	19.783	14.318	0.500
642.500	391.619	79.997	19.996	100.870	19.782	14.391	0.491
643.000	391.892	79.997	19.996	100.867	19.786	14.094	0.504
643.500	392.111	79.997	19.995	100.866	19.784	14.209	0.507
644.000	392.349	79.996	19.995	100.865	19.784	14.255	0.475
644.500	392.646	79.995	19.995	100.866	19.786	14.085	0.496
645.000	392.895	79.997	19.996	100.865	19.788	13.902	0.540
645.500	393.161	79.998	19.996	100.864	19.787	14.004	0.531
646.000	393.404	79.996	19.995	100.865	19.786	14.095	0.512
646.500	393.684	79.999	19.996	100.865	19.787	14.016	0.516
647.000	393.922	79.999	19.995	100.864	19.790	13.826	0.521
647.500	394.173	79.997	19.994	100.864	19.790	13.793	0.503
648.000	394.411	79.998	19.996	100.863	19.793	13.549	0.489
648.500	394.677	79.998	19.996	100.862	19.790	13.768	0.497
649.000	394.918	79.997	19.996	100.862	19.790	13.812	0.506
649.500	395.180	79.998	19.994	100.862	19.791	13.729	0.505
650.000	395.426	79.997	19.995	100.862	19.790	13.820	0.505
650.500	395.668	79.996	19.996	100.863	19.792	13.626	0.498
651.000	395.928	79.998	19.996	100.863	19.797	13.285	0.495
651.500	396.153	79.998	19.995	100.864	19.792	13.615	0.494
652.000	396.433	80.000	19.995	100.864	19.793	13.563	0.495
652.500	396.674	79.997	19.995	100.864	19.791	13.742	0.513
653.000	396.937	79.995	19.995	100.863	19.793	13.589	0.513
653.500	397.174	80.000	19.994	100.863	19.794	13.528	0.502
654.000	397.463	79.998	19.995	100.863	19.796	13.344	0.513
654.500	397.690	80.000	19.995	100.863	19.800	13.074	0.521
655.000	397.932	79.996	19.995	100.863	19.799	13.183	0.492
655.500	398.176	79.999	19.995	100.865	19.796	13.330	0.477
656.000	398.404	79.998	19.994	100.865	19.798	13.250	0.479
656.500	398.673	79.998	19.995	100.867	19.799	13.181	0.485
657.000	398.943	79.998	19.995	100.869	19.799	13.181	0.518
657.500	399.178	79.998	19.995	100.869	19.800	13.068	0.522
658.000	399.406	79.999	19.996	100.867	19.797	13.265	0.483
658.500	399.678	79.998	19.996	100.866	19.797	13.265	0.481
659.000	399.929	79.999	19.995	100.865	19.799	13.125	0.511
659.500	400.193	79.998	19.996	100.862	19.798	13.200	0.519
660.000	400.434	79.998	19.994	100.862	19.802	12.964	0.510
660.500	400.701	79.999	19.995	100.863	19.803	12.828	0.507
661.000	400.932	79.998	19.995	100.864	19.802	12.909	0.503
661.500	401.164	79.998	19.995	100.864	19.804	12.811	0.480
662.000	401.445	79.999	19.996	100.869	19.803	12.863	0.488
662.500	401.699	79.999	19.995	100.870	19.804	12.769	0.524
663.000	401.933	80.000	19.995	100.870	19.806	12.644	0.511
663.500	402.192	79.999	19.994	100.870	19.806	12.627	0.491
664.000	402.437	79.998	19.995	100.871	19.808	12.512	0.499
664.500	402.709	79.998	19.995	100.867	19.805	12.708	0.511
665.000	402.904	79.997	19.995	100.865	19.804	12.784	0.492
665.500	403.189	79.998	19.996	100.866	19.804	12.767	0.473
666.000	403.450	79.999	19.995	100.864	19.805	12.737	0.513
666.500	403.713	79.997	19.995	100.862	19.808	12.472	0.535
667.000	403.955	79.999	19.996	100.862	19.807	12.579	0.514
667.500	404.206	79.996	19.994	100.863	19.809	12.466	0.499
668.000	404.451	79.996	19.995	100.862	19.807	12.605	0.494
668.500	404.724	79.998	19.995	100.863	19.806	12.626	0.507
669.000	404.929	79.997	19.995	100.864	19.804	12.762	0.498
669.500	405.219	79.999	19.996	100.864	19.809	12.448	0.487
670.000	405.442	79.997	19.996	100.864	19.806	12.651	0.504
670.500	405.705	79.999	19.995	100.863	19.803	12.845	0.499
671.000	405.968	79.995	19.996	100.862	19.806	12.625	0.506
671.500	406.225	79.996	19.996	100.863	19.804	12.780	0.523
672.000	406.479	79.999	19.997	100.867	19.808	12.473	0.515
672.500	406.685	79.995	19.997	100.867	19.808	12.492	0.486
673.000	406.961	79.996	19.995	100.868	19.805	12.693	0.471
673.500	407.201	79.998	19.996	100.868	19.810	12.334	0.499
674.000	407.477	79.997	19.996	100.868	19.810	12.386	0.516
674.500	407.721	79.997	19.996	100.864	19.808	12.491	0.518
675.000	408.001	79.996	19.996	100.867	19.810	12.346	0.522
675.500	408.250	79.997	19.996	100.868	19.810	12.347	0.526
676.000	408.499	79.996	19.996	100.868	19.812	12.232	0.513
676.500	408.745	79.997	19.996	100.871	19.813	12.178	0.496
677.000	409.006	79.996	19.997	100.873	19.808	12.470	0.501
677.501	409.253	79.997	19.996	100.869	19.810	12.395	0.508
678.000	409.497	79.996	19.996	100.868	19.814	12.086	0.500
678.500	409.754	79.996	19.996	100.868	19.814	12.051	0.496
679.000	410.006	79.997	19.996	100.864	19.812	12.191	0.505
679.500	410.278	79.998	19.996	100.863	19.812	12.193	0.516
680.000	410.500	79.997	19.996	100.862	19.816	11.930	0.509
680.500	410.796	79.997	19.995	100.863	19.813	12.124	0.506
681.000	411.007	79.998	19.997	100.863	19.816	11.926	0.513
681.500	411.263	79.998	19.995	100.864	19.818	11.758	0.487
682.000	411.524	79.997	19.996	100.865	19.812	12.199	0.492
682.500	411.741	79.997	19.996	100.866	19.814	12.084	0.497
683.000	412.027	80.000	19.995	100.865	19.818	11.823	0.490
683.500	412.275	80.000	19.995	100.861	19.813	12.137	0.518
684.000	412.520	79.997	19.996	100.859	19.815	11.984	0.514
684.500	412.756	79.998	19.995	100.857	19.812	12.195	0.488
685.000	412.996	80.000	19.995	100.857	19.815	12.038	0.479
685.500	413.267	79.998	19.995	100.858	19.815	11.995	0.493
686.000	413.554	79.999	19.995	100.861	19.815	11.980	0.534
686.500	413.792	79.999	19.995	100.865	19.817	11.892	0.541
687.000	414.043	79.999	19.995	100.867	19.820	11.656	0.507
687.500	414.272	79.998	19.996	100.868	19.819	11.702	0.485
688.001	414.548	79.997	19.995	100.867	19.819	11.729	0.492
688.500	414.777	80.001	19.995	100.867	19.818	11.757	0.505
689.000	415.055	79.998	19.996	100.866	19.819	11.692	0.506
689.500	415.307	79.995	19.995	100.864	19.816	11.947	0.519
690.000	415.557	79.998	19.995	100.863	19.818	11.780	0.516
690.500	415.841	79.998	19.995	100.863	19.816	11.898	0.518
691.000	416.052	79.998	19.995	100.864	19.814	12.087	0.514
691.500	416.312	79.998	19.995	100.865	19.819	11.689	0.483
692.000	416.553	79.997	19.995	100.865	19.822	11.503	0.486
692.500	416.835	79.998	19.995	100.865	19.821	11.581	0.512
693.000	417.045	79.998	19.996	100.865	19.822	11.528	0.507
693.500	417.334	80.000	19.995	100.864	19.823	11.459	0.495
694.000	417.617	79.998	19.996	100.863	19.819	11.744	0.536
694.500	417.863	79.996	19.995	100.863	19.821	11.589	0.550
695.000	418.139	79.998	19.995	100.863	19.818	11.779	0.525
695.500	418.358	79.998	19.997	100.863	19.822	11.473	0.509
696.000	418.619	79.997	19.997	100.864	19.822	11.529	0.487
696.500	418.857	79.997	19.997	100.865	19.821	11.566	0.489
697.000	419.113	79.997	19.996	100.866	19.825	11.305	0.497
697.500	419.364	79.999	19.996	100.865	19.823	11.408	0.501
698.000	419.611	79.997	19.996	100.865	19.822	11.537	0.502
698.500	419.899	79.996	19.997	100.864	19.827	11.165	0.516
699.000	420.113	79.998	19.996	100.863	19.822	11.533	0.518
699.500	420.435	79.996	19.996	100.863	19.825	11.289	0.519
700.000	420.636	79.996	19.996	100.864	19.825	11.268	0.530
700.500	420.908	79.995	19.997	100.863	19.825	11.270	0.498
701.000	421.153	79.999	19.997	100.864	19.821	11.594	0.494
701.500	421.440	79.998	19.997	100.864	19.822	11.502	0.525
702.000	421.643	79.999	19.996	100.864	19.824	11.325	0.511
702.500	421.931	79.997	19.996	100.866	19.825	11.279	0.491
703.000	422.177	79.999	19.996	100.867	19.824	11.352	0.513
703.500	422.411	79.999	19.995	100.866	19.826	11.187	0.507
704.000	422.675	79.999	19.996	100.868	19.824	11.364	0.489
704.500	422.924	79.997	19.996	100.867	19.823	11.406	0.505
705.000	423.167	79.998	19.996	100.866	19.824	11.365	0.502
705.501	423.393	80.000	19.997	100.865	19.826	11.197	0.480
706.000	423.677	79.999	19.997	100.865	19.826	11.243	0.489
706.500	423.945	79.998	19.997	100.863	19.823	11.465	0.531
707.000	424.204	79.997	19.997	100.863	19.827	11.158	0.539
707.500	424.453	79.998	19.996	100.863	19.823	11.446	0.517
708.000	424.710	79.996	19.997	100.864	19.826	11.224	0.507
708.500	424.950	79.999	19.998	100.864	19.826	11.187	0.501
709.000	425.235	79.999	19.997	100.863	19.830	10.963	0.511
709.500	425.476	80.000	19.996	100.862	19.829	10.972	0.526
710.000	425.723	80.000	19.996	100.862	19.826	11.214	0.507
710.500	425.985	80.000	19.996	100.863	19.825	11.266	0.499
711.000	426.272	79.999	19.996	100.863	19.827	11.134	0.529
711.500	426.495	80.000	19.996	100.862	19.827	11.126	0.529
712.000	426.738	80.000	19.995	100.861	19.829	11.011	0.489
712.500	427.023	79.999	19.995	100.860	19.827	11.164	0.497
713.000	427.227	79.996	19.995	100.858	19.827	11.141	0.509
713.501	427.498	79.998	19.996	100.858	19.828	11.053	0.482
714.000	427.756	79.999	19.995	100.858	19.829	10.980	0.502
714.500	428.002	79.999	19.995	100.858	19.829	11.032	0.516
715.000	428.247	80.000	19.995	100.858	19.832	10.798	0.498
715.500	428.502	79.999	19.995	100.858	19.829	10.984	0.496
716.000	428.766	79.999	19.994	100.858	19.829	10.976	0.509
716.500	429.000	80.000	19.995	100.858	19.833	10.700	0.508
717.000	429.249	79.998	19.996	100.859	19.832	10.811	0.491
717.500	429.550	79.998	19.994	100.859	19.830	10.942	0.517
718.000	429.763	79.997	19.994	100.860	19.829	11.034	0.532
718.500	430.038	79.998	19.995	100.859	19.828	11.101	0.501
719.000	430.269	79.996	19.995	100.858	19.829	11.024	0.497
719.500	430.511	79.997	19.995	100.859	19.829	11.016	0.489
720.000	430.760	79.997	19.996	100.858	19.832	10.809	0.482
720.500	431.049	79.999	19.995	100.858	19.829	10.967	0.515
721.000	431.297	79.997	19.996	100.859	19.827	11.124	0.538
721.500	431.552	79.997	19.995	100.860	19.830	10.961	0.520
722.000	431.803	79.997	19.996	100.860	19.832	10.813	0.505
722.500	432.066	79.997	19.996	100.861	19.828	11.056	0.510
723.000	432.311	79.998	19.995	100.861	19.832	10.809	0.511
723.500	432.557	79.999	19.996	100.861	19.829	11.005	0.499
724.000	432.813	79.999	19.995	100.861	19.832	10.792	0.496
724.500	433.070	79.996	19.996	100.861	19.835	10.537	0.507
725.000	433.267	79.998	19.996	100.861	19.833	10.694	0.483
725.500	433.572	79.996	19.996	100.861	19.833	10.717	0.478
726.000	433.821	79.996	19.996	100.861	19.831	10.878	0.528
726.500	434.098	79.996	19.994	100.862	19.832	10.786	0.540
727.000	434.339	79.994	19.996	100.861	19.830	10.928	0.522
727.500	434.577	79.998	19.996	100.861	19.833	10.721	0.499
728.000	434.827	79.999	19.995	100.861	19.833	10.698	0.484
728.500	435.124	79.998	19.996	100.859	19.833	10.692	0.517
729.000	435.421	79.998	19.995	100.859	19.831	10.886	0.570
729.500	435.628	79.998	19.994	100.858	19.833	10.696	0.549
730.000	435.864	79.997	19.995	100.858	19.835	10.606	0.474
730.500	436.150	79.999	19.995	100.859	19.836	10.506	0.482
731.000	436.419	79.997	19.995	100.860	19.832	10.794	0.539
731.500	436.647	79.998	19.995	100.859	19.837	10.411	0.526
732.000	436.875	79.998	19.995	100.860	19.834	10.635	0.476
732.500	437.123	79.997	19.996	100.859	19.838	10.389	0.466
733.000	437.394	79.998	19.996	100.857	19.835	10.541	0.498
733.500	437.653	79.998	19.995	100.856	19.836	10.476	0.525
734.000	437.920	79.999	19.996	100.856	19.837	10.453	0.528
734.500	438.165	79.999	19.996	100.857	19.834	10.673	0.519
735.000	438.393	79.998	19.995	100.857	19.835	10.581	0.492
735.500	438.683	79.998	19.996	100.860	19.839	10.319	0.496
736.000	438.909	79.998	19.994	100.860	19.839	10.311	0.517
736.500	439.166	79.997	19.995	100.861	19.838	10.332	0.500
737.000	439.403	79.998	19.996	100.860	19.840	10.198	0.489
737.500	439.682	79.998	19.995	100.860	19.843	10.019	0.505
738.000	439.944	79.997	19.995	100.860	19.845	9.860	0.528
738.500	440.175	79.997	19.996	100.859	19.840	10.219	0.517
739.000	440.412	79.998	19.995	100.859	19.840	10.244	0.480
739.500	440.679	79.998	19.996	100.860	19.843	10.025	0.486
740.000	440.957	79.996	19.996	100.860	19.842	10.067	0.525
740.500	441.185	80.001	19.996	100.861	19.841	10.136	0.526
741.000	441.451	79.998	19.996	100.861	19.845	9.824	0.500
741.500	441.711	79.997	19.995	100.861	19.840	10.228	0.510
742.000	441.976	79.996	19.995	100.861	19.842	10.087	0.525
742.500	442.206	79.997	19.995	100.861	19.840	10.206	0.510
743.000	442.483	79.997	19.995	100.860	19.843	9.989	0.501
743.500	442.703	79.998	19.996	100.859	19.843	9.972	0.502
744.000	442.958	79.999	19.995	100.860	19.845	9.864	0.486
744.500	443.203	79.999	19.995	100.860	19.844	9.929	0.488
745.000	443.503	79.997	19.995	100.860	19.846	9.768	0.522
745.500	443.765	79.998	19.996	100.861	19.844	9.935	0.553
746.000	444.012	79.995	19.995	100.863	19.847	9.747	0.536
746.500	444.253	79.996	19.996	100.863	19.845	9.843	0.499
747.000	444.533	79.998	19.995	100.863	19.845	9.822	0.504
747.500	444.751	80.000	19.995	100.862	19.846	9.804	0.510
748.000	444.976	79.997	19.995	100.863	19.847	9.681	0.471
748.500	445.264	79.997	19.995	100.862	19.848	9.643	0.478
749.000	445.503	79.996	19.994	100.862	19.846	9.798	0.520
749.500	445.778	79.994	19.994	100.862	19.849	9.549	0.521
750.000	446.062	79.996	19.995	100.864	19.847	9.699	0.536
750.500	446.334	79.998	19.995	100.863	19.847	9.741	0.557
751.000	446.540	79.997	19.995	100.863	19.847	9.716	0.517
751.500	446.808	79.997	19.996	100.863	19.849	9.575	0.476
752.000	447.075	79.997	19.995	100.863	19.852	9.353	0.505
752.500	447.282	79.997	19.995	100.863	19.848	9.612	0.505
753.000	447.552	79.999	19.995	100.864	19.851	9.396	0.476
753.500	447.838	79.997	19.995	100.864	19.851	9.427	0.516
754.000	448.099	79.997	19.996	100.864	19.851	9.404	0.551
754.500	448.312	79.998	19.995	100.864	19.851	9.421	0.510
755.000	448.574	79.997	19.995	100.864	19.850	9.521	0.475
755.500	448.843	79.997	19.995	100.864	19.845	9.828	0.504
756.000	449.069	79.996	19.996	100.865	19.854	9.242	0.513
756.500	449.325	79.998	19.995	100.864	19.848	9.655	0.488
757.000	449.603	79.998	19.994	100.864	19.852	9.382	0.508
757.500	449.820	79.998	19.995	100.863	19.854	9.210	0.514
758.000	450.107	79.996	19.995	100.862	19.851	9.419	0.499
758.500	450.336	79.998	19.994	100.860	19.855	9.154	0.510
759.000	450.593	79.998	19.996	100.858	19.851	9.450	0.501
759.500	450.853	79.998	19.995	100.857	19.851	9.426	0.502
760.000	451.151	79.998	19.996	100.859	19.851	9.442	0.537
760.500	451.370	79.997	19.996	100.860	19.850	9.467	0.537
761.000	451.652	80.000	19.995	100.860	19.855	9.112	0.509
761.500	451.864	79.999	19.996	100.858	19.850	9.476	0.498
762.000	452.132	79.998	19.995	100.856	19.856	9.056	0.487
762.500	452.398	79.998	19.996	100.854	19.857	8.995	0.506
763.000	452.670	79.999	19.995	100.854	19.855	9.165	0.536
763.500	452.897	79.998	19.996	100.855	19.855	9.163	0.519
764.000	453.155	79.999	19.996	100.860	19.856	9.086	0.492
764.500	453.399	79.999	19.996	100.864	19.857	8.983	0.493
765.000	453.645	79.998	19.995	100.865	19.857	8.967	0.496
765.500	453.903	79.998	19.995	100.865	19.859	8.852	0.497
766.000	454.149	79.998	19.995	100.865	19.854	9.186	0.504
766.500	454.447	79.996	19.995	100.863	19.856	9.048	0.524
767.000	454.744	79.998	19.996	100.863	19.860	8.806	0.570
767.500	454.949	79.996	19.994	100.863	19.859	8.877	0.549
768.000	455.181	79.997	19.996	100.862	19.857	8.974	0.469
768.500	455.478	79.999	19.996	100.862	19.856	9.075	0.483
769.000	455.723	79.998	19.995	100.863	19.855	9.167	0.535
769.500	455.982	79.998	19.995	100.862	19.853	9.255	0.523
770.000	456.244	79.998	19.996	100.862	19.852	9.323	0.513
770.500	456.487	79.998	19.995	100.861	19.855	9.167	0.513
771.000	456.703	80.000	19.996	100.860	19.856	9.067	0.482
771.500	456.941	79.995	19.995	100.860	19.856	9.069	0.456
772.000	457.233	79.997	19.996	100.860	19.857	8.975	0.492
772.500	457.462	80.002	19.996	100.861	19.861	8.701	0.525
773.000	457.730	79.996	19.994	100.863	19.859	8.824	0.509
773.500	457.984	79.998	19.996	100.864	19.858	8.902	0.509
774.000	458.202	79.998	19.995	100.860	19.855	9.123	0.497
774.500	458.468	79.997	19.995	100.857	19.858	8.952	0.479
775.000	458.753	79.998	19.996	100.856	19.858	8.959	0.518
775.500	459.036	79.997	19.995	100.856	19.859	8.869	0.559
776.000	459.271	79.999	19.996	100.855	19.856	9.034	0.543
776.500	459.522	79.999	19.995	100.854	19.858	8.944	0.502
777.000	459.787	79.997	19.997	100.856	19.857	8.989	0.502
777.500	460.034	79.998	19.995	100.855	19.858	8.895	0.514
778.000	460.282	79.998	19.995	100.855	19.861	8.716	0.503
778.501	460.563	79.998	19.994	100.856	19.859	8.835	0.512
779.000	460.799	79.998	19.996	100.860	19.859	8.856	0.523
779.500	461.068	79.998	19.996	100.859	19.860	8.814	0.511
780.000	461.319	79.998	19.995	100.858	19.860	8.751	0.513
780.500	461.588	79.998	19.995	100.858	19.857	8.975	0.520
781.000	461.856	79.999	19.996	100.858	19.857	9.027	0.528
781.500	462.096	79.998	19.996	100.857	19.857	9.001	0.522
782.000	462.321	79.998	19.996	100.859	19.859	8.832	0.486
782.500	462.572	79.997	19.995	100.860	19.860	8.801	0.471
783.000	462.807	79.998	19.995	100.859	19.856	9.079	0.481
783.500	463.075	79.998	19.995	100.858	19.862	8.651	0.495
784.000	463.305	79.997	19.995	100.856	19.857	9.014	0.500
784.500	463.553	79.999	19.995	100.856	19.866	8.355	0.488
785.001	463.828	79.999	19.996	100.854	19.858	8.942	0.501
785.500	464.091	79.999	19.996	100.851	19.859	8.823	0.531
786.000	464.323	79.998	19.995	100.849	19.863	8.595	0.517
786.500	464.565	79.999	19.997	100.850	19.861	8.708	0.484
787.000	464.818	80.000	19.995	100.850	19.859	8.891	0.485
787.500	465.061	79.999	19.994	100.851	19.864	8.482	0.496
788.000	465.323	79.998	19.995	100.855	19.859	8.832	0.500
788.500	465.605	79.999	19.995	100.855	19.863	8.565	0.524
789.000	465.876	80.000	19.995	100.855	19.862	8.674	0.549
789.500	466.091	79.999	19.995	100.855	19.865	8.419	0.520
790.000	466.337	80.002	19.995	100.855	19.863	8.559	0.473
790.500	466.616	80.000	19.994	100.854	19.859	8.847	0.493
791.000	466.824	79.999	19.995	100.857	19.862	8.617	0.506
791.500	467.100	80.001	19.996	100.856	19.862	8.645	0.486
792.000	467.361	80.000	19.997	100.851	19.864	8.476	0.511
792.500	467.640	79.998	19.996	100.846	19.866	8.348	0.539
793.000	467.846	80.000	19.996	100.840	19.864	8.488	0.513
793.500	468.159	79.998	19.996	100.838	19.864	8.465	0.502
794.000	468.375	79.999	19.997	100.838	19.862	8.612	0.523
794.500	468.628	80.000	19.996	100.838	19.862	8.616	0.499
795.000	468.870	79.997	19.995	100.842	19.863	8.553	0.483
795.500	469.136	80.000	19.995	100.849	19.865	8.450	0.501
796.000	469.422	79.999	19.996	100.849	19.863	8.590	0.529
796.500	469.619	79.998	19.996	100.849	19.867	8.279	0.517
797.000	469.924	79.997	19.996	100.854	19.861	8.697	0.493
797.500	470.143	80.000	19.997	100.854	19.865	8.427	0.513
798.000	470.409	79.998	19.995	100.854	19.864	8.485	0.505
798.500	470.691	79.996	19.996	100.856	19.865	8.404	0.517
799.000	470.952	79.998	19.998	100.858	19.864	8.469	0.546
799.500	471.167	79.998	19.995	100.856	19.872	7.932	0.509
800.000	471.464	79.997	19.996	100.856	19.866	8.347	0.493
800.500	471.698	79.993	19.997	100.857	19.870	8.042	0.522
801.000	471.939	79.997	19.997	100.857	19.868	8.208	0.503
801.500	472.192	79.994	19.997	100.855	19.868	8.201	0.485
802.000	472.473	79.996	19.995	100.857	19.868	8.206	0.514
802.500	472.746	79.997	19.996	100.857	19.865	8.392	0.543
803.000	472.998	79.995	19.996	100.855	19.867	8.308	0.539
803.500	473.218	80.000	19.996	100.852	19.868	8.210	0.499
804.001	473.523	79.998	19.996	100.854	19.869	8.160	0.499
804.500	473.738	79.997	19.996	100.853	19.867	8.277	0.522
805.000	474.015	79.998	19.996	100.853	19.870	8.066	0.505
805.501	474.279	79.997	19.996	100.854	19.869	8.106	0.516
806.001	474.571	79.998	19.996	100.856	19.868	8.216	0.549
806.501	474.824	79.998	19.995	100.857	19.868	8.218	0.550
807.000	475.043	79.998	19.996	100.858	19.868	8.239	0.508
807.500	475.340	79.996	19.996	100.859	19.868	8.235	0.494
808.000	475.568	79.998	19.996	100.861	19.868	8.210	0.521
808.500	475.824	79.997	19.994	100.861	19.868	8.185	0.505
809.000	476.084	79.997	19.996	100.861	19.870	8.084	0.500
809.501	476.346	79.996	19.996	100.862	19.869	8.116	0.519
810.001	476.597	79.998	19.996	100.862	19.869	8.162	0.518
810.500	476.813	79.997	19.996	100.862	19.867	8.267	0.490
811.000	477.068	79.999	19.995	100.863	19.869	8.146	0.469
811.500	477.343	79.996	19.995	100.863	19.868	8.203	0.500
812.000	477.587	79.998	19.996	100.862	19.871	8.021	0.524
812.500	477.850	79.999	19.995	100.862	19.870	8.102	0.513
813.000	478.154	79.997	19.996	100.861	19.866	8.359	0.537
813.500	478.382	79.996	19.995	100.861	19.871	8.015	0.549
814.000	478.631	79.999	19.995	100.860	19.867	8.260	0.504
814.500	478.914	79.996	19.996	100.860	19.866	8.327	0.505
815.000	479.114	79.998	19.995	100.859	19.870	8.078	0.508
815.500	479.371	79.997	19.995	100.860	19.867	8.260	0.470
816.000	479.691	79.997	19.995	100.857	19.869	8.124	0.517
816.500	479.920	79.997	19.995	100.855	19.868	8.222	0.563
817.000	480.151	79.997	19.994	100.856	19.869	8.135	0.505
817.500	480.415	79.998	19.996	100.857	19.865	8.400	0.477
818.000	480.663	79.996	19.995	100.857	19.870	8.097	0.503
818.500	480.941	79.999	19.996	100.860	19.869	8.117	0.519
819.000	481.160	79.998	19.995	100.862	19.872	7.922	0.512
819.500	481.427	79.998	19.996	100.863	19.870	8.079	0.491
820.000	481.670	79.998	19.995	100.863	19.875	7.736	0.498
820.500	481.968	79.996	19.996	100.863	19.875	7.742	0.526
821.000	482.218	79.997	19.995	100.861	19.873	7.819	0.544
821.500	482.473	79.997	19.994	100.856	19.870	8.096	0.526
822.000	482.736	79.996	19.995	100.849	19.873	7.839	0.511
822.500	482.950	79.997	19.995	100.847	19.872	7.933	0.498
823.000	483.229	79.996	19.995	100.847	19.869	8.136	0.485
823.500	483.458	79.997	19.995	100.850	19.872	7.919	0.501
824.000	483.707	79.999	19.996	100.853	19.868	8.202	0.493
824.500	483.947	79.997	19.995	100.861	19.874	7.793	0.483
825.000	484.244	79.999	19.995	100.860	19.869	8.164	0.514
825.500	484.477	79.997	19.996	100.860	19.874	7.781	0.534
826.000	484.745	79.997	19.996	100.860	19.873	7.819	0.515
826.500	484.968	79.996	19.996	100.861	19.874	7.806	0.496
827.000	485.231	79.995	19.995	100.861	19.873	7.821	0.488
827.500	485.470	79.998	19.995	100.861	19.874	7.758	0.494
828.000	485.756	79.997	19.996	100.860	19.876	7.637	0.514
828.500	486.010	79.996	19.996	100.858	19.876	7.671	0.533
829.000	486.262	79.995	19.996	100.856	19.874	7.756	0.523
829.500	486.522	79.996	19.995	100.852	19.874	7.761	0.509
830.000	486.755	79.996	19.996	100.852	19.875	7.694	0.502
830.500	487.026	79.996	19.995	100.854	19.871	8.012	0.498
831.000	487.263	79.998	19.995	100.856	19.871	8.012	0.506
831.500	487.496	79.995	19.995	100.856	19.873	7.870	0.489
832.000	487.790	79.995	19.995	100.859	19.869	8.123	0.498
832.500	488.021	79.995	19.996	100.853	19.876	7.611	0.526
833.000	488.298	79.997	19.996	100.850	19.869	8.156	0.517
833.500	488.514	79.995	19.995	100.846	19.875	7.741	0.500
834.000	488.803	79.996	19.995	100.846	19.872	7.945	0.499
834.500	489.073	79.995	19.995	100.846	19.870	8.095	0.532
835.000	489.292	79.998	19.995	100.852	19.873	7.869	0.524
835.500	489.550	79.997	19.995	100.854	19.876	7.642	0.482
836.000	489.796	79.999	19.996	100.858	19.872	7.901	0.491
836.500	490.087	79.998	19.996	100.861	19.873	7.878	0.521
837.000	490.299	79.997	19.995	100.862	19.876	7.627	0.520
837.500	490.555	79.997	19.995	100.864	19.876	7.652	0.485
838.000	490.816	79.998	19.994	100.865	19.878	7.498	0.493
838.500	491.064	79.999	19.996	100.865	19.876	7.611	0.513
839.000	491.356	79.997	19.995	100.864	19.875	7.676	0.524
839.500	491.593	79.999	19.996	100.862	19.874	7.810	0.535
840.000	491.826	79.999	19.995	100.861	19.877	7.600	0.500
840.500	492.078	79.998	19.996	100.862	19.874	7.797	0.478
841.001	492.354	79.997	19.995	100.856	19.871	7.999	0.506
841.500	492.592	79.999	19.995	100.856	19.872	7.901	0.521
842.000	492.864	79.999	19.996	100.856	19.870	8.084	0.512
842.500	493.121	79.999	19.996	100.857	19.874	7.789	0.520
843.000	493.353	80.000	19.994	100.852	19.876	7.634	0.510
843.500	493.617	79.999	19.995	100.852	19.871	8.002	0.493
844.000	493.871	79.999	19.997	100.852	19.876	7.669	0.507
844.500	494.130	79.998	19.996	100.852	19.872	7.913	0.515
845.000	494.354	79.999	19.994	100.852	19.873	7.859	0.498
845.500	494.658	79.999	19.995	100.856	19.875	7.744	0.505
846.000	494.885	80.000	19.996	100.860	19.870	8.089	0.530
846.500	495.138	80.000	19.997	100.861	19.873	7.822	0.506
847.000	495.374	80.001	19.995	100.862	19.876	7.620	0.485
847.500	495.632	80.000	19.996	100.862	19.872	7.921	0.491
848.000	495.914	80.001	19.995	100.860	19.874	7.789	0.516
848.500	496.162	80.000	19.995	100.858	19.872	7.892	0.535
849.000	496.451	80.001	19.995	100.855	19.873	7.833	0.534
849.500	496.705	80.001	19.995	100.849	19.876	7.670	0.540
850.000	496.964	80.001	19.996	100.848	19.876	7.622	0.528
850.500	497.174	80.000	19.995	100.850	19.880	7.352	0.491
851.000	497.444	80.000	19.995	100.852	19.877	7.565	0.475
851.500	497.743	80.000	19.995	100.853	19.874	7.780	0.525
852.000	497.989	79.999	19.996	100.856	19.874	7.780	0.557
852.500	498.214	79.999	19.996	100.850	19.871	7.964	0.508
853.000	498.457	80.000	19.996	100.846	19.876	7.642	0.470
853.500	498.745	79.999	19.996	100.844	19.875	7.722	0.499
854.000	498.966	79.998	19.997	100.846	19.874	7.772	0.520
854.500	499.233	79.998	19.996	100.849	19.878	7.480	0.499
855.000	499.475	79.998	19.996	100.856	19.875	7.714	0.499
855.500	499.769	79.998	19.996	100.860	19.877	7.590	0.523
856.000	500.025	79.999	19.994	100.861	19.875	7.680	0.543
856.500	500.258	79.997	19.995	100.860	19.876	7.671	0.520
857.000	500.527	79.998	19.996	100.857	19.881	7.275	0.495
857.500	500.785	79.999	19.996	100.852	19.873	7.841	0.514
858.000	501.003	79.997	19.997	100.846	19.877	7.584	0.501
858.500	501.245	79.995	19.997	100.844	19.875	7.696	0.468
859.000	501.548	79.996	19.996	100.844	19.873	7.833	0.503
859.500	501.815	79.997	19.997	100.841	19.874	7.770	0.558
860.000	502.055	79.999	19.996	100.844	19.875	7.687	0.539
860.500	502.283	79.998	19.996	100.849	19.876	7.615	0.488
861.000	502.577	79.999	19.997	100.851	19.877	7.567	0.495
861.500	502.838	79.999	19.997	100.850	19.875	7.705	0.538
862.000	503.076	79.998	19.997	100.853	19.878	7.490	0.527
862.500	503.310	80.001	19.997	100.855	19.879	7.441	0.485
863.000	503.571	79.998	19.996	100.854	19.875	7.700	0.483
863.500	503.827	79.999	19.995	100.853	19.874	7.766	0.506
864.000	504.120	79.998	19.996	100.853	19.876	7.609	0.534
864.500	504.354	79.999	19.996	100.849	19.874	7.776	0.538
865.000	504.637	79.998	19.995	100.846	19.875	7.716	0.522
865.500	504.847	80.000	19.997	100.846	19.875	7.682	0.505
866.000	505.134	80.001	19.995	100.848	19.875	7.745	0.495
866.500	505.382	80.000	19.995	100.849	19.875	7.737	0.516
867.000	505.661	79.999	19.996	100.855	19.878	7.526	0.531
867.500	505.876	80.000	19.997	100.856	19.873	7.822	0.511
868.000	506.152	79.999	19.996	100.853	19.874	7.776	0.493
868.500	506.399	80.000	19.997	100.850	19.878	7.477	0.507
869.000	506.643	79.998	19.996	100.844	19.878	7.529	0.507
869.501	506.911	79.999	19.996	100.839	19.881	7.314	0.502
870.001	507.178	80.000	19.997	100.841	19.875	7.713	0.524
870.500	507.438	80.001	19.996	100.843	19.881	7.283	0.531
871.000	507.679	80.000	19.996	100.846	19.878	7.509	0.514
871.500	507.923	80.000	19.996	100.852	19.879	7.425	0.493
872.000	508.168	80.001	19.995	100.850	19.878	7.492	0.487
872.500	508.445	80.001	19.995	100.848	19.880	7.383	0.505
873.000	508.722	80.000	19.996	100.844	19.878	7.490	0.538
873.500	508.956	80.000	19.995	100.842	19.876	7.648	0.532
874.000	509.243	80.000	19.994	100.841	19.878	7.506	0.516
874.500	509.526	79.999	19.995	100.848	19.879	7.419	0.546
875.000	509.775	80.000	19.996	100.847	19.878	7.467	0.551
875.500	510.037	79.999	19.995	100.850	19.877	7.600	0.521
876.000	510.288	80.000	19.997	100.848	19.879	7.439	0.512
876.500	510.561	79.999	19.997	100.847	19.877	7.541	0.519
877.000	510.782	79.998	19.995	100.847	19.881	7.315	0.509
877.500	511.037	79.999	19.995	100.847	19.876	7.643	0.485
878.000	511.270	79.999	19.996	100.846	19.875	7.700	0.482
878.500	511.562	79.999	19.995	100.850	19.880	7.350	0.506
879.000	511.775	79.997	19.996	100.852	19.876	7.665	0.515
879.500	512.054	79.998	19.996	100.852	19.879	7.395	0.498
880.000	512.305	79.998	19.997	100.853	19.874	7.759	0.511
880.500	512.530	79.998	19.997	100.853	19.877	7.600	0.503
881.000	512.817	79.998	19.996	100.851	19.875	7.738	0.494
881.500	513.063	79.998	19.996	100.847	19.878	7.512	0.522
882.000	513.358	79.996	19.997	100.845	19.876	7.656	0.537
882.500	513.550	79.997	19.998	100.846	19.875	7.698	0.514
883.000	513.892	79.997	19.996	100.851	19.877	7.594	0.511
883.500	514.104	79.996	19.998	100.854	19.875	7.678	0.544
884.000	514.451	79.997	19.997	100.856	19.879	7.437	0.556
884.500	514.669	79.996	19.996	100.854	19.877	7.542	0.562
885.000	514.905	79.997	19.996	100.852	19.877	7.582	0.510
885.500	515.192	79.998	19.997	100.851	19.884	7.051	0.489
886.000	515.422	79.997	19.996	100.851	19.878	7.482	0.520
886.501	515.689	79.997	19.996	100.854	19.881	7.267	0.507
887.000	515.928	79.998	19.995	100.859	19.879	7.430	0.501
887.500	516.190	79.996	19.995	100.862	19.879	7.426	0.503
888.000	516.458	79.998	19.997	100.863	19.879	7.394	0.515
888.500	516.737	79.998	19.998	100.863	19.878	7.479	0.539
889.000	516.949	79.995	19.997	100.859	19.881	7.274	0.519
889.500	517.218	79.996	19.997	100.856	19.881	7.278	0.486
890.000	517.483	79.996	19.996	100.856	19.877	7.598	0.508
890.500	517.795	79.996	19.997	100.856	19.881	7.307	0.556
891.000	518.014	79.998	19.997	100.856	19.879	7.432	0.554
891.500	518.251	79.996	19.997	100.859	19.879	7.443	0.494
892.000	518.525	79.995	19.996	100.862	19.879	7.408	0.484
892.500	518.781	79.996	19.998	100.858	19.876	7.667	0.521
893.000	519.042	79.996	19.997	100.859	19.878	7.496	0.523
893.500	519.279	79.996	19.997	100.858	19.877	7.603	0.507
894.000	519.525	79.996	19.996	100.857	19.880	7.365	0.491
894.500	519.822	79.996	19.997	100.853	19.874	7.782	0.513
895.000	520.049	79.996	19.997	100.855	19.877	7.602	0.534
895.500	520.310	79.997	19.996	100.855	19.876	7.653	0.506
896.000	520.531	79.997	19.996	100.853	19.877	7.590	0.485
896.500	520.777	79.996	19.998	100.847	19.878	7.504	0.475
897.000	521.062	79.998	19.996	100.845	19.878	7.531	0.499
897.500	521.312	79.997	19.996	100.842	19.876	7.663	0.533
898.000	521.588	79.998	19.996	100.840	19.880	7.366	0.530
898.500	521.857	79.998	19.996	100.842	19.881	7.299	0.536
899.000	522.098	79.997	19.995	100.849	19.882	7.214	0.528
899.501	522.365	79.999	19.997	100.856	19.878	7.531	0.509
900.000	522.638	79.999	19.996	100.861	19.874	7.813	0.524
900.500	522.896	79.999	19.996	100.864	19.877	7.594	0.536
901.000	523.169	79.996	19.995	100.863	19.876	7.606	0.531
901.500	523.430	79.998	19.995	100.864	19.876	7.669	0.532
902.000	523.671	79.998	19.996	100.864	19.876	7.654	0.518
902.500	523.947	79.998	19.994	100.862	19.877	7.581	0.509
903.000	524.189	79.998	19.996	100.855	19.874	7.755	0.517
903.500	524.454	80.000	19.995	100.854	19.876	7.665	0.512
904.000	524.664	79.998	19.995	100.853	19.876	7.625	0.491
904.500	524.972	79.998	19.997	100.852	19.876	7.644	0.497
905.000	525.175	79.998	19.994	100.852	19.876	7.607	0.515
905.500	525.436	79.998	19.996	100.855	19.877	7.565	0.488
906.000	525.708	79.997	19.995	100.857	19.874	7.782	0.498
906.500	525.947	79.999	19.995	100.855	19.875	7.703	0.522
907.000	526.212	79.997	19.994	100.854	19.875	7.717	0.508
907.500	526.468	79.997	19.995	100.854	19.877	7.534	0.513
908.000	526.677	79.998	19.997	100.854	19.873	7.880	0.493
908.500	526.938	79.998	19.995	100.855	19.878	7.504	0.467
909.000	527.193	79.997	19.995	100.855	19.877	7.552	0.493
909.500	527.446	79.996	19.996	100.856	19.874	7.775	0.512
910.000	527.698	79.997	19.995	100.857	19.875	7.738	0.507
910.500	527.960	79.996	19.995	100.860	19.875	7.717	0.510
911.000	528.226	79.998	19.995	100.860	19.879	7.425	0.521
911.500	528.492	79.997	19.996	100.861	19.878	7.503	0.530
912.000	528.748	79.999	19.996	100.860	19.873	7.858	0.527
912.500	528.989	79.998	19.996	100.860	19.876	7.655	0.509
913.000	529.256	79.997	19.996	100.858	19.874	7.764	0.503
913.500	529.539	79.997	19.997	100.856	19.873	7.836	0.529
914.000	529.753	79.997	19.996	100.856	19.876	7.610	0.523
914.500	530.022	79.997	19.996	100.853	19.876	7.658	0.490
915.000	530.278	79.998	19.996	100.853	19.875	7.746	0.504
915.500	530.535	79.997	19.997	100.852	19.874	7.817	0.519
916.000	530.795	79.998	19.996	100.854	19.874	7.773	0.515
916.500	531.040	79.998	19.997	100.854	19.874	7.811	0.511
917.000	531.295	79.998	19.995	100.856	19.874	7.811	0.503
917.500	531.549	79.998	19.995	100.853	19.876	7.610	0.504
918.000	531.822	79.997	19.995	100.852	19.871	7.976	0.517
918.500	532.076	79.997	19.996	100.852	19.876	7.623	0.527
919.000	532.329	79.997	19.996	100.852	19.875	7.703	0.517
919.500	532.593	79.997	19.997	100.855	19.874	7.753	0.512
920.000	532.846	79.997	19.996	100.858	19.876	7.632	0.517
920.500	533.067	79.997	19.996	100.860	19.872	7.925	0.496
921.000	533.359	79.997	19.996	100.858	19.873	7.837	0.493
921.500	533.594	79.999	19.997	100.855	19.877	7.579	0.520
922.000	533.862	79.998	19.995	100.850	19.875	7.675	0.515
922.500	534.144	79.999	19.997	100.847	19.869	8.122	0.526
923.000	534.380	79.997	19.996	100.846	19.874	7.748	0.534
923.500	534.671	79.999	19.996	100.849	19.871	8.007	0.522
924.000	534.935	79.998	19.995	100.851	19.875	7.725	0.541
924.500	535.190	80.001	19.997	100.856	19.873	7.832	0.537
925.000	535.397	79.999	19.997	100.860	19.876	7.660	0.491
925.500	535.678	80.000	19.996	100.860	19.871	8.000	0.475
926.000	535.908	79.998	19.995	100.860	19.874	7.816	0.499
926.500	536.171	79.999	19.995	100.857	19.873	7.866	0.502
927.000	536.460	79.999	19.995	100.856	19.871	8.014	0.523
927.500	536.699	79.998	19.996	100.857	19.873	7.878	0.540
928.000	536.945	80.000	19.996	100.857	19.875	7.726	0.506
928.500	537.197	79.999	19.996	100.858	19.879	7.448	0.492
929.000	537.465	79.999	19.995	100.860	19.874	7.814	0.509
929.500	537.703	80.000	19.995	100.857	19.876	7.651	0.513
930.001	537.919	80.001	19.994	100.857	19.871	7.973	0.480
930.500	538.196	79.999	19.996	100.852	19.874	7.776	0.473
931.000	538.490	79.999	19.995	100.850	19.875	7.724	0.531
931.500	538.699	80.000	19.995	100.848	19.871	7.985	0.537
932.000	538.929	79.999	19.995	100.846	19.874	7.763	0.472
932.500	539.225	80.001	19.996	100.840	19.874	7.747	0.482
933.000	539.473	80.000	19.996	100.840	19.875	7.741	0.534
933.500	539.734	79.999	19.995	100.836	19.874	7.808	0.526
934.000	539.993	79.999	19.996	100.832	19.870	8.070	0.515
934.500	540.216	79.998	19.995	100.833	19.875	7.726	0.501
935.000	540.516	79.999	19.995	100.837	19.877	7.590	0.502
935.500	540.775	80.000	19.996	100.837	19.867	8.265	0.541
936.000	540.994	80.001	19.995	100.839	19.870	8.033	0.519
936.500	541.242	79.998	19.994	100.845	19.874	7.797	0.472
937.000	541.514	79.997	19.995	100.848	19.874	7.753	0.494
937.500	541.763	79.998	19.995	100.850	19.876	7.658	0.520
938.000	541.996	79.999	19.995	100.854	19.871	7.970	0.502
938.500	542.265	79.999	19.995	100.852	19.873	7.889	0.492
939.000	542.517	79.999	19.995	100.851	19.872	7.939	0.511
939.500	542.788	79.998	19.994	100.850	19.871	7.970	0.522
940.000	543.049	80.000	19.994	100.846	19.873	7.870	0.527
940.500	543.294	79.998	19.994	100.844	19.875	7.730	0.519
941.000	543.530	79.998	19.994	100.850	19.875	7.734	0.494
941.500	543.798	79.997	19.995	100.850	19.872	7.953	0.493
942.000	544.075	80.000	19.995	100.852	19.874	7.747	0.524
942.500	544.318	79.998	19.995	100.853	19.872	7.893	0.532
943.000	544.559	79.999	19.996	100.852	19.871	7.979	0.502
943.501	544.819	79.997	19.995	100.851	19.874	7.799	0.492
944.000	545.065	79.997	19.995	100.850	19.878	7.524	0.503
944.500	545.309	79.998	19.995	100.850	19.882	7.231	0.498
945.000	545.566	79.999	19.995	100.853	19.872	7.924	0.495
945.500	545.797	80.000	19.996	100.854	19.878	7.525	0.494
946.000	546.079	79.999	19.995	100.854	19.877	7.584	0.501
946.500	546.346	79.999	19.996	100.853	19.876	7.669	0.531
947.000	546.613	79.998	19.996	100.854	19.876	7.634	0.541
947.500	546.858	79.998	19.996	100.855	19.873	7.882	0.522
948.000	547.098	79.999	19.996	100.859	19.877	7.592	0.498
948.500	547.348	80.001	19.997	100.860	19.879	7.456	0.488
949.000	547.605	79.999	19.995	100.860	19.879	7.441	0.499
949.500	547.861	79.999	19.995	100.855	19.877	7.552	0.510
950.001	548.100	79.998	19.996	100.852	19.877	7.560	0.504
950.501	548.356	80.000	19.997	100.851	19.879	7.456	0.495
951.000	548.626	79.999	19.996	100.852	19.877	7.594	0.510
951.500	548.872	79.999	19.997	100.850	19.878	7.491	0.521
952.000	549.157	79.999	19.997	100.852	19.877	7.566	0.524
952.500	549.377	80.000	19.995	100.853	19.877	7.573	0.518
953.000	549.654	80.000	19.997	100.850	19.876	7.627	0.501
953.500	549.917	80.000	19.996	100.848	19.879	7.430	0.519
954.000	550.157	79.998	19.996	100.850	19.878	7.523	0.522
954.500	550.380	80.000	19.996	100.850	19.874	7.780	0.483
955.000	550.664	79.999	19.997	100.849	19.879	7.441	0.485
955.500	550.912	80.000	19.996	100.852	19.876	7.661	0.519
956.000	551.160	79.998	19.994	100.851	19.875	7.725	0.514
956.500	551.421	79.997	19.996	100.851	19.875	7.725	0.503
957.000	551.675	79.999	19.997	100.853	19.877	7.560	0.512
957.500	551.939	79.999	19.995	100.856	19.877	7.537	0.516
958.000	552.188	79.997	19.996	100.856	19.877	7.558	0.515
958.500	552.470	79.999	19.996	100.858	19.878	7.502	0.522
959.000	552.700	79.995	19.995	100.860	19.874	7.752	0.521
959.500	552.928	79.999	19.995	100.858	19.874	7.759	0.485
960.000	553.200	80.000	19.996	100.857	19.875	7.677	0.480
960.500	553.439	79.998	19.996	100.858	19.873	7.842	0.506
961.000	553.733	79.998	19.996	100.859	19.877	7.544	0.522
961.500	553.970	79.997	19.996	100.860	19.872	7.937	0.532
962.000	554.232	79.998	19.997	100.860	19.870	8.091	0.515
962.500	554.473	79.996	19.995	100.860	19.871	7.990	0.500
963.000	554.723	79.997	19.996	100.860	19.872	7.923	0.497
963.500	555.014	79.997	19.996	100.860	19.871	7.962	0.516
964.000	555.240	79.997	19.996	100.860	19.871	7.970	0.529
964.500	555.514	79.997	19.996	100.863	19.872	7.893	0.509
965.000	555.761	79.998	19.996	100.861	19.870	8.062	0.511
965.500	556.008	79.997	19.994	100.859	19.871	8.001	0.507
966.000	556.237	79.997	19.996	100.860	19.873	7.886	0.485
966.500	556.507	79.998	19.995	100.859	19.875	7.679	0.487
967.000	556.781	79.998	19.996	100.860	19.873	7.878	0.522
967.500	557.009	79.999	19.996	100.860	19.871	7.964	0.524
968.000	557.295	79.999	19.996	100.859	19.873	7.876	0.508
968.500	557.494	79.998	19.996	100.859	19.870	8.104	0.499
969.000	557.756	79.999	19.997	100.858	19.873	7.850	0.473
969.500	557.989	79.997	19.996	100.857	19.868	8.176	0.478
970.000	558.268	79.997	19.995	100.859	19.875	7.691	0.503
970.500	558.524	79.998	19.995	100.861	19.871	7.977	0.523
971.000	558.765	79.998	19.997	100.861	19.872	7.902	0.516
971.500	559.033	79.996	19.996	100.861	19.873	7.843	0.503
972.000	559.279	79.997	19.997	100.857	19.871	7.989	0.512
972.500	559.523	79.998	19.996	100.853	19.875	7.744	0.502
973.000	559.798	79.997	19.995	100.852	19.869	8.125	0.504
973.500	559.994	79.996	19.998	100.847	19.871	7.970	0.495
974.000	560.281	79.999	19.995	100.843	19.872	7.941	0.477
974.500	560.497	79.997	19.996	100.847	19.872	7.960	0.493
975.000	560.759	79.998	19.997	100.850	19.877	7.558	0.491
975.500	561.022	79.998	19.996	100.852	19.877	7.546	0.501
976.000	561.283	79.997	19.996	100.856	19.874	7.767	0.524
976.500	561.548	79.997	19.997	100.859	19.873	7.832	0.525
977.000	561.763	79.997	19.996	100.858	19.873	7.846	0.503
977.500	562.028	79.997	19.997	100.857	19.871	8.012	0.480
978.000	562.301	79.995	19.996	100.857	19.873	7.874	0.509
978.500	562.552	79.997	19.997	100.856	19.872	7.892	0.531
979.000	562.788	79.997	19.996	100.852	19.872	7.924	0.505
979.501	563.049	79.996	19.996	100.850	19.869	8.145	0.492
980.000	563.315	79.996	19.996	100.846	19.874	7.801	0.511
980.500	563.535	79.998	19.997	100.841	19.871	8.022	0.506
981.000	563.819	79.997	19.997	100.842	19.870	8.057	0.495
981.500	564.040	79.997	19.997	100.846	19.871	7.990	0.505
982.000	564.295	79.995	19.997	100.850	19.871	7.997	0.490
982.500	564.588	79.996	19.996	100.853	19.867	8.297	0.512
983.000	564.822	79.997	19.997	100.858	19.870	8.062	0.538
983.500	565.088	79.994	19.996	100.858	19.873	7.861	0.513
984.000	565.341	79.998	19.997	100.856	19.868	8.185	0.509
984.500	565.601	79.996	19.997	100.857	19.869	8.170	0.516
985.000	565.866	79.998	19.997	100.856	19.875	7.705	0.519
985.500	566.094	79.998	19.997	100.855	19.872	7.897	0.509
986.000	566.412	79.998	19.996	100.856	19.874	7.755	0.519
986.500	566.643	79.997	19.998	100.857	19.870	8.089	0.548
987.000	566.884	79.998	19.997	100.858	19.870	8.082	0.511
987.500	567.175	79.998	19.998	100.858	19.873	7.890	0.503
988.000	567.414	79.998	19.996	100.860	19.871	7.984	0.531
988.500	567.639	79.998	19.997	100.859	19.869	8.134	0.497
989.000	567.921	79.997	19.997	100.859	19.872	7.934	0.486
989.500	568.196	79.999	19.997	100.858	19.868	8.231	0.532
990.000	568.455	79.997	19.996	100.858	19.870	8.076	0.545
990.500	568.708	79.998	19.996	100.857	19.870	8.053	0.523
991.000	568.965	79.997	19.996	100.858	19.873	7.832	0.511
991.500	569.262	79.999	19.997	100.858	19.872	7.909	0.532
992.000	569.489	79.997	19.997	100.859	19.872	7.905	0.539
992.500	569.802	79.997	19.996	100.860	19.872	7.920	0.532
993.000	570.040	79.998	19.997	100.861	19.874	7.801	0.546
993.500	570.293	80.000	19.995	100.861	19.873	7.832	0.521
994.000	570.533	80.000	19.996	100.859	19.872	7.918	0.492
994.500	570.821	79.997	19.996	100.859	19.874	7.801	0.511
995.000	571.058	79.997	19.996	100.858	19.870	8.095	0.527
995.500	571.321	79.998	19.996	100.856	19.875	7.746	0.512
996.000	571.601	79.997	19.996	100.856	19.871	7.970	0.521
996.500	571.837	79.998	19.996	100.858	19.873	7.884	0.530
997.000	572.141	79.997	19.996	100.857	19.870	8.066	0.528
997.500	572.388	79.998	19.996	100.859	19.872	7.955	0.545
998.000	572.619	79.998	19.996	100.861	19.872	7.933	0.514
998.500	572.893	79.997	19.995	100.861	19.874	7.811	0.492
999.000	573.189	79.999	19.996	100.861	19.877	7.598	0.538
999.500	573.470	79.997	19.996	100.862	19.876	7.648	0.574
1000.000	573.721	79.998	19.997	100.860	19.874	7.790	0.554
1000.500	573.986	79.997	19.996	100.859	19.873	7.827	0.524
1001.000	574.252	79.999	19.996	100.859	19.873	7.840	0.524
1001.500	574.556	79.998	19.997	100.859	19.868	8.191	0.551
1002.000	574.821	79.998	19.996	100.857	19.872	7.892	0.569
1002.500	575.089	79.997	19.996	100.857	19.873	7.827	0.551
1003.000	575.334	79.999	19.997	100.858	19.875	7.735	0.523
1003.500	575.596	79.996	19.996	100.858	19.875	7.727	0.510
1004.000	575.861	79.998	19.996	100.858	19.871	7.963	0.517
1004.500	576.132	79.998	19.996	100.856	19.872	7.928	0.531
1005.000	576.415	79.998	19.997	100.857	19.873	7.847	0.545
1005.500	576.660	80.000	19.996	100.857	19.877	7.573	0.541
1006.000	576.928	79.999	19.996	100.857	19.871	7.995	0.521
1006.500	577.190	79.999	19.995	100.857	19.870	8.101	0.522
1007.000	577.481	79.998	19.995	100.860	19.867	8.260	0.542
1007.500	577.708	79.998	19.994	100.858	19.873	7.888	0.536
1008.000	577.979	79.998	19.997	100.858	19.873	7.827	0.507
1008.500	578.236	80.000	19.997	100.855	19.870	8.103	0.512
1009.000	578.488	80.000	19.996	100.852	19.875	7.702	0.518
1009.500	578.779	80.000	19.997	100.853	19.872	7.938	0.526
1010.000	579.012	79.999	19.996	100.855	19.875	7.741	0.534
1010.500	579.237	80.000	19.997	100.855	19.873	7.859	0.491
1011.000	579.550	79.999	19.996	100.858	19.875	7.721	0.498
1011.500	579.811	79.998	19.997	100.862	19.874	7.748	0.556
1012.000	580.061	80.000	19.997	100.862	19.870	8.061	0.543
1012.500	580.317	80.000	19.997	100.863	19.872	7.921	0.509
1013.000	580.582	80.000	19.995	100.863	19.872	7.944	0.513
1013.500	580.827	80.000	19.995	100.863	19.874	7.808	0.515
1014.000	581.090	79.998	19.996	100.863	19.873	7.858	0.509
1014.500	581.405	79.996	19.996	100.863	19.867	8.249	0.543
1015.000	581.678	79.997	19.995	100.863	19.872	7.900	0.583
1015.500	581.961	79.999	19.996	100.862	19.872	7.892	0.572
1016.000	582.146	79.998	19.996	100.859	19.870	8.055	0.513
1016.500	582.441	79.999	19.996	100.859	19.877	7.558	0.474
1017.000	582.678	79.999	19.996	100.859	19.871	8.011	0.506
1017.500	582.936	79.999	19.995	100.857	19.869	8.147	0.513
1018.000	583.184	79.998	19.997	100.857	19.871	7.967	0.500
1018.500	583.464	79.999	19.995	100.860	19.873	7.865	0.517
1019.000	583.728	79.999	19.996	100.861	19.872	7.940	0.536
1019.500	583.981	79.999	19.996	100.862	19.872	7.896	0.531
1020.000	584.259	79.998	19.995	100.864	19.873	7.867	0.524
1020.500	584.478	79.998	19.995	100.865	19.873	7.863	0.514
1021.000	584.777	79.998	19.995	100.866	19.868	8.182	0.508
1021.500	585.032	79.998	19.996	100.864	19.872	7.957	0.536
1022.000	585.310	79.999	19.995	100.864	19.873	7.850	0.544
1022.500	585.572	79.999	19.996	100.864	19.871	7.988	0.537
1023.000	585.829	79.998	19.996	100.864	19.874	7.808	0.530
1023.500	586.080	79.998	19.995	100.864	19.869	8.132	0.514
1024.000	586.374	79.997	19.996	100.865	19.873	7.836	0.526
1024.500	586.602	79.998	19.996	100.865	19.867	8.281	0.533
1025.001	586.877	79.997	19.995	100.864	19.872	7.900	0.512
1025.501	587.135	79.999	19.995	100.864	19.868	8.199	0.519
1026.000	587.390	79.998	19.995	100.865	19.871	8.026	0.523
1026.500	587.680	79.999	19.996	100.865	19.872	7.901	0.529
1027.000	587.918	79.998	19.996	100.865	19.871	8.020	0.536
1027.500	588.189	80.001	19.996	100.865	19.871	7.984	0.518
1028.000	588.414	79.998	19.995	100.865	19.867	8.312	0.502
1028.500	588.661	79.999	19.995	100.865	19.872	7.938	0.484
1029.000	588.918	79.998	19.995	100.865	19.869	8.158	0.488
1029.500	589.206	80.001	19.995	100.864	19.870	8.039	0.524
1030.000	589.452	80.001	19.995	100.864	19.869	8.126	0.539
1030.501	589.680	79.999	19.995	100.865	19.871	7.978	0.504
1031.001	589.994	80.001	19.995	100.865	19.869	8.147	0.508
1031.500	590.247	79.999	19.995	100.865	19.863	8.554	0.554
1032.000	590.487	80.000	19.995	100.866	19.869	8.120	0.530
1032.500	590.764	80.001	19.995	100.865	19.869	8.172	0.505
1033.000	591.076	79.999	19.995	100.865	19.876	7.664	0.553
1033.501	591.302	80.000	19.994	100.864	19.879	7.424	0.564
1034.001	591.577	80.002	19.996	100.863	19.875	7.717	0.519
1034.500	591.838	80.000	19.994	100.862	19.870	8.103	0.519
1035.000	592.095	79.999	19.995	100.863	19.873	7.827	0.527
1035.500	592.334	80.000	19.995	100.863	19.865	8.417	0.507
1036.000	592.591	80.000	19.996	100.863	19.868	8.196	0.496
1036.500	592.848	80.001	19.995	100.863	19.873	7.889	0.505
1037.000	593.132	80.000	19.996	100.862	19.869	8.125	0.528
1037.500	593.357	80.000	19.994	100.862	19.871	7.993	0.525
1038.000	593.630	80.001	19.997	100.861	19.874	7.813	0.503
1038.500	593.896	80.000	19.995	100.861	19.869	8.133	0.518
1039.000	594.179	80.000	19.996	100.861	19.867	8.268	0.544
1039.500	594.415	80.000	19.996	100.861	19.866	8.335	0.534
1040.000	594.684	80.000	19.996	100.861	19.870	8.093	0.512
1040.500	594.936	79.998	19.996	100.860	19.869	8.107	0.513
1041.000	595.204	79.999	19.996	100.860	19.866	8.383	0.521
1041.500	595.436	79.999	19.996	100.860	19.864	8.477	0.510
1042.000	595.717	80.000	19.996	100.860	19.870	8.086	0.506
1042.500	595.938	79.999	19.995	100.860	19.866	8.369	0.507
1043.000	596.229	79.997	19.996	100.861	19.866	8.371	0.507
1043.500	596.439	79.998	19.995	100.861	19.869	8.139	0.507
1044.001	596.674	79.996	19.996	100.861	19.865	8.442	0.473
1044.501	596.975	79.997	19.996	100.861	19.869	8.124	0.491
1045.000	597.227	79.997	19.996	100.861	19.864	8.473	0.545
1045.500	597.493	79.997	19.996	100.861	19.869	8.135	0.535
1046.000	597.758	79.998	19.996	100.861	19.865	8.398	0.525
1046.500	597.988	79.995	19.996	100.859	19.863	8.547	0.513
1047.000	598.283	79.997	19.997	100.855	19.868	8.244	0.510
1047.501	598.523	79.997	19.996	100.855	19.870	8.093	0.530
1048.001	598.747	79.997	19.996	100.855	19.867	8.284	0.500
1048.501	598.982	79.997	19.996	100.855	19.871	7.991	0.462
1049.001	599.313	79.997	19.997	100.857	19.867	8.283	0.512
1049.500	599.508	79.998	19.995	100.861	19.866	8.365	0.546
1050.001	599.819	79.997	19.996	100.861	19.867	8.316	0.516
1050.501	600.039	79.997	19.997	100.862	19.866	8.379	0.518
1051.000	600.300	79.998	19.996	100.862	19.869	8.120	0.506
1051.500	600.561	79.998	19.996	100.862	19.870	8.069	0.502
1052.000	600.831	79.997	19.996	100.862	19.867	8.273	0.526
1052.500	601.093	79.997	19.996	100.861	19.864	8.466	0.532
1053.000	601.343	79.999	19.997	100.861	19.868	8.244	0.522
1053.500	601.598	79.999	19.997	100.860	19.870	8.049	0.508
1054.000	601.823	79.998	19.997	100.861	19.868	8.214	0.493
1054.500	602.101	79.997	19.996	100.860	19.867	8.314	0.491
1055.000	602.334	79.999	19.997	100.861	19.867	8.289	0.507
1055.500	602.558	79.998	19.997	100.861	19.863	8.542	0.484
1056.000	602.844	79.997	19.996	100.861	19.870	8.083	0.484
1056.500	603.103	79.998	19.996	100.861	19.870	8.049	0.528
1057.001	603.373	79.998	19.996	100.859	19.868	8.244	0.537
1057.501	603.593	79.997	19.995	100.856	19.869	8.114	0.509
1058.001	603.873	79.997	19.995	100.854	19.866	8.365	0.495
1058.501	604.127	79.998	19.996	100.854	19.869	8.146	0.517
1059.000	604.359	79.999	19.995	100.853	19.865	8.418	0.510
1059.501	604.636	79.999	19.996	100.855	19.865	8.434	0.498
1060.001	604.851	79.999	19.996	100.859	19.867	8.254	0.500
1060.500	605.128	79.999	19.995	100.859	19.862	8.612	0.492
1061.000	605.377	79.998	19.996	100.860	19.863	8.538	0.509
1061.500	605.658	79.999	19.996	100.859	19.865	8.402	0.528
1062.000	605.890	79.999	19.996	100.856	19.866	8.360	0.522
1062.500	606.146	80.000	19.997	100.850	19.868	8.247	0.501
1063.000	606.365	79.996	19.995	100.849	19.866	8.354	0.481
1063.500	606.645	79.999	19.996	100.849	19.865	8.458	0.487
1064.001	606.916	80.000	19.997	100.850	19.869	8.171	0.525
1064.501	607.165	79.999	19.996	100.854	19.864	8.476	0.536
1065.000	607.416	79.997	19.997	100.859	19.871	7.999	0.510
1065.500	607.684	79.997	19.997	100.861	19.867	8.254	0.510
1066.000	607.966	79.997	19.997	100.859	19.869	8.163	0.534
1066.500	608.175	80.000	19.998	100.859	19.866	8.380	0.520
1067.000	608.412	79.998	19.997	100.858	19.869	8.139	0.468
1067.500	608.692	79.998	19.997	100.855	19.869	8.112	0.482
1068.000	608.937	79.999	19.998	100.851	19.868	8.207	0.521
1068.500	609.217	79.998	19.997	100.852	19.863	8.539	0.525
1069.000	609.460	79.997	19.998	100.852	19.865	8.443	0.524
1069.500	609.714	79.997	19.997	100.850	19.868	8.184	0.510
1070.000	609.955	79.999	19.998	100.848	19.866	8.319	0.496
1070.500	610.200	79.997	19.997	100.852	19.863	8.566	0.490
1071.000	610.440	79.998	19.996	100.853	19.864	8.463	0.486
1071.501	610.712	79.997	19.998	100.853	19.864	8.486	0.499
1072.001	610.919	79.998	19.998	100.857	19.870	8.095	0.495
1072.500	611.184	79.997	19.998	100.863	19.864	8.490	0.475
1073.000	611.417	79.998	19.996	100.862	19.866	8.375	0.485
1073.500	611.713	79.997	19.997	100.861	19.865	8.409	0.513
1074.000	611.912	79.998	19.998	100.860	19.864	8.522	0.512
1074.500	612.178	79.997	19.996	100.860	19.870	8.094	0.480
1075.000	612.416	79.998	19.997	100.855	19.870	8.080	0.484
1075.500	612.686	79.996	19.998	100.851	19.872	7.942	0.506
1076.001	612.936	79.997	19.997	100.852	19.868	8.214	0.514
1076.501	613.216	79.998	19.998	100.852	19.870	8.096	0.525
1077.000	613.470	79.996	19.997	100.850	19.862	8.626	0.532
1077.500	613.746	79.997	19.995	100.852	19.867	8.315	0.532
1078.000	613.969	79.997	19.998	100.854	19.869	8.124	0.515
1078.500	614.243	79.997	19.997	100.852	19.868	8.197	0.498
1079.000	614.514	79.998	19.998	100.851	19.867	8.291	0.521
1079.500	614.783	79.995	19.996	100.852	19.866	8.319	0.543
1080.000	614.999	79.996	19.997	100.850	19.867	8.285	0.513
1080.500	615.252	79.998	19.997	100.849	19.868	8.245	0.477
1081.000	615.517	79.997	19.997	100.851	19.868	8.240	0.493
1081.500	615.757	79.997	19.997	100.854	19.871	8.008	0.512
1082.000	616.046	79.998	19.996	100.855	19.864	8.505	0.517
1082.500	616.270	79.997	19.996	100.858	19.864	8.501	0.521
1083.000	616.528	79.997	19.995	100.860	19.867	8.257	0.497
1083.500	616.777	79.998	19.996	100.860	19.867	8.296	0.495
1084.000	617.008	79.999	19.996	100.859	19.868	8.196	0.494
1084.500	617.288	79.997	19.996	100.858	19.867	8.251	0.496
1085.000	617.547	79.998	19.996	100.853	19.868	8.226	0.525
1085.501	617.797	79.998	19.995	100.849	19.864	8.474	0.524
1086.001	618.072	79.998	19.996	100.846	19.869	8.175	0.517
1086.501	618.262	80.000	19.994	100.843	19.870	8.057	0.495
1087.000	618.562	79.998	19.996	100.842	19.866	8.360	0.477
1087.500	618.791	80.000	19.995	100.847	19.866	8.384	0.509
1088.000	619.066	79.997	19.995	100.853	19.867	8.265	0.516
1088.500	619.303	80.001	19.996	100.858	19.868	8.192	0.508
1089.000	619.592	79.999	19.996	100.858	19.866	8.376	0.519
1089.500	619.836	79.999	19.995	100.860	19.862	8.635	0.530
1090.000	620.076	79.999	19.995	100.859	19.866	8.384	0.509
1090.500	620.318	79.999	19.995	100.858	19.863	8.583	0.483
1091.000	620.577	80.000	19.995	100.859	19.864	8.521	0.492
1091.500	620.833	80.000	19.997	100.859	19.864	8.479	0.508
1092.000	621.072	79.999	19.995	100.855	19.868	8.224	0.505
1092.500	621.329	80.000	19.995	100.855	19.865	8.410	0.495
1093.000	621.591	79.998	19.996	100.854	19.863	8.576	0.507
1093.500	621.830	80.000	19.995	100.850	19.862	8.649	0.510
1094.000	622.071	79.999	19.995	100.850	19.861	8.724	0.490
1094.500	622.367	79.999	19.995	100.852	19.861	8.695	0.509
1095.000	622.609	79.999	19.996	100.848	19.859	8.825	0.538
1095.500	622.858	79.999	19.995	100.846	19.863	8.549	0.514
1096.000	623.116	79.999	19.994	100.848	19.858	8.928	0.499
1096.500	623.358	80.000	19.995	100.851	19.860	8.805	0.504
1097.000	623.615	79.998	19.995	100.853	19.860	8.750	0.500
1097.500	623.905	80.001	19.996	100.858	19.860	8.766	0.523
1098.000	624.133	79.998	19.994	100.858	19.860	8.750	0.532
1098.500	624.398	79.999	19.996	100.852	19.860	8.812	0.506
1099.000	624.637	79.999	19.995	100.850	19.861	8.737	0.499
1099.500	624.902	80.000	19.997	100.850	19.861	8.718	0.504
1100.000	625.159	80.000	19.997	100.848	19.860	8.758	0.513
1100.500	625.370	79.999	19.996	100.847	19.859	8.868	0.495
1101.000	625.638	80.000	19.996	100.846	19.860	8.758	0.473
1101.500	625.854	80.000	19.997	100.840	19.862	8.614	0.482
1102.000	626.123	80.000	19.996	100.838	19.862	8.658	0.485
1102.500	626.399	79.998	19.995	100.839	19.863	8.576	0.515
1103.000	626.621	79.998	19.995	100.841	19.865	8.428	0.521
1103.500	626.873	80.000	19.995	100.846	19.862	8.642	0.486
1104.000	627.147	80.000	19.998	100.853	19.863	8.577	0.500
1104.500	627.404	80.000	19.995	100.855	19.858	8.891	0.529
1105.000	627.644	79.999	19.995	100.855	19.861	8.700	0.514
1105.500	627.880	79.999	19.995	100.853	19.862	8.657	0.486
1106.001	628.165	80.000	19.995	100.851	19.866	8.325	0.498
1106.501	628.373	79.999	19.997	100.849	19.865	8.435	0.507
1107.000	628.615	80.000	19.997	100.847	19.865	8.410	0.472
1107.500	628.872	80.000	19.997	100.843	19.863	8.548	0.474
1108.000	629.146	79.998	19.997	100.846	19.862	8.662	0.515
1108.500	629.409	80.000	19.996	100.850	19.864	8.520	0.534
1109.000	629.616	79.999	19.997	100.850	19.861	8.714	0.504
1109.500	629.875	80.001	19.995	100.851	19.861	8.696	0.468
1110.000	630.144	80.000	19.996	100.855	19.864	8.508	0.497
1110.500	630.414	79.999	19.996	100.855	19.865	8.397	0.534
1111.000	630.663	80.002	19.995	100.852	19.864	8.527	0.529
1111.501	630.904	80.001	19.996	100.854	19.860	8.748	0.505
1112.001	631.123	80.001	19.995	100.853	19.866	8.332	0.475
1112.501	631.372	80.001	19.996	100.852	19.864	8.481	0.464
1113.001	631.613	80.001	19.996	100.852	19.863	8.537	0.479
1113.500	631.877	80.002	19.996	100.848	19.862	8.649	0.497
1114.001	632.139	80.000	19.996	100.845	19.865	8.426	0.515
1114.501	632.387	80.000	19.995	100.846	19.862	8.668	0.518
1115.000	632.673	80.000	19.994	100.843	19.861	8.739	0.523
1115.500	632.936	80.001	19.995	100.839	19.864	8.491	0.541
1116.000	633.204	80.001	19.996	100.840	19.862	8.641	0.539
1116.500	633.438	80.000	19.994	100.842	19.862	8.672	0.516
1117.000	633.686	80.000	19.996	100.838	19.862	8.624	0.492
1117.500	633.980	80.002	19.995	100.838	19.866	8.373	0.512
1118.000	634.217	80.001	19.995	100.841	19.869	8.148	0.537
1118.500	634.485	80.002	19.995	100.844	19.866	8.331	0.518
1119.000	634.739	80.002	19.995	100.846	19.868	8.216	0.514
1119.500	634.979	80.001	19.996	100.847	19.865	8.430	0.508
1120.000	635.286	80.001	19.996	100.851	19.867	8.261	0.521
1120.500	635.516	80.002	19.996	100.849	19.867	8.299	0.542
1121.000	635.777	80.000	19.996	100.847	19.862	8.652	0.514
1121.501	636.044	80.000	19.995	100.843	19.865	8.393	0.510
1122.001	636.293	80.001	19.995	100.842	19.864	8.527	0.522
1122.501	636.511	80.000	19.996	100.842	19.868	8.179	0.492
1123.001	636.789	80.000	19.996	100.844	19.858	8.904	0.481
1123.500	637.033	80.000	19.994	100.844	19.860	8.752	0.509
1124.000	637.290	79.998	19.995	100.847	19.866	8.334	0.512
1124.500	637.561	79.998	19.995	100.851	19.857	9.021	0.514
1125.000	637.799	79.999	19.995	100.849	19.863	8.560	0.518
1125.500	638.047	79.999	19.995	100.848	19.864	8.468	0.498
1126.000	638.317	80.000	19.996	100.848	19.864	8.479	0.502
1126.500	638.572	79.998	19.995	100.849	19.866	8.343	0.521
1127.000	638.861	79.999	19.996	100.847	19.866	8.349	0.535
1127.500	639.093	79.998	19.995	100.849	19.866	8.372	0.532
1128.000	639.343	79.998	19.996	100.849	19.862	8.652	0.501
1128.500	639.593	79.998	19.996	100.852	19.868	8.206	0.491
1129.000	639.870	79.998	19.994	100.853	19.867	8.257	0.514
1129.500	640.113	79.999	19.995	100.856	19.864	8.528	0.523
1130.000	640.423	79.997	19.995	100.856	19.862	8.621	0.536
1130.500	640.669	79.996	19.995	100.853	19.859	8.820	0.554
1131.000	640.905	79.996	19.995	100.846	19.866	8.347	0.519
1131.500	641.188	79.997	19.996	100.842	19.862	8.605	0.501
1132.000	641.450	79.998	19.998	100.840	19.868	8.224	0.532
1132.500	641.659	79.999	19.997	100.842	19.865	8.395	0.507
1133.000	641.916	79.997	19.997	100.844	19.865	8.443	0.468
1133.500	642.165	79.998	19.997	100.850	19.869	8.115	0.486
1134.000	642.450	79.999	19.996	100.854	19.867	8.280	0.520
1134.500	642.732	80.000	19.997	100.851	19.866	8.347	0.550
1135.000	642.970	79.998	19.997	100.847	19.865	8.401	0.544
1135.500	643.217	79.998	19.998	100.849	19.861	8.696	0.503
1136.001	643.492	79.998	19.996	100.844	19.863	8.539	0.504
1136.501	643.741	79.997	19.997	100.842	19.863	8.568	0.522
1137.000	643.991	79.998	19.995	100.842	19.864	8.502	0.511
1137.500	644.238	79.998	19.996	100.841	19.864	8.464	0.498
1138.000	644.499	80.001	19.998	100.840	19.869	8.140	0.503
1138.500	644.752	79.998	19.994	100.846	19.861	8.687	0.511
1139.000	644.971	79.998	19.997	100.849	19.865	8.441	0.493
1139.500	645.222	79.997	19.996	100.851	19.859	8.888	0.471
1140.000	645.503	79.998	19.995	100.852	19.865	8.437	0.501
1140.500	645.788	80.000	19.997	100.850	19.860	8.781	0.549
1141.000	646.053	79.998	19.996	100.847	19.861	8.681	0.558
1141.500	646.316	79.998	19.996	100.842	19.856	9.044	0.539
1142.001	646.550	79.997	19.995	100.840	19.864	8.507	0.513
1142.501	646.819	79.998	19.997	100.840	19.863	8.570	0.500
1143.000	647.069	79.998	19.997	100.844	19.864	8.506	0.511
1143.500	647.321	79.997	19.995	100.845	19.861	8.732	0.510
1144.000	647.565	79.998	19.996	100.849	19.863	8.583	0.499
1144.500	647.845	80.000	19.996	100.851	19.860	8.813	0.510
1145.001	648.072	79.998	19.995	100.849	19.861	8.715	0.515
1145.501	648.349	79.999	19.996	100.847	19.859	8.821	0.505
1146.001	648.628	79.998	19.996	100.848	19.857	8.969	0.530
1146.500	648.848	79.999	19.997	100.849	19.862	8.616	0.527
1147.000	649.143	79.999	19.997	100.845	19.858	8.896	0.507
1147.500	649.383	79.999	19.997	100.845	19.861	8.708	0.526
1148.001	649.638	79.997	19.995	100.846	19.858	8.950	0.515
1148.501	649.906	79.998	19.995	100.847	19.861	8.694	0.509
1149.000	650.172	79.999	19.996	100.848	19.859	8.835	0.529
1149.501	650.402	79.998	19.996	100.846	19.861	8.733	0.515
1150.001	650.685	79.999	19.995	100.847	19.863	8.543	0.504
1150.500	650.891	79.997	19.996	100.848	19.862	8.632	0.501
1151.000	651.182	79.998	19.995	100.846	19.859	8.875	0.493
1151.500	651.447	79.997	19.994	100.848	19.859	8.873	0.527
1152.000	651.665	79.999	19.996	100.848	19.865	8.407	0.519
1152.500	651.905	79.998	19.995	100.849	19.862	8.649	0.470
1153.001	652.161	79.999	19.995	100.848	19.868	8.186	0.477
1153.501	652.425	79.996	19.996	100.847	19.862	8.625	0.508
1154.000	652.654	79.998	19.997	100.840	19.860	8.777	0.506
1154.500	652.911	79.998	19.994	100.840	19.867	8.316	0.490
1155.001	653.177	79.999	19.996	100.842	19.862	8.638	0.505
1155.501	653.464	79.997	19.996	100.840	19.858	8.900	0.538
1156.000	653.648	79.998	19.995	100.841	19.859	8.856	0.512
1156.500	653.906	79.998	19.994	100.846	19.866	8.322	0.456
1157.000	654.171	79.999	19.996	100.852	19.867	8.308	0.482
1157.500	654.453	79.996	19.996	100.853	19.858	8.924	0.535
1158.000	654.713	79.997	19.995	100.854	19.862	8.644	0.544
1158.500	654.959	79.997	19.995	100.852	19.863	8.577	0.524
1159.000	655.196	79.998	19.996	100.848	19.861	8.727	0.494
1159.500	655.466	79.997	19.996	100.848	19.862	8.640	0.495
1160.000	655.722	79.997	19.995	100.849	19.858	8.915	0.517
1160.500	655.941	79.998	19.995	100.849	19.865	8.456	0.501
1161.000	656.236	79.997	19.996	100.851	19.861	8.678	0.495
1161.500	656.465	79.997	19.995	100.855	19.860	8.805	0.519
1162.000	656.693	79.998	19.996	100.856	19.864	8.506	0.490
1162.500	656.963	79.997	19.997	100.852	19.864	8.464	0.477
1163.000	657.220	79.999	19.997	100.851	19.865	8.403	0.512
1163.500	657.474	79.996	19.997	100.851	19.858	8.950	0.519
1164.000	657.776	79.998	19.997	100.848	19.859	8.875	0.534
1164.500	658.001	79.997	19.996	100.844	19.859	8.823	0.542
1165.000	658.259	79.996	19.996	100.845	19.861	8.698	0.505
1165.501	658.494	79.998	19.996	100.844	19.862	8.647	0.488
1166.001	658.786	79.998	19.997	100.844	19.857	8.971	0.510
1166.500	659.022	79.997	19.996	100.847	19.858	8.929	0.528
1167.000	659.274	79.999	19.998	100.848	19.856	9.046	0.508
1167.500	659.556	79.997	19.996	100.845	19.855	9.108	0.511
1168.000	659.777	79.998	19.997	100.842	19.858	8.909	0.519
1168.500	660.056	79.999	19.997	100.840	19.856	9.039	0.501
1169.000	660.273	80.001	19.996	100.839	19.858	8.901	0.498
1169.500	660.578	79.997	19.997	100.841	19.859	8.851	0.509
1170.001	660.818	79.998	19.997	100.845	19.862	8.632	0.533
1170.501	661.046	79.999	19.996	100.845	19.855	9.129	0.506
1171.001	661.311	79.998	19.997	100.844	19.858	8.903	0.481
1171.500	661.549	79.999	19.997	100.842	19.860	8.807	0.498
1172.000	661.792	79.999	19.998	100.839	19.860	8.766	0.492
1172.500	662.016	80.000	19.997	100.837	19.860	8.812	0.474
1173.000	662.304	80.001	19.998	100.840	19.863	8.560	0.489
1173.500	662.552	79.998	19.996	100.843	19.861	8.719	0.524
1174.000	662.791	80.000	19.995	100.847	19.860	8.815	0.511
1174.500	663.087	79.999	19.996	100.848	19.855	9.116	0.511
1175.000	663.305	79.999	19.996	100.850	19.858	8.909	0.525
1175.500	663.569	79.998	19.996	100.847	19.855	9.141	0.498
1176.001	663.820	79.999	19.997	100.843	19.861	8.707	0.499
1176.501	664.060	79.999	19.995	100.836	19.859	8.829	0.503
1177.000	664.346	80.000	19.996	100.833	19.857	9.027	0.508
1177.500	664.594	79.999	19.996	100.834	19.858	8.941	0.530
1178.001	664.822	79.998	19.997	100.838	19.859	8.835	0.505
1178.501	665.113	80.000	19.997	100.842	19.858	8.937	0.498
1179.001	665.345	79.999	19.995	100.844	19.858	8.941	0.521
1179.501	665.609	79.999	19.994	100.846	19.858	8.951	0.509
1180.000	665.819	79.999	19.996	100.842	19.856	9.082	0.484
1180.500	666.055	80.000	19.996	100.841	19.859	8.854	0.460
1181.000	666.311	79.999	19.994	100.839	19.856	9.099	0.469
1181.500	666.558	80.000	19.996	100.840	19.861	8.729	0.497
1182.000	666.837	79.999	19.995	100.839	19.856	9.074	0.515
1182.500	667.069	80.000	19.996	100.837	19.862	8.634	0.519
1183.001	667.333	80.001	19.996	100.837	19.855	9.108	0.503
1183.501	667.568	79.999	19.995	100.838	19.862	8.650	0.497
1184.000	667.806	80.001	19.996	100.841	19.862	8.667	0.486
1184.500	668.067	79.998	19.996	100.845	19.857	8.992	0.486
1185.000	668.343	79.999	19.995	100.850	19.858	8.896	0.518
1185.500	668.607	80.001	19.995	100.849	19.859	8.888	0.539
1186.000	668.880	79.999	19.995	100.848	19.861	8.723	0.539
1186.501	669.122	80.000	19.995	100.844	19.857	8.968	0.526
1187.001	669.361	79.999	19.995	100.838	19.859	8.874	0.498
1187.500	669.606	79.999	19.995	100.835	19.855	9.144	0.482
1188.000	669.887	79.999	19.995	100.834	19.863	8.600	0.505
1188.500	670.120	80.000	19.996	100.833	19.862	8.669	0.520
1189.000	670.405	80.000	19.996	100.835	19.861	8.713	0.516
1189.500	670.593	79.999	19.996	100.838	19.861	8.707	0.496
1190.000	670.892	79.999	19.996	100.843	19.860	8.766	0.481
1190.500	671.138	80.000	19.996	100.846	19.859	8.844	0.516
1191.000	671.402	80.002	19.997	100.848	19.860	8.796	0.527
1191.500	671.649	80.001	19.997	100.850	19.857	9.002	0.511
1192.000	671.894	80.001	19.995	100.851	19.858	8.891	0.502
1192.500	672.159	80.002	19.996	100.847	19.860	8.749	0.500
1193.000	672.389	80.000	19.996	100.843	19.860	8.765	0.502
1193.501	672.664	80.001	19.995	100.841	19.856	9.056	0.500
1194.001	672.893	80.001	19.996	100.842	19.857	9.000	0.505
1194.500	673.130	80.000	19.996	100.844	19.855	9.144	0.485
1195.000	673.411	80.002	19.996	100.846	19.858	8.942	0.491
1195.501	673.688	80.002	19.996	100.847	19.858	8.945	0.538
1196.001	673.959	80.002	19.996	100.849	19.858	8.927	0.553
1196.500	674.184	80.002	19.996	100.849	19.855	9.173	0.522
1197.001	674.468	80.001	19.996	100.846	19.858	8.916	0.503
1197.501	674.720	80.002	19.996	100.844	19.858	8.925	0.523
1198.000	674.925	80.002	19.996	100.842	19.856	9.077	0.497
1198.501	675.220	80.002	19.996	100.840	19.859	8.866	0.478
1199.001	675.446	80.002	19.995	100.841	19.858	8.903	0.510
1199.500	675.752	80.002	19.996	100.838	19.858	8.942	0.527
1200.000	675.988	80.001	19.995	100.836	19.861	8.735	0.537
1200.501	676.239	80.001	19.996	100.836	19.860	8.765	0.514
1201.001	676.497	80.002	19.996	100.835	19.856	9.047	0.498
1201.501	676.838	80.002	19.995	100.831	19.857	9.029	0.554
1202.000	676.991	80.002	19.996	100.830	19.856	9.053	0.546
1202.500	677.264	80.000	19.996	100.831	19.860	8.794	0.460
1203.000	677.528	80.000	19.996	100.836	19.859	8.830	0.482
1203.500	677.795	80.000	19.994	100.838	19.857	9.016	0.534
1204.000	678.036	80.001	19.995	100.838	19.853	9.300	0.520
1204.500	678.296	79.999	19.994	100.839	19.855	9.133	0.505
1205.000	678.534	80.000	19.994	100.837	19.855	9.114	0.499
1205.500	678.816	80.000	19.995	100.835	19.857	8.984	0.509
1206.000	679.047	80.000	19.995	100.833	19.861	8.738	0.517
1206.500	679.358	79.998	19.996	100.835	19.856	9.085	0.528
1207.000	679.546	79.999	19.995	100.837	19.857	9.001	0.520
1207.500	679.791	79.999	19.995	100.837	19.857	9.030	0.466
1208.000	680.042	79.997	19.996	100.835	19.855	9.125	0.465
1208.500	680.330	79.999	19.996	100.835	19.854	9.200	0.517
1209.000	680.553	79.998	19.996	100.837	19.855	9.108	0.525
1209.500	680.858	79.999	19.995	100.840	19.857	8.994	0.520
1210.001	681.081	79.998	19.996	100.844	19.859	8.860	0.528
1210.501	681.319	79.999	19.995	100.846	19.861	8.681	0.494
1211.001	681.620	79.998	19.995	100.847	19.855	9.143	0.500
1211.501	681.838	79.998	19.996	100.845	19.859	8.854	0.529
1212.000	682.122	79.999	19.996	100.843	19.857	9.009	0.510
1212.500	682.360	79.999	19.996	100.841	19.857	8.972	0.512
1213.001	682.630	79.997	19.995	100.842	19.857	8.985	0.516
1213.501	682.854	79.999	19.995	100.841	19.859	8.841	0.501
1214.000	683.127	79.997	19.995	100.840	19.858	8.918	0.495
1214.501	683.386	79.999	19.995	100.840	19.857	8.995	0.514
1215.001	683.651	79.999	19.994	100.842	19.859	8.834	0.528
1215.500	683.831	79.998	19.994	100.843	19.859	8.884	0.485
1216.000	684.133	79.999	19.996	100.844	19.858	8.903	0.463
1216.500	684.358	79.998	19.996	100.842	19.857	9.018	0.505
1217.000	684.645	79.997	19.995	100.842	19.856	9.087	0.520
1217.500	684.904	79.998	19.996	100.842	19.858	8.909	0.529
1218.000	685.135	79.998	19.996	100.844	19.850	9.527	0.518
1218.500	685.401	79.999	19.995	100.844	19.854	9.184	0.493
1219.000	685.643	79.998	19.994	100.842	19.857	9.001	0.503
1219.500	685.896	79.998	19.995	100.840	19.857	8.995	0.502
1220.000	686.156	79.996	19.995	100.835	19.858	8.955	0.504
1220.500	686.385	79.998	19.995	100.834	19.858	8.955	0.501
1221.000	686.654	79.999	19.996	100.837	19.858	8.898	0.494
1221.501	686.902	79.998	19.996	100.845	19.851	9.428	0.507
1222.001	687.156	79.997	19.996	100.850	19.854	9.199	0.509
1222.501	687.407	79.998	19.995	100.853	19.857	9.019	0.504
1223.001	687.658	79.997	19.995	100.849	19.853	9.318	0.504
1223.501	687.934	79.998	19.995	100.844	19.853	9.314	0.515
1224.001	688.151	79.999	19.995	100.840	19.855	9.174	0.510
1224.501	688.433	79.999	19.995	100.838	19.853	9.251	0.496
1225.000	688.695	79.998	19.995	100.841	19.856	9.039	0.522
1225.500	688.938	79.999	19.995	100.847	19.854	9.188	0.525
1226.001	689.215	80.000	19.997	100.846	19.861	8.726	0.512
1226.501	689.446	79.999	19.996	100.844	19.855	9.154	0.514
1227.000	689.723	79.998	19.996	100.843	19.855	9.169	0.508
1227.500	689.960	80.000	19.997	100.844	19.856	9.096	0.511
1228.000	690.174	79.996	19.995	100.843	19.859	8.856	0.483
1228.500	690.449	79.998	19.995	100.848	19.859	8.877	0.470
1229.000	690.702	79.997	19.996	100.851	19.863	8.572	0.508
1229.500	690.971	79.997	19.996	100.852	19.857	8.977	0.525
1230.000	691.202	79.998	19.996	100.850	19.855	9.138	0.511
1230.500	691.489	79.998	19.996	100.846	19.853	9.255	0.509
1231.000	691.734	79.997	19.996	100.847	19.854	9.194	0.525
1231.501	691.985	79.997	19.996	100.848	19.855	9.111	0.514
1232.001	692.204	79.998	19.996	100.851	19.857	8.977	0.483
1232.500	692.417	79.998	19.996	100.853	19.859	8.877	0.451
1233.001	692.724	79.999	19.997	100.852	19.859	8.843	0.476
1233.501	693.006	79.999	19.996	100.851	19.857	8.981	0.555
1234.001	693.240	79.998	19.997	100.851	19.858	8.900	0.552
1234.500	693.481	79.999	19.998	100.850	19.856	9.062	0.495
1235.000	693.755	79.998	19.996	100.851	19.862	8.674	0.495
1235.500	694.011	79.998	19.996	100.855	19.859	8.884	0.522
1236.000	694.251	79.998	19.996	100.858	19.852	9.325	0.513
1236.500	694.508	79.997	19.997	100.860	19.856	9.041	0.497
1237.000	694.756	79.998	19.997	100.860	19.854	9.190	0.501
1237.500	695.032	79.998	19.997	100.858	19.857	8.987	0.515
1238.000	695.280	79.997	19.998	100.856	19.856	9.102	0.524
1238.500	695.565	79.998	19.996	100.853	19.854	9.202	0.528
1239.000	695.834	79.997	19.996	100.850	19.855	9.136	0.543
1239.501	696.069	79.997	19.998	100.849	19.855	9.167	0.529
1240.001	696.355	79.997	19.996	100.850	19.857	9.001	0.513
1240.500	696.563	79.998	19.997	100.853	19.855	9.173	0.507
1241.000	696.858	79.998	19.996	100.854	19.854	9.187	0.498
1241.500	697.097	79.999	19.997	100.853	19.853	9.292	0.518
1242.000	697.350	79.999	19.997	100.855	19.854	9.180	0.513
1242.501	697.601	79.996	19.996	100.856	19.854	9.238	0.498
1243.001	697.834	79.998	19.996	100.852	19.853	9.266	0.494
1243.500	698.129	79.997	19.995	100.853	19.859	8.871	0.506
1244.000	698.345	79.996	19.996	100.854	19.856	9.055	0.520
1244.500	698.606	79.998	19.996	100.855	19.851	9.419	0.494
1245.000	698.865	79.998	19.997	100.855	19.858	8.922	0.498
1245.501	699.095	79.999	19.996	100.858	19.855	9.114	0.504
1246.001	699.365	79.998	19.997	100.860	19.854	9.244	0.495
1246.501	699.608	79.998	19.996	100.861	19.859	8.828	0.506
1247.001	699.888	79.999	19.996	100.860	19.856	9.095	0.518
1247.501	700.134	79.998	19.995	100.861	19.853	9.308	0.525
1248.000	700.409	79.999	19.998	100.857	19.851	9.448	0.523
1248.500	700.662	80.000	19.997	100.857	19.856	9.059	0.524
1249.000	700.881	79.999	19.997	100.856	19.859	8.887	0.500
1249.500	701.148	79.999	19.997	100.857	19.853	9.272	0.479
1250.000	701.377	79.998	19.997	100.857	19.856	9.063	0.490
1250.500	701.625	80.000	19.997	100.860	19.852	9.354	0.486
1251.000	701.892	79.999	19.996	100.861	19.853	9.287	0.496
1251.500	702.157	79.999	19.995	100.860	19.854	9.247	0.524
1252.000	702.356	80.001	19.997	100.860	19.856	9.088	0.498
1252.501	702.641	79.998	19.996	100.859	19.853	9.275	0.473
1253.001	702.841	79.999	19.996	100.856	19.854	9.236	0.484
1253.500	703.138	79.999	19.996	100.855	19.855	9.110	0.491
1254.000	703.355	80.000	19.997	100.853	19.856	9.090	0.506
1254.501	703.647	79.999	19.997	100.851	19.852	9.349	0.512
1255.001	703.920	80.001	19.997	100.851	19.853	9.253	0.537
1255.500	704.139	79.999	19.996	100.848	19.856	9.061	0.528
1256.000	704.401	80.000	19.996	100.842	19.850	9.504	0.487
1256.501	704.616	79.998	19.997	100.842	19.850	9.493	0.480
1257.001	704.879	79.999	19.996	100.843	19.852	9.363	0.478
1257.500	705.156	79.998	19.997	100.841	19.852	9.338	0.509
1258.000	705.398	80.000	19.997	100.845	19.853	9.263	0.530
1258.500	705.655	80.000	19.996	100.849	19.855	9.112	0.509
1259.000	705.909	79.998	19.997	100.849	19.856	9.077	0.505
1259.500	706.124	79.999	19.997	100.850	19.857	8.993	0.490
1260.000	706.352	79.999	19.997	100.853	19.854	9.215	0.456
1260.500	706.627	79.998	19.997	100.851	19.854	9.215	0.473
1261.000	706.896	79.998	19.996	100.848	19.853	9.284	0.523
1261.500	707.142	79.998	19.998	100.850	19.854	9.213	0.529
1262.000	707.401	80.000	19.999	100.850	19.850	9.510	0.510
1262.500	707.647	79.999	19.997	100.851	19.855	9.127	0.505
1263.000	707.938	79.997	19.996	100.855	19.857	9.019	0.520
1263.500	708.159	79.999	19.996	100.858	19.857	9.018	0.524
1264.000	708.435	79.999	19.998	100.859	19.857	9.033	0.505
1264.500	708.652	79.999	19.996	100.857	19.855	9.142	0.495
1265.000	708.900	79.998	19.997	100.854	19.854	9.200	0.479
1265.500	709.164	79.998	19.997	100.851	19.854	9.179	0.488
1266.000	709.446	79.999	19.997	100.852	19.853	9.259	0.529
1266.500	709.637	79.997	19.996	100.852	19.855	9.141	0.509
1267.000	709.898	79.999	19.996	100.854	19.857	8.993	0.463
1267.500	710.152	79.999	19.997	100.857	19.857	8.966	0.484
1268.000	710.386	80.000	19.997	100.859	19.852	9.372	0.501
1268.500	710.636	79.998	19.996	100.858	19.856	9.094	0.486
1269.000	710.865	79.999	19.996	100.858	19.855	9.140	0.481
1269.500	711.142	80.000	19.996	100.858	19.852	9.372	0.492
1270.000	711.393	79.999	19.996	100.859	19.857	9.027	0.517
1270.500	711.660	79.999	19.996	100.859	19.853	9.290	0.523
1271.000	711.931	80.000	19.996	100.859	19.855	9.145	0.528
1271.500	712.119	80.001	19.996	100.859	19.854	9.208	0.499
1272.000	712.440	80.000	19.995	100.859	19.859	8.851	0.484
1272.500	712.669	79.998	19.994	100.857	19.853	9.264	0.529
1273.000	712.912	79.998	19.994	100.857	19.851	9.406	0.511
1273.500	713.161	79.999	19.995	100.857	19.856	9.034	0.482
1274.000	713.429	79.999	19.995	100.857	19.854	9.222	0.505
1274.500	713.692	80.000	19.995	100.858	19.855	9.117	0.524
1275.000	713.920	80.002	19.995	100.858	19.852	9.329	0.511
1275.500	714.187	80.000	19.995	100.860	19.848	9.624	0.493
1276.000	714.457	80.000	19.995	100.860	19.852	9.356	0.516
1276.500	714.655	79.999	19.995	100.861	19.854	9.202	0.502
1277.000	714.986	80.001	19.996	100.860	19.854	9.185	0.498
1277.500	715.236	79.999	19.995	100.861	19.855	9.137	0.555
1278.001	715.493	80.001	19.995	100.861	19.854	9.210	0.545
1278.501	715.730	80.001	19.995	100.856	19.854	9.223	0.500
1279.000	715.953	80.002	19.995	100.856	19.852	9.334	0.477
1279.500	716.259	80.001	19.994	100.856	19.850	9.486	0.494
1280.000	716.491	80.000	19.995	100.856	19.848	9.660	0.533
1280.500	716.738	80.001	19.995	100.856	19.853	9.294	0.509
1281.000	717.015	80.001	19.995	100.862	19.851	9.428	0.502
1281.501	717.267	80.002	19.995	100.863	19.851	9.441	0.526
1282.001	717.512	80.000	19.994	100.864	19.852	9.392	0.513
1282.500	717.764	80.001	19.995	100.862	19.850	9.520	0.497
1283.000	718.007	80.001	19.995	100.857	19.851	9.457	0.496
1283.500	718.267	80.001	19.996	100.851	19.855	9.140	0.499
1284.000	718.503	80.000	19.995	100.850	19.853	9.300	0.500
1284.501	718.779	80.002	19.995	100.850	19.854	9.230	0.504
1285.001	719.030	80.002	19.995	100.852	19.854	9.247	0.520
1285.500	719.283	80.000	19.995	100.857	19.854	9.216	0.516
1286.001	719.518	79.999	19.996	100.863	19.855	9.150	0.496
1286.501	719.759	79.999	19.994	100.863	19.855	9.157	0.481
1287.001	720.003	80.000	19.996	100.863	19.851	9.413	0.480
1287.500	720.276	79.999	19.995	100.863	19.852	9.323	0.501
1288.000	720.515	79.999	19.996	100.863	19.851	9.416	0.515
1288.500	720.772	80.000	19.996	100.863	19.852	9.339	0.504
1289.000	721.044	79.999	19.995	100.863	19.852	9.347	0.512
1289.500	721.280	79.999	19.997	100.863	19.852	9.362	0.519
1290.000	721.497	79.999	19.995	100.861	19.852	9.366	0.480
1290.500	721.776	79.999	19.997	100.859	19.851	9.454	0.474
1291.000	722.018	79.998	19.996	100.859	19.852	9.365	0.509
1291.500	722.320	79.998	19.995	100.858	19.849	9.549	0.532
1292.000	722.564	79.998	19.996	100.858	19.852	9.388	0.545
1292.500	722.778	79.997	19.995	100.857	19.856	9.099	0.502
1293.000	723.047	79.998	19.995	100.859	19.851	9.408	0.471
1293.501	723.283	79.997	19.997	100.859	19.852	9.380	0.494
1294.001	723.513	79.998	19.996	100.859	19.853	9.272	0.485
1294.500	723.753	79.998	19.996	100.856	19.849	9.545	0.467
1295.000	724.021	79.997	19.995	100.858	19.853	9.282	0.489
1295.500	724.288	79.998	19.997	100.856	19.852	9.321	0.522
1296.000	724.531	79.998	19.996	100.851	19.852	9.367	0.523
1296.500	724.794	79.998	19.995	100.851	19.853	9.294	0.508
1297.000	725.042	79.998	19.996	100.854	19.855	9.146	0.509
1297.500	725.288	79.999	19.996	100.855	19.854	9.210	0.503
1298.000	725.547	79.997	19.996	100.859	19.854	9.217	0.499
1298.500	725.790	79.999	19.996	100.860	19.854	9.194	0.503
1299.001	726.059	79.998	19.996	100.856	19.850	9.488	0.508
1299.501	726.292	79.999	19.994	100.854	19.850	9.528	0.507
1300.000	726.554	79.997	19.996	100.852	19.851	9.417	0.498
1300.500	726.839	79.999	19.995	100.851	19.847	9.728	0.521
1301.000	727.047	79.998	19.996	100.849	19.852	9.367	0.520
1301.500	727.303	79.998	19.996	100.846	19.851	9.400	0.478
1302.000	727.582	79.999	19.996	100.843	19.854	9.242	0.499
1302.500	727.788	79.999	19.996	100.844	19.856	9.060	0.510
1303.000	728.056	79.999	19.996	100.842	19.853	9.261	0.480
1303.500	728.326	79.998	19.995	100.842	19.850	9.492	0.506
1304.000	728.587	79.998	19.997	100.849	19.856	9.083	0.535
1304.500	728.804	79.999	19.995	100.854	19.848	9.658	0.504
1305.000	729.083	79.999	19.995	100.855	19.850	9.491	0.487
1305.500	729.327	79.997	19.995	100.858	19.852	9.378	0.510
1306.001	729.586	79.999	19.995	100.859	19.850	9.534	0.513
1306.501	729.824	79.999	19.995	100.857	19.851	9.440	0.500
1307.000	730.119	79.999	19.995	100.857	19.848	9.676	0.514
1307.500	730.343	79.998	19.993	100.857	19.847	9.718	0.526
1308.000	730.604	79.999	19.995	100.857	19.850	9.484	0.502
1308.500	730.887	79.999	19.997	100.860	19.849	9.578	0.515
1309.001	731.142	79.999	19.995	100.861	19.852	9.331	0.540
1309.501	731.394	80.000	19.996	100.862	19.847	9.684	0.522
1310.000	731.621	79.999	19.995	100.862	19.850	9.471	0.493
1310.500	731.901	79.999	19.995	100.862	19.849	9.557	0.493
1311.000	732.134	79.999	19.995	100.862	19.851	9.451	0.510
1311.500	732.398	79.999	19.996	100.862	19.854	9.212	0.505
1312.000	732.656	80.000	19.995	100.862	19.850	9.497	0.509
1312.501	732.915	79.999	19.995	100.862	19.852	9.380	0.519
1313.001	733.157	79.998	19.996	100.862	19.847	9.689	0.509
1313.501	733.412	79.999	19.997	100.862	19.850	9.531	0.500
1314.001	733.670	79.999	19.996	100.860	19.850	9.525	0.505
1314.500	733.905	79.999	19.996	100.860	19.854	9.201	0.503
1315.000	734.158	79.999	19.995	100.860	19.850	9.525	0.491
1315.500	734.409	79.998	19.996	100.860	19.851	9.421	0.496
1316.000	734.682	79.997	19.996	100.860	19.851	9.397	0.514
1316.500	734.918	79.998	19.996	100.861	19.853	9.287	0.516
1317.000	735.189	79.997	19.996	100.862	19.850	9.479	0.508
1317.500	735.413	79.999	19.996	100.862	19.851	9.443	0.501
1318.000	735.703	79.997	19.995	100.862	19.851	9.439	0.505
1318.500	735.945	79.998	19.996	100.862	19.849	9.539	0.523
1319.001	736.177	79.998	19.996	100.861	19.847	9.696	0.503
1319.501	736.428	79.997	19.996	100.862	19.848	9.662	0.479
1320.000	736.666	79.998	19.997	100.861	19.853	9.315	0.486
1320.500	736.893	79.997	19.996	100.861	19.851	9.442	0.477
1321.000	737.154	79.997	19.997	100.861	19.851	9.427	0.476
1321.500	737.395	79.998	19.996	100.862	19.852	9.354	0.495
1322.000	737.665	79.997	19.996	100.861	19.849	9.546	0.507
1322.500	737.906	79.997	19.997	100.861	19.846	9.781	0.511
1323.000	738.182	79.998	19.996	100.860	19.849	9.568	0.514
1323.500	738.431	79.997	19.996	100.858	19.847	9.706	0.521
1324.000	738.682	79.998	19.996	100.857	19.846	9.792	0.512
1324.501	738.940	79.997	19.996	100.854	19.843	9.976	0.505
1325.001	739.198	79.997	19.997	100.853	19.846	9.800	0.513
1325.500	739.426	79.998	19.996	100.850	19.843	10.032	0.501
1326.000	739.676	79.997	19.997	100.848	19.842	10.101	0.482
1326.500	739.994	79.998	19.996	100.848	19.843	9.997	0.523
1327.001	740.231	79.997	19.997	100.851	19.845	9.892	0.562
1327.501	740.447	79.998	19.996	100.851	19.846	9.775	0.504
1328.001	740.716	79.997	19.996	100.853	19.846	9.817	0.469
1328.501	740.953	79.998	19.996	100.857	19.844	9.896	0.495
1329.001	741.233	80.000	19.996	100.855	19.847	9.733	0.511
1329.500	741.485	79.998	19.997	100.856	19.845	9.875	0.525
1330.000	741.734	79.997	19.996	100.857	19.843	9.971	0.517
1330.500	742.002	79.998	19.996	100.858	19.848	9.618	0.509
1331.001	742.229	79.998	19.996	100.860	19.845	9.861	0.506
1331.501	742.516	79.999	19.997	100.863	19.843	10.011	0.504
1332.000	742.755	79.998	19.996	100.864	19.846	9.768	0.520
1332.500	743.003	79.999	19.996	100.863	19.848	9.643	0.507
1333.000	743.252	79.999	19.996	100.863	19.844	9.940	0.492
1333.501	743.524	79.998	19.996	100.861	19.844	9.950	0.509
1334.001	743.776	79.999	19.995	100.861	19.845	9.869	0.522
1334.500	744.056	80.000	19.996	100.859	19.840	10.228	0.528
1335.000	744.282	80.000	19.998	100.857	19.843	10.015	0.519
1335.500	744.559	80.000	19.996	100.855	19.842	10.062	0.505
1336.001	744.812	79.999	19.996	100.855	19.841	10.156	0.517
1336.501	745.053	80.000	19.995	100.854	19.841	10.130	0.512
