Sample ID:	C:\MCC\MCC Cal\Test\Ext_Plywood_MCC_30K_min_211006_R1.txt
Sample Weight (mg):	4.75
Heating Rate (C/s):	0.5
Combustor Temp (C):	900
N2 Flow Rate (cc/min):	80
O2 Flow Rate (cc/min):	20
Calibration File:	C:\MCC\MCC Cal\Coeff1 JN10440_30_210304.txt.txt
T Correction Coefficients:	0	1.024463	0
Time Shift (s):	14
*
Time (s)	Temperature (C)	N2 flow rate (cc/min)	O2 flow rate (cc/min)	Flow Rate (cc/min)	Oxygen (%)	HRR (W/g)	Heating rate (C/s)
0.000	110.050	79.998	19.996	100.698	20.125	-0.091	-0.020
0.500	110.055	80.000	19.997	100.699	20.124	-0.002	-0.011
1.000	110.083	80.000	19.996	100.699	20.126	-0.161	0.018
1.500	110.043	79.999	19.996	100.701	20.124	0.007	0.010
2.000	110.098	79.999	19.995	100.699	20.126	-0.136	0.001
2.500	110.092	79.999	19.995	100.699	20.126	-0.170	0.032
3.000	110.036	79.998	19.995	100.697	20.127	-0.225	-0.006
3.499	110.044	79.998	19.995	100.696	20.126	-0.181	-0.055
4.000	110.007	79.998	19.996	100.691	20.123	0.014	-0.039
4.500	110.024	79.999	19.996	100.689	20.127	-0.220	-0.025
5.000	110.056	79.999	19.995	100.689	20.124	-0.055	0.015
5.500	110.044	79.997	19.995	100.691	20.127	-0.220	0.035
6.000	110.007	79.997	19.995	100.691	20.128	-0.270	-0.015
6.500	110.041	79.998	19.995	100.694	20.124	-0.041	-0.026
7.000	110.023	79.999	19.996	100.698	20.126	-0.136	0.006
7.500	109.971	79.998	19.995	100.698	20.125	-0.111	-0.027
8.000	110.020	79.998	19.995	100.698	20.125	-0.057	-0.036
8.500	110.035	79.998	19.996	100.700	20.125	-0.116	0.031
9.000	110.001	79.999	19.994	100.700	20.125	-0.097	0.022
9.500	110.019	79.998	19.995	100.694	20.123	0.050	-0.018
10.000	110.003	79.998	19.996	100.694	20.126	-0.164	-0.007
10.500	110.001	79.998	19.995	100.694	20.129	-0.322	-0.008
11.000	109.996	79.997	19.996	100.694	20.126	-0.136	-0.013
11.500	109.984	79.997	19.995	100.695	20.128	-0.300	-0.012
12.000	109.967	79.998	19.997	100.701	20.126	-0.179	-0.023
12.500	109.968	79.997	19.996	100.703	20.124	-0.018	-0.023
13.000	109.964	79.999	19.996	100.704	20.125	-0.114	-0.010
13.500	109.978	79.999	19.996	100.708	20.127	-0.208	0.004
14.000	109.986	79.998	19.996	100.711	20.125	-0.118	0.016
14.500	109.961	79.998	19.996	100.715	20.125	-0.106	0.002
15.000	109.986	79.999	19.996	100.720	20.121	0.166	-0.009
15.500	109.948	79.999	19.995	100.723	20.121	0.193	-0.006
16.000	109.987	79.999	19.995	100.724	20.118	0.345	-0.006
16.500	109.967	79.999	19.995	100.726	20.114	0.660	0.010
17.000	109.987	79.998	19.995	100.730	20.119	0.281	0.009
17.500	109.990	79.998	19.996	100.731	20.119	0.295	0.012
18.000	109.986	79.999	19.995	100.733	20.117	0.437	0.011
18.500	109.982	79.999	19.997	100.736	20.117	0.462	-0.005
19.000	109.983	79.998	19.995	100.738	20.114	0.641	-0.005
19.500	109.985	79.998	19.996	100.738	20.115	0.564	0.001
20.000	109.985	79.999	19.995	100.740	20.115	0.593	0.003
20.500	110.006	79.999	19.996	100.746	20.113	0.680	0.011
21.000	110.009	79.998	19.996	100.754	20.114	0.627	0.022
21.500	110.023	79.999	19.995	100.762	20.112	0.790	0.020
22.000	110.044	79.999	19.996	100.771	20.112	0.802	0.026
22.500	110.042	79.999	19.996	100.780	20.113	0.722	0.028
23.000	110.052	79.998	19.996	100.785	20.110	0.888	0.014
23.500	110.069	79.998	19.995	100.793	20.110	0.911	0.017
24.000	110.052	79.997	19.994	100.800	20.104	1.329	0.013
24.500	110.116	79.998	19.995	100.808	20.103	1.393	0.024
25.000	110.137	79.998	19.996	100.818	20.101	1.495	0.066
25.500	110.166	80.000	19.995	100.831	20.100	1.583	0.067
26.000	110.144	79.998	19.995	100.840	20.102	1.459	0.029
26.500	110.215	79.997	19.995	100.849	20.096	1.818	0.028
27.000	110.204	79.999	19.996	100.856	20.099	1.653	0.054
27.500	110.259	79.998	19.995	100.860	20.094	1.947	0.052
28.000	110.291	79.998	19.995	100.860	20.097	1.771	0.065
28.500	110.297	79.998	19.996	100.863	20.093	2.006	0.062
29.000	110.339	79.996	19.995	100.869	20.092	2.118	0.043
29.500	110.359	79.998	19.995	100.876	20.090	2.222	0.055
30.000	110.405	79.998	19.996	100.884	20.089	2.290	0.064
30.500	110.423	79.997	19.996	100.892	20.091	2.185	0.064
31.000	110.478	79.998	19.995	100.897	20.089	2.285	0.069
31.500	110.540	79.997	19.996	100.898	20.091	2.181	0.095
32.000	110.600	79.998	19.996	100.898	20.091	2.146	0.119
32.499	110.649	79.997	19.996	100.899	20.088	2.355	0.116
32.999	110.726	79.998	19.995	100.900	20.084	2.627	0.118
33.499	110.738	79.998	19.996	100.900	20.084	2.599	0.108
34.000	110.853	79.997	19.995	100.900	20.086	2.506	0.108
34.500	110.895	79.997	19.995	100.900	20.088	2.343	0.142
35.000	110.984	79.997	19.996	100.899	20.091	2.189	0.144
35.500	111.031	79.998	19.995	100.899	20.084	2.618	0.133
35.999	111.082	79.997	19.995	100.902	20.087	2.412	0.117
36.499	111.159	79.997	19.996	100.904	20.088	2.394	0.113
36.999	111.242	79.999	19.996	100.908	20.086	2.504	0.144
37.499	111.316	79.997	19.996	100.908	20.083	2.721	0.158
37.999	111.398	79.997	19.994	100.909	20.086	2.529	0.156
38.499	111.420	79.999	19.995	100.908	20.084	2.619	0.130
38.999	111.513	80.000	19.995	100.908	20.082	2.792	0.110
39.499	111.597	80.000	19.995	100.907	20.082	2.733	0.147
39.999	111.691	79.999	19.995	100.910	20.081	2.853	0.177
40.499	111.753	80.000	19.995	100.912	20.083	2.724	0.166
40.999	111.831	80.000	19.995	100.914	20.083	2.692	0.148
41.499	111.939	80.001	19.995	100.920	20.082	2.785	0.163
41.999	112.026	80.000	19.996	100.924	20.081	2.832	0.191
42.499	112.135	80.000	19.995	100.925	20.079	2.968	0.195
42.999	112.212	80.001	19.996	100.926	20.082	2.767	0.191
43.499	112.283	80.001	19.995	100.924	20.079	2.934	0.167
43.999	112.403	80.001	19.995	100.921	20.081	2.860	0.169
44.499	112.497	80.001	19.995	100.920	20.078	3.031	0.203
45.000	112.589	79.999	19.996	100.922	20.081	2.841	0.200
45.500	112.705	80.000	19.995	100.921	20.077	3.097	0.197
46.000	112.797	80.000	19.995	100.922	20.078	3.011	0.208
46.501	112.934	80.000	19.995	100.923	20.079	2.952	0.218
47.001	113.042	80.001	19.995	100.919	20.079	2.965	0.237
47.500	113.142	80.000	19.995	100.920	20.075	3.199	0.227
47.999	113.268	80.000	19.995	100.922	20.075	3.226	0.216
48.500	113.371	80.000	19.997	100.925	20.076	3.146	0.227
49.000	113.503	80.002	19.998	100.927	20.075	3.239	0.232
49.499	113.638	79.999	19.996	100.931	20.075	3.223	0.251
49.999	113.730	79.999	19.996	100.931	20.074	3.262	0.248
50.499	113.796	80.001	19.995	100.933	20.073	3.350	0.193
50.999	113.983	80.000	19.996	100.935	20.075	3.195	0.206
51.499	114.083	80.000	19.995	100.935	20.076	3.188	0.270
51.999	114.219	79.999	19.996	100.935	20.075	3.240	0.262
52.500	114.337	79.999	19.996	100.935	20.072	3.396	0.245
53.000	114.477	79.998	19.997	100.932	20.075	3.253	0.255
53.499	114.597	79.998	19.995	100.931	20.072	3.406	0.259
53.999	114.717	79.998	19.995	100.933	20.074	3.309	0.250
54.499	114.868	80.000	19.997	100.933	20.073	3.348	0.256
54.999	114.949	79.998	19.996	100.933	20.074	3.314	0.251
55.499	115.114	79.999	19.995	100.938	20.075	3.248	0.239
55.999	115.211	79.999	19.995	100.943	20.071	3.516	0.254
56.499	115.371	79.998	19.997	100.942	20.073	3.377	0.259
56.999	115.553	79.999	19.995	100.946	20.069	3.600	0.300
57.499	115.673	80.000	19.995	100.946	20.073	3.391	0.322
57.999	115.804	79.998	19.996	100.942	20.069	3.602	0.276
58.499	115.941	80.000	19.995	100.940	20.070	3.570	0.260
58.999	116.085	79.999	19.995	100.943	20.073	3.357	0.274
59.499	116.231	80.000	19.995	100.941	20.070	3.561	0.285
59.999	116.356	79.999	19.995	100.940	20.071	3.480	0.281
60.499	116.533	80.000	19.995	100.941	20.072	3.446	0.286
60.999	116.735	80.000	19.996	100.939	20.074	3.276	0.340
61.499	116.833	79.999	19.996	100.935	20.078	3.018	0.340
61.999	116.989	80.000	19.996	100.934	20.076	3.178	0.277
62.499	117.129	80.001	19.995	100.936	20.073	3.327	0.275
62.999	117.293	80.000	19.996	100.940	20.071	3.463	0.300
63.499	117.467	80.001	19.995	100.944	20.073	3.356	0.321
63.999	117.652	80.001	19.996	100.950	20.073	3.349	0.349
64.499	117.811	79.999	19.994	100.950	20.073	3.374	0.352
64.999	117.950	80.001	19.994	100.948	20.073	3.338	0.321
65.499	118.136	80.001	19.995	100.945	20.073	3.329	0.311
66.000	118.261	80.002	19.995	100.943	20.072	3.427	0.318
66.500	118.443	80.000	19.995	100.938	20.076	3.184	0.309
66.999	118.619	80.000	19.995	100.937	20.075	3.257	0.332
67.500	118.746	80.002	19.993	100.938	20.076	3.132	0.331
68.000	118.951	80.002	19.995	100.937	20.072	3.449	0.318
68.499	119.129	80.002	19.995	100.936	20.073	3.361	0.358
69.000	119.273	80.001	19.995	100.938	20.073	3.336	0.353
69.501	119.488	80.001	19.996	100.939	20.075	3.239	0.340
70.000	119.622	80.002	19.995	100.938	20.070	3.542	0.354
70.499	119.803	80.000	19.995	100.938	20.074	3.261	0.332
70.999	119.967	80.000	19.994	100.937	20.073	3.363	0.330
71.499	120.138	80.000	19.995	100.938	20.073	3.336	0.340
71.999	120.345	80.000	19.995	100.941	20.073	3.338	0.356
72.500	120.516	80.000	19.996	100.945	20.077	3.112	0.378
73.001	120.709	79.999	19.996	100.953	20.073	3.347	0.371
73.501	120.877	79.999	19.996	100.960	20.074	3.272	0.363
74.000	121.040	79.999	19.996	100.964	20.072	3.395	0.346
74.499	121.274	80.000	19.995	100.962	20.077	3.126	0.364
74.999	121.448	79.999	19.996	100.960	20.075	3.250	0.402
75.499	121.661	79.999	19.995	100.957	20.073	3.380	0.397
75.999	121.828	79.999	19.995	100.954	20.076	3.183	0.383
76.499	122.033	79.999	19.995	100.953	20.076	3.182	0.376
76.999	122.192	79.998	19.995	100.957	20.069	3.622	0.368
77.499	122.373	79.999	19.996	100.961	20.073	3.366	0.352
77.999	122.607	79.997	19.996	100.963	20.068	3.680	0.378
78.499	122.788	79.999	19.994	100.961	20.075	3.248	0.415
78.999	122.969	79.996	19.995	100.960	20.072	3.452	0.388
79.499	123.156	79.997	19.996	100.959	20.072	3.422	0.365
79.999	123.362	79.998	19.996	100.957	20.070	3.558	0.380
80.500	123.563	79.996	19.997	100.957	20.071	3.480	0.400
81.000	123.800	79.997	19.997	100.964	20.070	3.557	0.422
81.499	123.989	79.996	19.997	100.967	20.071	3.469	0.432
81.999	124.126	79.996	19.997	100.969	20.072	3.422	0.376
82.499	124.391	79.996	19.997	100.970	20.071	3.507	0.364
82.999	124.602	79.995	19.996	100.970	20.073	3.327	0.439
83.499	124.759	79.996	19.996	100.968	20.073	3.349	0.422
83.999	124.935	79.996	19.996	100.968	20.070	3.553	0.350
84.499	125.174	79.996	19.997	100.968	20.070	3.577	0.374
84.999	125.382	79.997	19.994	100.963	20.070	3.542	0.431
85.499	125.599	79.996	19.996	100.959	20.069	3.612	0.436
85.999	125.821	79.996	19.996	100.955	20.070	3.582	0.432
86.499	126.018	79.998	19.996	100.950	20.070	3.548	0.429
87.000	126.252	79.998	19.997	100.946	20.070	3.542	0.425
87.500	126.446	79.996	19.997	100.949	20.067	3.774	0.430
87.999	126.676	79.997	19.996	100.952	20.066	3.845	0.426
88.499	126.863	79.997	19.996	100.952	20.070	3.569	0.420
88.999	127.069	79.995	19.997	100.952	20.070	3.551	0.405
89.499	127.262	79.996	19.997	100.953	20.070	3.585	0.396
89.999	127.471	79.997	19.996	100.955	20.066	3.834	0.400
90.499	127.696	79.998	19.996	100.958	20.070	3.590	0.418
90.999	127.887	79.995	19.996	100.964	20.071	3.515	0.425
91.499	128.121	79.997	19.995	100.969	20.069	3.633	0.420
91.999	128.314	79.998	19.997	100.972	20.069	3.624	0.426
92.499	128.523	79.997	19.997	100.975	20.071	3.477	0.415
92.999	128.764	79.998	19.996	100.973	20.071	3.494	0.426
93.499	128.948	79.998	19.995	100.973	20.067	3.752	0.438
93.999	129.203	79.998	19.995	100.972	20.068	3.718	0.432
94.499	129.435	79.998	19.996	100.971	20.070	3.567	0.463
94.999	129.645	79.998	19.996	100.971	20.069	3.628	0.464
95.499	129.856	79.999	19.996	100.971	20.068	3.675	0.431
95.999	130.064	79.998	19.995	100.967	20.067	3.779	0.420
96.499	130.320	79.998	19.996	100.967	20.070	3.585	0.442
96.999	130.553	79.998	19.996	100.965	20.067	3.773	0.477
97.499	130.746	79.997	19.996	100.964	20.069	3.617	0.457
97.999	130.967	79.999	19.994	100.966	20.068	3.669	0.420
98.499	131.199	79.998	19.996	100.969	20.069	3.625	0.434
98.999	131.397	79.998	19.995	100.964	20.068	3.666	0.442
99.499	131.587	79.998	19.995	100.965	20.071	3.508	0.409
99.999	131.831	79.998	19.995	100.964	20.071	3.514	0.411
100.499	132.079	79.998	19.995	100.959	20.068	3.691	0.463
101.000	132.297	79.998	19.996	100.954	20.071	3.465	0.479
101.500	132.508	79.998	19.995	100.955	20.070	3.565	0.448
101.999	132.778	79.998	19.995	100.955	20.069	3.606	0.455
102.499	132.976	79.999	19.995	100.951	20.070	3.540	0.474
102.999	133.184	79.998	19.995	100.954	20.069	3.614	0.437
103.499	133.459	79.997	19.995	100.956	20.068	3.708	0.444
104.000	133.682	79.999	19.994	100.959	20.068	3.703	0.490
104.500	133.913	79.998	19.995	100.960	20.069	3.644	0.476
104.999	134.166	79.999	19.996	100.965	20.070	3.569	0.470
105.500	134.357	79.998	19.995	100.964	20.067	3.759	0.464
106.000	134.621	79.998	19.994	100.965	20.069	3.617	0.449
106.499	134.818	79.997	19.996	100.964	20.072	3.422	0.458
106.999	135.067	79.997	19.996	100.959	20.068	3.723	0.453
107.499	135.299	79.998	19.996	100.958	20.071	3.479	0.463
107.999	135.541	79.998	19.996	100.960	20.072	3.432	0.477
108.499	135.772	79.998	19.995	100.961	20.071	3.522	0.474
109.000	135.984	79.997	19.996	100.959	20.069	3.649	0.458
109.500	136.229	79.998	19.995	100.964	20.069	3.613	0.450
109.999	136.490	79.997	19.996	100.966	20.067	3.753	0.481
110.499	136.687	79.997	19.996	100.964	20.070	3.558	0.482
110.999	136.935	79.997	19.997	100.964	20.068	3.674	0.452
111.499	137.165	79.997	19.996	100.965	20.071	3.462	0.462
111.999	137.434	79.997	19.995	100.964	20.066	3.810	0.489
112.499	137.679	79.998	19.996	100.961	20.069	3.604	0.507
112.999	137.927	79.997	19.997	100.958	20.071	3.493	0.504
113.500	138.157	79.998	19.996	100.955	20.071	3.518	0.486
114.001	138.365	79.997	19.997	100.956	20.067	3.724	0.458
114.500	138.638	79.997	19.996	100.954	20.068	3.685	0.459
115.000	138.840	79.996	19.996	100.957	20.067	3.783	0.478
115.501	139.129	79.998	19.997	100.960	20.067	3.732	0.483
116.000	139.377	79.997	19.996	100.965	20.068	3.703	0.514
116.499	139.609	79.999	19.996	100.966	20.067	3.730	0.508
116.999	139.838	79.998	19.996	100.965	20.066	3.842	0.470
117.499	140.102	79.998	19.995	100.959	20.068	3.699	0.478
117.999	140.350	79.998	19.996	100.955	20.065	3.887	0.503
118.499	140.572	79.999	19.997	100.952	20.070	3.590	0.491
118.999	140.835	79.999	19.995	100.950	20.064	3.948	0.477
119.500	141.069	79.998	19.997	100.951	20.066	3.797	0.491
120.000	141.345	79.999	19.996	100.951	20.065	3.908	0.504
120.500	141.570	79.998	19.997	100.949	20.062	4.084	0.505
121.001	141.772	79.999	19.996	100.945	20.066	3.848	0.464
121.501	142.066	79.997	19.996	100.943	20.067	3.758	0.462
122.000	142.311	80.001	19.995	100.939	20.064	3.932	0.518
122.499	142.543	79.998	19.996	100.939	20.066	3.796	0.508
123.000	142.811	79.999	19.995	100.940	20.065	3.916	0.489
123.500	143.050	79.999	19.995	100.941	20.066	3.799	0.503
123.999	143.290	79.999	19.995	100.941	20.066	3.840	0.493
124.499	143.559	80.000	19.996	100.946	20.065	3.898	0.494
124.999	143.765	80.000	19.995	100.949	20.066	3.844	0.492
125.499	144.020	79.999	19.995	100.948	20.071	3.502	0.468
125.999	144.298	79.999	19.995	100.947	20.069	3.613	0.497
126.499	144.551	79.999	19.994	100.947	20.069	3.611	0.532
127.000	144.824	80.001	19.996	100.944	20.069	3.624	0.529
127.500	145.063	79.999	19.996	100.943	20.072	3.448	0.519
128.000	145.312	80.001	19.995	100.944	20.070	3.573	0.500
128.500	145.514	79.999	19.997	100.946	20.069	3.652	0.469
129.000	145.775	79.999	19.995	100.944	20.068	3.674	0.456
129.500	146.041	80.000	19.996	100.941	20.066	3.805	0.495
130.000	146.299	80.000	19.995	100.939	20.067	3.767	0.525
130.500	146.552	80.000	19.996	100.937	20.066	3.839	0.517
131.000	146.783	79.999	19.995	100.935	20.067	3.744	0.497
131.500	147.043	79.999	19.996	100.937	20.066	3.849	0.488
132.000	147.297	80.000	19.995	100.937	20.067	3.787	0.503
132.500	147.526	79.998	19.994	100.937	20.066	3.812	0.498
133.000	147.801	79.998	19.994	100.937	20.066	3.847	0.494
133.500	148.022	79.999	19.994	100.937	20.066	3.853	0.500
134.000	148.285	79.999	19.997	100.935	20.068	3.672	0.490
134.500	148.528	79.999	19.996	100.935	20.063	3.992	0.495
135.000	148.780	79.998	19.994	100.934	20.064	3.976	0.500
135.500	149.035	79.999	19.996	100.934	20.067	3.724	0.501
136.000	149.308	79.999	19.996	100.934	20.062	4.062	0.518
136.500	149.576	79.999	19.996	100.934	20.061	4.129	0.534
137.000	149.817	79.999	19.997	100.934	20.066	3.831	0.525
137.500	150.033	79.999	19.996	100.935	20.067	3.772	0.483
138.000	150.337	80.000	19.995	100.936	20.068	3.699	0.489
138.500	150.575	80.001	19.995	100.935	20.066	3.812	0.531
139.000	150.833	79.998	19.996	100.936	20.063	4.030	0.519
139.500	151.086	79.999	19.995	100.937	20.064	3.953	0.504
140.000	151.347	79.999	19.995	100.936	20.066	3.846	0.512
140.500	151.582	79.999	19.996	100.936	20.067	3.743	0.505
141.000	151.863	79.999	19.997	100.937	20.065	3.912	0.506
141.500	152.120	79.999	19.996	100.936	20.064	3.964	0.527
142.000	152.355	79.999	19.996	100.935	20.065	3.871	0.515
142.500	152.620	79.998	19.997	100.935	20.064	3.987	0.496
143.000	152.859	79.998	19.996	100.935	20.063	3.994	0.502
143.500	153.113	80.000	19.997	100.932	20.065	3.914	0.499
144.000	153.335	79.999	19.996	100.932	20.062	4.107	0.485
144.500	153.569	79.998	19.998	100.932	20.064	3.953	0.466
145.000	153.852	79.999	19.997	100.932	20.067	3.774	0.486
145.500	154.099	80.000	19.998	100.932	20.065	3.917	0.523
146.000	154.362	79.998	19.998	100.935	20.066	3.842	0.520
146.500	154.607	79.999	19.997	100.935	20.064	3.944	0.509
147.000	154.846	80.000	19.996	100.936	20.065	3.896	0.496
147.500	155.088	80.000	19.997	100.935	20.064	3.973	0.483
148.000	155.395	80.002	19.997	100.935	20.067	3.770	0.515
148.500	155.603	80.000	19.996	100.935	20.068	3.722	0.532
149.000	155.869	79.999	19.995	100.934	20.065	3.873	0.494
149.500	156.097	80.000	19.996	100.933	20.066	3.828	0.484
150.000	156.350	80.000	19.996	100.932	20.065	3.856	0.488
150.500	156.627	80.000	19.996	100.932	20.065	3.905	0.506
151.000	156.870	80.000	19.996	100.932	20.067	3.738	0.525
151.500	157.137	80.000	19.996	100.932	20.067	3.786	0.515
152.000	157.404	80.000	19.996	100.932	20.067	3.727	0.522
152.500	157.647	80.000	19.995	100.934	20.066	3.789	0.522
153.000	157.906	80.001	19.997	100.933	20.064	3.985	0.506
153.500	158.131	79.999	19.996	100.933	20.062	4.085	0.493
154.000	158.407	80.000	19.995	100.934	20.062	4.078	0.492
154.500	158.670	80.000	19.996	100.933	20.063	4.012	0.520
155.000	158.950	80.000	19.995	100.933	20.067	3.754	0.542
155.500	159.181	80.002	19.997	100.934	20.064	3.960	0.527
156.000	159.442	79.998	19.996	100.934	20.064	3.967	0.501
156.500	159.670	79.999	19.995	100.934	20.063	4.038	0.490
157.000	159.930	79.999	19.995	100.935	20.065	3.911	0.488
157.500	160.166	79.998	19.997	100.934	20.065	3.904	0.492
158.000	160.423	79.997	19.996	100.934	20.061	4.160	0.495
158.500	160.708	79.997	19.997	100.934	20.067	3.753	0.518
159.000	160.945	79.996	19.996	100.934	20.066	3.830	0.532
159.500	161.212	79.998	19.996	100.932	20.065	3.887	0.512
160.000	161.437	79.996	19.996	100.934	20.065	3.913	0.498
160.500	161.725	79.996	19.995	100.932	20.066	3.812	0.503
161.000	161.972	79.997	19.995	100.932	20.071	3.479	0.524
161.500	162.196	79.996	19.995	100.932	20.068	3.696	0.503
162.000	162.478	79.997	19.996	100.929	20.067	3.733	0.488
162.500	162.715	79.997	19.996	100.923	20.067	3.760	0.513
163.000	162.962	79.997	19.996	100.918	20.064	3.948	0.502
163.500	163.236	79.997	19.996	100.916	20.065	3.893	0.503
164.000	163.483	79.997	19.996	100.913	20.065	3.893	0.521
164.500	163.724	79.998	19.995	100.911	20.062	4.063	0.504
165.000	164.017	79.997	19.996	100.914	20.062	4.102	0.511
165.500	164.244	79.997	19.996	100.918	20.066	3.835	0.527
166.000	164.510	79.997	19.996	100.920	20.064	3.962	0.506
166.500	164.762	79.998	19.996	100.919	20.063	4.020	0.505
167.000	165.020	79.996	19.996	100.923	20.060	4.227	0.514
167.500	165.276	79.997	19.996	100.918	20.066	3.823	0.512
168.000	165.531	79.997	19.996	100.913	20.059	4.272	0.512
168.500	165.771	79.997	19.996	100.906	20.062	4.057	0.503
169.000	166.037	79.997	19.997	100.905	20.062	4.079	0.501
169.500	166.286	79.998	19.999	100.901	20.064	3.966	0.511
170.000	166.555	79.997	19.997	100.903	20.063	4.011	0.517
170.500	166.814	79.997	19.995	100.903	20.060	4.238	0.523
171.000	167.044	79.999	19.996	100.903	20.056	4.492	0.508
171.500	167.285	79.998	19.996	100.901	20.056	4.455	0.480
172.000	167.568	79.997	19.995	100.900	20.056	4.503	0.498
172.500	167.816	79.998	19.997	100.896	20.058	4.371	0.527
173.000	168.043	79.998	19.997	100.898	20.057	4.442	0.503
173.500	168.299	79.995	19.996	100.897	20.059	4.317	0.480
174.000	168.548	79.998	19.996	100.896	20.056	4.489	0.494
174.500	168.826	79.997	19.997	100.895	20.054	4.591	0.516
175.000	169.094	79.999	19.997	100.896	20.057	4.414	0.536
175.500	169.365	79.999	19.997	100.894	20.053	4.693	0.543
176.000	169.623	79.998	19.997	100.894	20.056	4.480	0.534
176.500	169.874	79.999	19.998	100.896	20.055	4.524	0.519
177.000	170.076	79.999	19.996	100.897	20.053	4.677	0.482
177.500	170.365	79.998	19.997	100.896	20.057	4.426	0.472
178.000	170.594	79.997	19.996	100.896	20.058	4.351	0.504
178.500	170.816	79.998	19.998	100.897	20.057	4.440	0.484
179.000	171.049	79.997	19.997	100.896	20.062	4.061	0.453
179.500	171.320	79.998	19.997	100.896	20.060	4.211	0.479
180.000	171.569	79.998	19.997	100.895	20.059	4.286	0.512
180.500	171.832	79.998	19.996	100.896	20.060	4.213	0.516
181.000	172.057	79.998	19.996	100.896	20.062	4.064	0.500
181.500	172.343	79.998	19.996	100.896	20.059	4.286	0.499
182.000	172.567	79.998	19.996	100.895	20.057	4.439	0.511
182.500	172.849	79.999	19.996	100.897	20.057	4.449	0.508
183.000	173.074	79.998	19.996	100.897	20.058	4.378	0.506
183.500	173.338	79.997	19.996	100.896	20.059	4.299	0.498
184.000	173.577	79.999	19.998	100.895	20.057	4.442	0.496
184.500	173.817	79.998	19.997	100.896	20.054	4.646	0.491
185.000	174.045	79.998	19.995	100.894	20.057	4.410	0.473
185.500	174.304	79.999	19.994	100.894	20.054	4.634	0.478
186.000	174.547	79.999	19.996	100.894	20.055	4.533	0.495
186.500	174.824	79.998	19.996	100.894	20.059	4.302	0.511
187.000	175.065	79.998	19.995	100.894	20.053	4.691	0.519
187.500	175.277	79.998	19.995	100.894	20.053	4.703	0.485
188.000	175.536	79.999	19.996	100.894	20.052	4.775	0.462
188.500	175.771	79.999	19.996	100.894	20.056	4.476	0.483
189.000	176.008	79.999	19.996	100.894	20.051	4.809	0.483
189.500	176.259	79.998	19.996	100.895	20.054	4.628	0.480
190.000	176.512	79.998	19.995	100.895	20.057	4.414	0.496
190.500	176.772	79.998	19.996	100.894	20.057	4.444	0.509
191.000	176.985	79.999	19.995	100.894	20.055	4.544	0.493
191.500	177.259	79.999	19.997	100.894	20.054	4.639	0.480
192.000	177.529	79.998	19.995	100.893	20.050	4.861	0.516
192.500	177.760	79.997	19.996	100.893	20.052	4.720	0.522
193.000	178.051	79.998	19.995	100.894	20.052	4.752	0.511
193.500	178.307	79.996	19.995	100.894	20.051	4.795	0.535
194.000	178.541	79.997	19.995	100.894	20.052	4.748	0.518
194.500	178.790	79.998	19.996	100.895	20.055	4.537	0.487
195.000	179.045	79.997	19.996	100.894	20.058	4.349	0.494
195.500	179.266	79.997	19.996	100.894	20.055	4.580	0.490
196.000	179.549	79.998	19.995	100.894	20.050	4.859	0.490
196.500	179.745	79.998	19.995	100.894	20.053	4.707	0.491
197.000	180.036	79.996	19.994	100.894	20.049	4.951	0.483
197.500	180.294	79.997	19.997	100.894	20.052	4.736	0.518
198.000	180.511	79.997	19.996	100.892	20.048	5.015	0.512
198.500	180.775	79.997	19.996	100.892	20.053	4.713	0.477
199.000	181.000	79.998	19.996	100.892	20.046	5.141	0.485
199.500	181.220	79.999	19.997	100.893	20.047	5.051	0.467
200.000	181.515	79.998	19.995	100.893	20.047	5.047	0.480
200.500	181.725	79.998	19.995	100.894	20.051	4.815	0.510
201.000	182.024	79.998	19.995	100.894	20.046	5.153	0.507
201.500	182.227	79.998	19.996	100.894	20.046	5.157	0.505
202.000	182.482	79.999	19.995	100.893	20.044	5.253	0.480
202.500	182.761	79.999	19.995	100.891	20.046	5.167	0.496
203.000	182.989	79.998	19.996	100.893	20.047	5.112	0.520
203.500	183.226	80.000	19.995	100.893	20.046	5.115	0.486
204.000	183.486	79.998	19.997	100.893	20.044	5.293	0.481
204.500	183.731	80.000	19.996	100.891	20.046	5.160	0.501
205.000	183.971	80.000	19.996	100.892	20.044	5.260	0.495
205.500	184.174	79.999	19.996	100.892	20.045	5.237	0.464
206.000	184.462	80.000	19.996	100.891	20.045	5.191	0.467
206.500	184.716	79.999	19.995	100.892	20.046	5.166	0.516
207.000	184.996	80.000	19.995	100.894	20.046	5.130	0.538
207.500	185.222	80.000	19.995	100.894	20.045	5.223	0.520
208.000	185.528	80.000	19.994	100.894	20.046	5.142	0.520
208.500	185.721	80.000	19.997	100.895	20.043	5.339	0.516
209.000	185.987	80.000	19.996	100.896	20.048	5.042	0.479
209.500	186.234	79.999	19.995	100.896	20.043	5.319	0.486
210.000	186.497	79.999	19.996	100.897	20.042	5.402	0.511
210.500	186.749	80.001	19.996	100.897	20.043	5.327	0.512
211.000	186.987	79.999	19.996	100.897	20.042	5.425	0.502
211.500	187.216	80.000	19.996	100.897	20.043	5.373	0.479
212.000	187.442	79.999	19.995	100.896	20.042	5.396	0.461
212.500	187.718	80.000	19.995	100.895	20.043	5.364	0.479
213.000	187.964	80.000	19.996	100.893	20.042	5.387	0.512
213.500	188.212	80.000	19.995	100.893	20.043	5.369	0.508
214.000	188.423	80.000	19.996	100.893	20.040	5.558	0.476
214.500	188.648	80.000	19.995	100.893	20.043	5.334	0.447
215.000	188.916	79.999	19.996	100.894	20.037	5.747	0.465
215.500	189.179	80.000	19.996	100.896	20.038	5.676	0.512
216.000	189.395	79.998	19.995	100.896	20.042	5.439	0.505
216.500	189.657	80.000	19.996	100.896	20.043	5.355	0.479
217.000	189.881	79.999	19.995	100.896	20.039	5.600	0.482
217.500	190.139	79.999	19.994	100.896	20.037	5.711	0.483
218.000	190.357	79.999	19.995	100.896	20.040	5.543	0.479
218.500	190.661	80.001	19.997	100.897	20.039	5.600	0.499
219.000	190.867	80.001	19.997	100.897	20.041	5.497	0.516
219.500	191.090	79.999	19.997	100.896	20.040	5.543	0.470
220.000	191.386	80.000	19.996	100.894	20.039	5.582	0.474
220.500	191.609	79.997	19.995	100.892	20.037	5.727	0.519
221.000	191.895	79.999	19.997	100.892	20.037	5.774	0.514
221.500	192.111	79.998	19.994	100.892	20.037	5.756	0.506
222.000	192.339	80.000	19.994	100.889	20.035	5.887	0.473
222.500	192.622	80.000	19.996	100.887	20.038	5.690	0.478
223.000	192.876	80.001	19.995	100.887	20.034	5.926	0.524
223.500	193.086	79.999	19.995	100.887	20.037	5.760	0.500
224.000	193.314	79.999	19.995	100.887	20.033	6.014	0.451
224.500	193.589	80.001	19.995	100.891	20.035	5.858	0.470
225.000	193.808	80.000	19.995	100.896	20.035	5.849	0.499
225.500	194.083	80.001	19.994	100.898	20.035	5.862	0.494
226.000	194.324	80.000	19.996	100.895	20.034	5.932	0.505
226.500	194.575	80.000	19.995	100.893	20.034	5.923	0.504
227.000	194.804	80.000	19.995	100.892	20.036	5.833	0.486
227.500	195.079	80.000	19.994	100.890	20.032	6.073	0.492
228.000	195.349	80.000	19.995	100.887	20.032	6.064	0.524
228.500	195.542	80.001	19.995	100.887	20.034	5.913	0.503
229.000	195.800	80.000	19.994	100.888	20.032	6.064	0.457
229.500	196.026	80.000	19.994	100.888	20.033	6.021	0.468
230.000	196.238	80.002	19.996	100.890	20.032	6.085	0.461
230.500	196.523	80.000	19.995	100.891	20.034	5.910	0.467
231.000	196.773	80.001	19.994	100.890	20.032	6.073	0.516
231.500	196.989	80.001	19.996	100.889	20.033	5.991	0.501
232.000	197.244	80.001	19.995	100.889	20.030	6.195	0.468
232.500	197.458	80.000	19.996	100.888	20.033	6.027	0.470
233.000	197.763	80.001	19.996	100.888	20.030	6.215	0.494
233.500	197.993	80.001	19.995	100.891	20.031	6.136	0.527
234.000	198.249	80.001	19.996	100.891	20.032	6.059	0.511
234.500	198.491	80.000	19.996	100.889	20.027	6.379	0.492
235.000	198.701	80.001	19.996	100.889	20.030	6.231	0.474
235.500	198.962	80.001	19.996	100.889	20.030	6.220	0.462
236.000	199.206	80.000	19.995	100.889	20.030	6.240	0.489
236.500	199.439	80.000	19.996	100.889	20.030	6.223	0.491
237.000	199.698	80.000	19.996	100.891	20.029	6.257	0.484
237.500	199.978	80.000	19.997	100.891	20.029	6.254	0.515
238.000	200.200	80.000	19.997	100.892	20.030	6.216	0.520
238.500	200.435	79.998	19.996	100.891	20.027	6.384	0.480
239.000	200.707	79.999	19.996	100.890	20.028	6.368	0.482
239.500	200.931	79.999	19.996	100.886	20.030	6.207	0.502
240.000	201.192	79.999	19.996	100.883	20.024	6.589	0.490
240.500	201.423	79.998	19.996	100.882	20.030	6.238	0.488
241.000	201.683	79.998	19.997	100.880	20.026	6.478	0.491
241.500	201.899	79.999	19.995	100.880	20.024	6.628	0.484
242.000	202.161	79.998	19.996	100.885	20.025	6.558	0.477
242.500	202.378	79.999	19.997	100.890	20.026	6.444	0.478
243.000	202.677	79.998	19.996	100.889	20.024	6.610	0.498
243.500	202.898	79.999	19.997	100.893	20.023	6.668	0.518
244.000	203.150	79.998	19.996	100.893	20.023	6.669	0.497
244.500	203.420	79.998	19.996	100.892	20.022	6.710	0.497
245.000	203.634	79.999	19.996	100.890	20.023	6.644	0.503
245.500	203.863	79.998	19.996	100.891	20.023	6.671	0.464
246.000	204.117	79.997	19.997	100.892	20.019	6.906	0.463
246.500	204.391	79.998	19.996	100.891	20.022	6.721	0.505
247.000	204.616	79.998	19.996	100.891	20.017	7.076	0.514
247.500	204.900	79.998	19.995	100.890	20.021	6.819	0.504
248.000	205.145	79.998	19.996	100.889	20.021	6.773	0.519
248.500	205.388	79.998	19.996	100.886	20.023	6.685	0.509
249.000	205.634	79.998	19.996	100.887	20.023	6.660	0.488
249.500	205.857	79.998	19.996	100.887	20.021	6.775	0.479
250.000	206.142	79.998	19.996	100.889	20.021	6.795	0.489
250.500	206.393	79.998	19.996	100.890	20.019	6.906	0.522
251.000	206.600	79.999	19.995	100.891	20.022	6.748	0.496
251.500	206.875	79.998	19.996	100.892	20.020	6.877	0.470
252.000	207.085	79.999	19.995	100.889	20.019	6.945	0.484
252.500	207.357	79.999	19.997	100.889	20.024	6.601	0.484
253.000	207.633	79.999	19.997	100.887	20.022	6.744	0.515
253.500	207.880	79.999	19.997	100.889	20.019	6.952	0.535
254.000	208.115	79.999	19.997	100.889	20.018	7.011	0.502
254.500	208.338	79.999	19.995	100.893	20.018	7.002	0.470
255.000	208.601	79.999	19.997	100.891	20.020	6.873	0.472
255.500	208.803	79.998	19.997	100.891	20.017	7.065	0.475
256.000	209.051	79.998	19.997	100.890	20.018	6.977	0.457
256.500	209.317	79.999	19.996	100.891	20.019	6.949	0.482
257.000	209.556	79.998	19.996	100.891	20.013	7.332	0.509
257.500	209.759	80.000	19.996	100.892	20.013	7.323	0.473
258.000	210.037	79.999	19.997	100.891	20.014	7.253	0.462
258.500	210.309	79.999	19.997	100.887	20.009	7.609	0.516
259.000	210.535	79.998	19.997	100.884	20.014	7.292	0.524
259.500	210.781	80.000	19.997	100.884	20.010	7.500	0.485
260.000	211.049	79.999	19.997	100.885	20.011	7.495	0.493
260.500	211.273	79.999	19.997	100.887	20.011	7.450	0.503
261.000	211.544	80.000	19.997	100.891	20.012	7.393	0.494
261.500	211.767	79.999	19.997	100.893	20.014	7.250	0.494
262.000	212.010	79.998	19.997	100.894	20.013	7.325	0.480
262.500	212.283	80.000	19.997	100.892	20.011	7.480	0.491
263.000	212.550	79.999	19.998	100.891	20.008	7.668	0.528
263.500	212.766	79.998	19.997	100.890	20.006	7.829	0.512
264.000	213.008	79.999	19.997	100.886	20.008	7.670	0.471
264.500	213.268	79.999	19.999	100.886	20.009	7.588	0.480
265.000	213.520	79.999	19.998	100.887	20.010	7.538	0.507
265.500	213.719	79.998	19.996	100.887	20.008	7.656	0.482
266.000	213.999	79.998	19.996	100.888	20.003	7.987	0.465
266.500	214.283	79.999	19.997	100.892	20.005	7.885	0.522
267.000	214.527	79.996	19.997	100.893	20.006	7.774	0.546
267.500	214.771	79.997	19.998	100.894	20.004	7.915	0.508
268.000	214.986	79.997	19.997	100.891	20.007	7.702	0.474
268.500	215.284	79.996	19.997	100.888	20.007	7.744	0.486
269.000	215.476	79.997	19.995	100.885	20.005	7.841	0.502
269.500	215.725	79.996	19.996	100.884	20.003	7.965	0.466
270.000	215.955	79.996	19.996	100.884	20.003	7.996	0.460
270.500	216.199	79.998	19.998	100.887	20.002	8.050	0.476
271.000	216.445	79.997	19.996	100.891	20.005	7.850	0.482
271.500	216.709	79.998	19.997	100.896	20.009	7.595	0.500
272.000	216.944	79.998	19.997	100.896	20.005	7.887	0.504
272.500	217.168	79.997	19.997	100.896	20.009	7.602	0.479
273.000	217.414	79.997	19.997	100.893	20.005	7.896	0.464
273.500	217.662	79.997	19.997	100.891	20.008	7.696	0.482
274.000	217.901	79.997	19.997	100.890	20.003	7.976	0.491
274.500	218.195	79.998	19.997	100.888	20.004	7.901	0.510
275.000	218.436	79.996	19.996	100.888	20.007	7.699	0.534
275.500	218.690	79.997	19.996	100.889	20.008	7.675	0.515
276.000	218.923	79.998	19.996	100.890	20.005	7.869	0.491
276.500	219.185	79.997	19.996	100.892	20.007	7.744	0.491
277.000	219.424	79.999	19.996	100.892	20.006	7.821	0.498
277.500	219.682	79.997	19.996	100.890	20.004	7.924	0.499
278.000	219.895	79.998	19.996	100.888	20.006	7.803	0.484
278.500	220.165	79.999	19.995	100.883	20.001	8.102	0.477
279.000	220.357	79.998	19.997	100.882	20.001	8.112	0.472
279.500	220.583	79.999	19.997	100.878	20.003	7.999	0.440
280.000	220.855	80.000	19.996	100.878	20.000	8.216	0.458
280.500	221.120	80.000	19.995	100.883	20.001	8.122	0.518
281.000	221.346	79.999	19.996	100.888	19.998	8.317	0.514
281.500	221.597	79.998	19.995	100.889	20.001	8.113	0.484
282.000	221.875	80.000	19.995	100.896	19.999	8.266	0.503
282.500	222.109	79.999	19.996	100.897	20.000	8.187	0.520
283.000	222.361	79.999	19.996	100.897	19.998	8.324	0.499
283.500	222.597	80.000	19.996	100.896	20.002	8.078	0.487
284.000	222.849	80.000	19.995	100.896	19.998	8.325	0.488
284.500	223.123	79.998	19.995	100.895	19.998	8.337	0.507
285.000	223.323	80.000	19.996	100.893	20.001	8.107	0.500
285.500	223.619	80.001	19.996	100.892	19.999	8.294	0.485
286.000	223.855	79.999	19.995	100.893	20.004	7.944	0.514
286.500	224.149	80.000	19.995	100.891	19.996	8.465	0.531
287.000	224.365	79.998	19.995	100.891	19.998	8.327	0.520
287.500	224.601	80.001	19.995	100.893	19.998	8.326	0.481
288.000	224.869	80.000	19.995	100.894	19.999	8.286	0.478
288.500	225.119	80.000	19.996	100.892	19.998	8.302	0.511
289.000	225.343	80.001	19.996	100.890	20.000	8.225	0.496
289.500	225.590	80.000	19.995	100.891	20.000	8.172	0.473
290.000	225.840	80.000	19.997	100.890	19.999	8.288	0.484
290.500	226.119	80.000	19.995	100.890	19.999	8.261	0.513
291.000	226.333	80.000	19.996	100.891	19.999	8.254	0.511
291.500	226.593	80.000	19.996	100.894	19.998	8.301	0.484
292.000	226.807	79.999	19.996	100.894	20.000	8.180	0.474
292.500	227.048	79.999	19.996	100.894	19.998	8.311	0.465
293.000	227.291	80.001	19.995	100.889	19.997	8.365	0.470
293.500	227.554	79.998	19.995	100.890	19.997	8.426	0.495
294.000	227.786	80.000	19.996	100.891	19.997	8.410	0.500
294.500	228.028	79.999	19.995	100.890	19.997	8.413	0.484
295.000	228.318	79.999	19.995	100.891	19.997	8.367	0.504
295.500	228.563	79.999	19.996	100.896	19.997	8.413	0.534
296.000	228.775	79.998	19.996	100.896	19.999	8.291	0.496
296.500	229.064	80.000	19.995	100.895	19.997	8.376	0.479
297.000	229.295	79.997	19.996	100.895	19.998	8.316	0.510
297.500	229.574	79.999	19.997	100.895	19.993	8.660	0.515
298.000	229.811	80.000	19.996	100.894	19.998	8.351	0.513
298.500	230.057	80.000	19.996	100.894	19.998	8.316	0.499
299.000	230.350	79.998	19.995	100.894	19.998	8.359	0.511
299.500	230.537	79.998	19.996	100.894	19.995	8.493	0.509
300.000	230.804	79.999	19.997	100.893	19.996	8.475	0.467
300.500	231.046	79.999	19.995	100.893	19.999	8.293	0.482
301.000	231.280	80.000	19.996	100.893	19.995	8.520	0.492
301.500	231.521	80.000	19.995	100.893	19.996	8.445	0.475
302.000	231.794	80.000	19.995	100.893	19.996	8.476	0.495
302.500	232.042	80.000	19.995	100.893	19.996	8.442	0.517
303.000	232.296	80.000	19.995	100.892	19.995	8.531	0.511
303.500	232.534	80.001	19.996	100.892	19.998	8.298	0.498
304.000	232.805	80.000	19.996	100.892	19.996	8.475	0.501
304.500	233.060	80.000	19.995	100.891	19.996	8.432	0.517
305.000	233.263	80.002	19.995	100.892	19.996	8.427	0.492
305.500	233.543	80.001	19.997	100.893	19.998	8.300	0.470
306.000	233.800	80.001	19.995	100.893	19.994	8.591	0.510
306.500	234.079	80.001	19.995	100.893	19.994	8.608	0.537
307.000	234.295	80.001	19.996	100.892	19.992	8.723	0.516
307.500	234.549	80.002	19.995	100.891	19.992	8.694	0.482
308.000	234.807	80.001	19.994	100.890	19.994	8.572	0.491
308.500	235.025	80.000	19.995	100.885	19.996	8.460	0.494
309.000	235.300	80.003	19.995	100.881	19.996	8.474	0.485
309.500	235.525	80.000	19.994	100.881	19.993	8.664	0.497
310.000	235.770	80.000	19.994	100.881	19.991	8.768	0.485
310.500	236.024	80.002	19.995	100.878	19.989	8.924	0.484
311.000	236.243	80.001	19.995	100.880	19.991	8.818	0.486
311.500	236.492	80.001	19.995	100.885	19.989	8.947	0.471
312.000	236.771	80.000	19.995	100.885	19.991	8.762	0.498
312.500	237.038	80.001	19.995	100.885	19.984	9.238	0.537
313.000	237.250	80.002	19.996	100.888	19.988	8.970	0.513
313.500	237.541	80.000	19.995	100.891	19.991	8.782	0.491
314.000	237.770	80.000	19.995	100.888	19.986	9.097	0.511
314.500	238.021	80.002	19.996	100.885	19.990	8.847	0.500
315.000	238.253	80.000	19.996	100.886	19.988	9.022	0.482
315.500	238.483	80.001	19.995	100.886	19.985	9.185	0.472
316.000	238.741	80.000	19.995	100.886	19.991	8.818	0.474
316.500	238.987	80.000	19.995	100.890	19.989	8.891	0.496
317.000	239.255	80.000	19.995	100.893	19.989	8.893	0.509
317.500	239.479	80.000	19.996	100.893	19.991	8.759	0.503
318.000	239.745	80.000	19.995	100.892	19.989	8.925	0.491
318.500	240.003	80.000	19.996	100.890	19.986	9.113	0.507
319.000	240.225	80.000	19.995	100.889	19.987	9.027	0.502
319.500	240.461	79.999	19.996	100.889	19.986	9.140	0.469
320.000	240.716	79.998	19.995	100.890	19.989	8.900	0.474
320.500	240.974	80.000	19.995	100.890	19.987	9.065	0.502
321.000	241.222	79.999	19.995	100.893	19.988	9.015	0.510
321.500	241.480	79.999	19.996	100.893	19.987	9.040	0.506
322.000	241.693	79.998	19.996	100.890	19.986	9.119	0.488
322.500	241.967	79.997	19.995	100.890	19.984	9.250	0.479
323.000	242.243	79.998	19.995	100.890	19.985	9.192	0.519
323.500	242.475	79.998	19.995	100.890	19.987	9.069	0.529
324.000	242.706	79.998	19.996	100.891	19.992	8.750	0.485
324.500	242.963	79.998	19.997	100.894	19.984	9.270	0.476
325.000	243.208	79.998	19.996	100.894	19.982	9.379	0.496
325.500	243.466	79.998	19.997	100.893	19.984	9.286	0.503
326.000	243.706	79.998	19.997	100.891	19.986	9.151	0.500
326.500	243.978	79.995	19.995	100.891	19.985	9.219	0.504
327.000	244.197	79.998	19.996	100.891	19.984	9.277	0.502
327.500	244.454	79.998	19.996	100.890	19.983	9.294	0.483
328.000	244.722	79.996	19.995	100.892	19.983	9.345	0.500
328.500	244.927	79.997	19.996	100.893	19.983	9.346	0.499
329.000	245.198	79.998	19.995	100.894	19.985	9.175	0.475
329.500	245.441	79.996	19.997	100.893	19.980	9.499	0.495
330.000	245.737	79.997	19.996	100.891	19.979	9.594	0.527
330.500	245.977	79.996	19.996	100.890	19.981	9.483	0.538
331.000	246.237	79.998	19.997	100.889	19.980	9.509	0.518
331.500	246.451	79.997	19.997	100.889	19.978	9.620	0.487
332.000	246.694	79.998	19.997	100.890	19.979	9.567	0.465
332.500	246.931	79.998	19.996	100.893	19.980	9.536	0.469
333.000	247.216	79.998	19.997	100.894	19.976	9.810	0.501
333.500	247.450	79.998	19.996	100.896	19.974	9.909	0.520
334.000	247.716	79.998	19.995	100.897	19.971	10.088	0.509
334.500	247.938	79.999	19.997	100.897	19.975	9.884	0.494
335.000	248.225	79.998	19.997	100.897	19.976	9.771	0.499
335.500	248.473	79.998	19.997	100.897	19.971	10.086	0.522
336.000	248.676	79.998	19.997	100.897	19.973	9.988	0.493
336.500	248.952	79.998	19.997	100.897	19.973	9.955	0.465
337.000	249.217	79.999	19.996	100.897	19.970	10.193	0.510
337.500	249.535	79.998	19.998	100.896	19.972	10.032	0.562
338.000	249.761	80.000	19.997	100.896	19.972	10.018	0.563
338.500	250.019	79.999	19.997	100.896	19.969	10.267	0.514
339.000	250.246	79.998	19.996	100.896	19.969	10.267	0.485
339.500	250.504	79.997	19.997	100.896	19.971	10.144	0.485
340.000	250.752	79.998	19.996	100.897	19.970	10.205	0.495
340.500	251.057	79.998	19.998	100.898	19.969	10.264	0.529
341.000	251.295	79.997	19.996	100.898	19.965	10.543	0.548
341.500	251.507	79.997	19.995	100.897	19.963	10.618	0.496
342.000	251.785	79.995	19.996	100.896	19.966	10.457	0.470
342.500	252.022	79.999	19.996	100.897	19.963	10.679	0.503
343.000	252.313	79.999	19.996	100.896	19.960	10.858	0.522
343.500	252.535	79.999	19.996	100.896	19.965	10.536	0.521
344.000	252.766	79.998	19.996	100.897	19.960	10.856	0.483
344.500	253.043	79.999	19.996	100.898	19.961	10.814	0.480
345.000	253.249	79.999	19.997	100.897	19.961	10.764	0.496
345.500	253.504	79.999	19.997	100.898	19.958	11.001	0.472
346.000	253.762	79.998	19.997	100.898	19.961	10.788	0.487
346.500	253.999	79.998	19.997	100.898	19.953	11.312	0.504
347.000	254.232	79.997	19.997	100.898	19.954	11.219	0.482
347.500	254.499	79.996	19.996	100.896	19.956	11.131	0.485
348.000	254.742	79.997	19.995	100.893	19.953	11.286	0.505
348.500	254.978	79.997	19.996	100.893	19.953	11.321	0.495
349.000	255.258	79.998	19.997	100.894	19.949	11.590	0.498
349.500	255.475	79.996	19.996	100.896	19.950	11.511	0.506
350.000	255.748	79.997	19.995	100.898	19.947	11.708	0.493
350.500	256.012	79.996	19.996	100.900	19.948	11.651	0.513
351.000	256.206	79.997	19.997	100.901	19.945	11.827	0.498
351.500	256.471	79.997	19.995	100.900	19.946	11.800	0.458
352.000	256.757	79.998	19.997	100.899	19.943	11.949	0.504
352.500	256.966	79.997	19.995	100.899	19.942	12.059	0.523
353.000	257.203	79.997	19.996	100.899	19.944	11.928	0.471
353.500	257.471	79.996	19.997	100.899	19.940	12.155	0.476
354.000	257.730	79.997	19.997	100.899	19.939	12.271	0.516
354.500	257.975	79.997	19.997	100.901	19.941	12.088	0.515
355.000	258.216	79.998	19.997	100.902	19.939	12.216	0.495
355.500	258.481	79.997	19.996	100.902	19.935	12.506	0.496
356.000	258.720	79.996	19.997	100.907	19.933	12.605	0.505
356.500	258.935	79.997	19.998	100.914	19.937	12.387	0.479
357.000	259.186	79.996	19.997	100.917	19.932	12.717	0.460
357.500	259.467	79.997	19.997	100.920	19.935	12.526	0.499
358.000	259.724	79.996	19.995	100.923	19.929	12.881	0.535
358.500	259.951	79.997	19.997	100.922	19.930	12.821	0.511
359.000	260.196	79.998	19.997	100.915	19.930	12.810	0.478
359.500	260.474	79.999	19.996	100.911	19.930	12.815	0.498
360.000	260.688	79.998	19.997	100.912	19.927	13.062	0.507
360.500	260.917	79.997	19.996	100.913	19.924	13.230	0.467
361.000	261.219	79.998	19.996	100.914	19.930	12.834	0.487
361.500	261.428	79.998	19.998	100.915	19.925	13.153	0.521
362.000	261.677	79.998	19.997	100.919	19.923	13.274	0.484
362.500	261.882	79.997	19.997	100.919	19.925	13.172	0.456
363.000	262.146	79.999	19.996	100.921	19.924	13.260	0.462
363.500	262.397	80.000	19.998	100.922	19.923	13.333	0.492
364.000	262.648	79.999	19.997	100.925	19.918	13.627	0.508
364.500	262.859	80.000	19.997	100.921	19.916	13.785	0.481
365.000	263.128	79.999	19.996	100.917	19.918	13.627	0.471
365.500	263.368	80.000	19.996	100.912	19.916	13.751	0.495
366.000	263.667	80.000	19.996	100.907	19.914	13.885	0.524
366.500	263.879	80.001	19.997	100.907	19.911	14.107	0.525
367.000	264.124	80.002	19.997	100.911	19.913	13.991	0.484
367.500	264.370	80.000	19.995	100.915	19.912	14.034	0.474
368.000	264.622	79.999	19.997	100.920	19.909	14.238	0.494
368.500	264.860	80.001	19.997	100.926	19.905	14.467	0.494
369.000	265.097	80.001	19.996	100.928	19.906	14.449	0.483
369.500	265.371	80.000	19.995	100.931	19.903	14.614	0.493
370.000	265.612	80.000	19.995	100.930	19.903	14.634	0.513
370.500	265.894	80.001	19.996	100.928	19.903	14.645	0.519
371.000	266.130	79.999	19.995	100.927	19.897	15.003	0.521
371.500	266.396	80.000	19.995	100.924	19.895	15.159	0.509
372.000	266.645	79.999	19.994	100.924	19.896	15.101	0.508
372.500	266.871	80.002	19.995	100.925	19.897	14.994	0.495
373.000	267.124	80.000	19.996	100.927	19.894	15.236	0.477
373.500	267.348	80.000	19.994	100.929	19.890	15.519	0.477
374.000	267.634	79.998	19.995	100.931	19.890	15.477	0.493
374.500	267.854	79.999	19.994	100.931	19.889	15.544	0.508
375.000	268.099	79.999	19.996	100.932	19.889	15.535	0.486
375.500	268.340	80.000	19.996	100.933	19.884	15.905	0.476
376.000	268.587	80.000	19.996	100.933	19.881	16.086	0.487
376.500	268.888	79.998	19.996	100.933	19.882	15.997	0.518
377.000	269.167	79.999	19.996	100.934	19.881	16.077	0.564
377.500	269.359	79.997	19.995	100.933	19.880	16.157	0.525
378.000	269.637	79.999	19.996	100.933	19.876	16.427	0.470
378.500	269.845	79.998	19.995	100.933	19.876	16.434	0.478
379.000	270.134	79.999	19.995	100.933	19.876	16.412	0.492
379.500	270.371	79.999	19.996	100.933	19.870	16.815	0.511
380.000	270.638	79.998	19.994	100.933	19.872	16.688	0.515
380.500	270.895	79.998	19.995	100.933	19.869	16.895	0.515
381.000	271.169	80.001	19.995	100.933	19.869	16.877	0.528
381.500	271.412	79.999	19.996	100.933	19.868	16.968	0.524
382.000	271.625	79.999	19.997	100.933	19.864	17.188	0.486
382.500	271.928	79.998	19.994	100.933	19.864	17.237	0.486
383.000	272.151	80.000	19.997	100.933	19.862	17.352	0.521
383.500	272.400	80.000	19.996	100.933	19.863	17.313	0.499
384.000	272.640	80.000	19.997	100.933	19.856	17.755	0.480
384.500	272.872	79.999	19.996	100.933	19.854	17.850	0.481
385.000	273.098	79.999	19.995	100.933	19.855	17.817	0.465
385.500	273.386	79.999	19.995	100.933	19.852	18.028	0.486
386.000	273.582	80.000	19.995	100.933	19.853	17.915	0.499
386.500	273.839	80.001	19.996	100.933	19.847	18.352	0.468
387.000	274.142	80.000	19.996	100.933	19.850	18.134	0.506
387.500	274.339	80.000	19.995	100.932	19.845	18.463	0.530
388.000	274.577	80.000	19.995	100.932	19.844	18.519	0.468
388.500	274.843	80.000	19.996	100.936	19.841	18.756	0.470
389.000	275.081	79.999	19.995	100.943	19.839	18.871	0.504
389.500	275.336	80.001	19.995	100.946	19.841	18.771	0.499
390.000	275.567	80.001	19.996	100.950	19.835	19.165	0.490
390.500	275.847	80.001	19.997	100.951	19.835	19.142	0.499
391.000	276.059	80.000	19.997	100.951	19.829	19.558	0.501
391.500	276.316	80.002	19.997	100.949	19.829	19.559	0.480
392.000	276.572	80.001	19.996	100.948	19.832	19.361	0.491
392.500	276.781	80.001	19.996	100.949	19.830	19.447	0.490
393.000	277.063	80.001	19.996	100.953	19.826	19.768	0.478
393.500	277.297	80.000	19.995	100.958	19.821	20.064	0.503
394.000	277.567	80.002	19.995	100.958	19.820	20.137	0.510
394.500	277.800	80.002	19.994	100.960	19.817	20.361	0.504
395.000	278.044	80.000	19.994	100.957	19.813	20.594	0.491
395.500	278.291	80.000	19.995	100.952	19.814	20.553	0.484
396.000	278.567	80.000	19.995	100.946	19.811	20.729	0.507
396.500	278.786	80.000	19.995	100.944	19.808	20.905	0.509
397.000	279.064	80.000	19.996	100.942	19.804	21.177	0.496
397.500	279.306	80.001	19.995	100.944	19.807	20.986	0.508
398.000	279.528	80.001	19.995	100.946	19.799	21.520	0.492
398.500	279.796	79.999	19.994	100.950	19.802	21.303	0.477
399.000	279.996	79.999	19.995	100.954	19.798	21.614	0.479
399.500	280.272	80.000	19.994	100.958	19.799	21.560	0.472
400.000	280.500	79.999	19.994	100.959	19.795	21.775	0.491
400.500	280.765	79.998	19.996	100.959	19.790	22.150	0.499
401.000	281.011	79.999	19.994	100.960	19.791	22.063	0.501
401.500	281.263	79.999	19.995	100.962	19.786	22.415	0.504
402.000	281.529	79.999	19.995	100.963	19.783	22.585	0.508
402.500	281.755	79.998	19.995	100.969	19.784	22.558	0.505
403.000	281.968	79.998	19.995	100.974	19.781	22.718	0.466
403.500	282.246	79.998	19.995	100.975	19.778	22.910	0.465
404.000	282.532	79.998	19.995	100.974	19.777	22.980	0.528
404.500	282.786	79.998	19.995	100.974	19.772	23.340	0.552
405.000	282.997	79.997	19.995	100.974	19.775	23.118	0.502
405.500	283.251	79.998	19.995	100.974	19.771	23.398	0.465
406.000	283.495	79.999	19.995	100.974	19.768	23.558	0.482
406.500	283.744	79.999	19.997	100.975	19.763	23.910	0.495
407.000	283.965	79.999	19.995	100.976	19.763	23.916	0.481
407.500	284.255	79.999	19.996	100.978	19.760	24.140	0.490
408.000	284.502	79.998	19.996	100.979	19.758	24.250	0.524
408.500	284.698	80.000	19.995	100.979	19.757	24.304	0.490
409.000	284.972	80.000	19.995	100.979	19.754	24.537	0.457
409.500	285.203	79.998	19.994	100.978	19.756	24.410	0.488
410.000	285.467	79.997	19.995	100.976	19.754	24.542	0.500
410.500	285.719	79.999	19.995	100.976	19.747	24.960	0.505
411.000	285.973	79.998	19.994	100.975	19.748	24.914	0.510
411.500	286.218	80.000	19.996	100.977	19.741	25.358	0.502
412.000	286.436	79.999	19.995	100.981	19.737	25.634	0.481
412.500	286.738	79.998	19.996	100.982	19.743	25.272	0.492
413.000	286.966	79.999	19.995	100.983	19.737	25.672	0.525
413.500	287.245	79.998	19.995	100.984	19.732	25.985	0.518
414.000	287.478	79.998	19.995	100.983	19.730	26.124	0.509
414.500	287.721	79.999	19.995	100.979	19.728	26.227	0.494
415.000	287.966	79.998	19.995	100.978	19.722	26.644	0.482
415.500	288.206	79.997	19.996	100.978	19.720	26.756	0.486
416.000	288.476	79.998	19.995	100.979	19.719	26.866	0.497
416.500	288.743	79.997	19.996	100.980	19.714	27.176	0.524
417.000	289.004	79.998	19.997	100.983	19.712	27.341	0.533
417.500	289.241	79.997	19.996	100.987	19.713	27.261	0.513
418.000	289.490	79.996	19.995	100.989	19.713	27.257	0.492
418.500	289.756	79.997	19.996	100.994	19.709	27.505	0.501
419.000	289.997	79.997	19.996	100.997	19.705	27.791	0.511
419.500	290.239	79.998	19.995	100.999	19.705	27.791	0.495
420.000	290.513	79.998	19.996	101.001	19.703	27.885	0.499
420.500	290.762	79.999	19.996	100.999	19.704	27.824	0.519
421.000	291.003	79.998	19.996	100.998	19.701	28.045	0.506
421.500	291.246	79.997	19.996	100.999	19.693	28.602	0.487
422.000	291.536	79.997	19.997	101.001	19.689	28.835	0.509
422.500	291.763	79.997	19.995	101.000	19.690	28.776	0.525
423.000	292.034	79.997	19.995	101.005	19.688	28.931	0.508
423.500	292.304	79.997	19.998	101.002	19.684	29.146	0.519
424.000	292.520	79.998	19.997	101.000	19.681	29.384	0.513
424.500	292.803	79.998	19.996	100.999	19.679	29.526	0.493
425.000	293.025	79.998	19.996	101.002	19.674	29.818	0.502
425.500	293.257	79.998	19.996	100.999	19.672	29.999	0.479
426.000	293.590	79.998	19.995	101.003	19.672	29.991	0.509
426.500	293.784	80.000	19.997	101.006	19.667	30.291	0.546
427.000	294.025	79.997	19.996	101.007	19.666	30.371	0.481
427.500	294.252	79.997	19.995	101.007	19.664	30.474	0.452
428.000	294.558	80.000	19.997	101.009	19.659	30.815	0.500
428.500	294.785	79.999	19.996	101.009	19.658	30.931	0.533
429.000	295.024	79.997	19.995	101.010	19.652	31.298	0.499
429.500	295.315	79.997	19.996	101.010	19.649	31.473	0.498
430.000	295.531	79.999	19.997	101.010	19.645	31.793	0.518
430.500	295.811	79.998	19.996	101.011	19.645	31.775	0.502
431.000	296.030	79.997	19.995	101.010	19.646	31.700	0.498
431.500	296.278	79.998	19.997	101.011	19.634	32.501	0.483
432.000	296.542	79.996	19.996	101.012	19.643	31.879	0.489
432.500	296.803	79.997	19.996	101.013	19.640	32.103	0.519
433.000	297.072	79.997	19.995	101.013	19.631	32.675	0.528
433.500	297.315	79.998	19.996	101.014	19.622	33.272	0.521
434.000	297.536	79.998	19.996	101.015	19.625	33.093	0.488
434.500	297.871	79.997	19.996	101.015	19.627	32.969	0.510
435.000	298.053	79.998	19.995	101.014	19.630	32.763	0.537
435.500	298.297	79.996	19.995	101.015	19.629	32.825	0.471
436.000	298.565	79.996	19.995	101.014	19.617	33.642	0.469
436.500	298.799	79.998	19.996	101.012	19.615	33.762	0.507
437.000	299.046	79.996	19.994	101.012	19.615	33.756	0.491
437.500	299.294	79.997	19.996	101.012	19.611	34.027	0.488
438.000	299.569	79.998	19.996	101.011	19.611	34.047	0.509
438.500	299.782	79.997	19.996	101.015	19.606	34.333	0.506
439.000	300.091	79.998	19.995	101.021	19.608	34.240	0.505
439.500	300.276	79.998	19.995	101.025	19.602	34.600	0.508
440.000	300.525	79.998	19.997	101.029	19.601	34.711	0.464
440.500	300.813	79.997	19.996	101.032	19.596	35.027	0.486
441.000	301.053	79.998	19.996	101.034	19.594	35.173	0.532
441.500	301.309	80.000	19.998	101.029	19.590	35.410	0.512
442.000	301.643	80.000	19.996	101.029	19.588	35.522	0.543
442.500	301.759	79.998	19.996	101.030	19.588	35.556	0.520
443.000	302.027	80.000	19.996	101.028	19.582	35.931	0.417
443.500	302.335	79.998	19.996	101.024	19.581	36.051	0.480
444.000	302.491	79.998	19.996	101.024	19.573	36.568	0.521
444.500	302.920	79.999	19.997	101.023	19.572	36.594	0.525
445.000	302.933	79.999	19.997	101.026	19.572	36.592	0.513
445.500	303.208	80.000	19.996	101.033	19.570	36.731	0.365
446.000	303.808	79.999	19.996	101.039	19.567	36.976	0.582
446.500	303.679	80.000	19.995	101.043	19.561	37.323	0.674
447.000	303.948	80.000	19.997	101.041	19.563	37.232	0.305
447.500	304.354	80.000	19.996	101.040	19.560	37.416	0.407
448.000	304.349	79.998	19.996	101.040	19.555	37.742	0.538
448.500	304.556	79.997	19.996	101.040	19.556	37.652	0.301
449.000	305.019	79.998	19.998	101.036	19.550	38.085	0.436
449.500	305.581	80.000	19.997	101.040	19.549	38.142	0.848
450.000	305.502	80.000	19.997	101.039	19.547	38.258	0.754
450.500	305.866	79.999	19.998	101.038	19.539	38.815	0.384
451.000	306.097	80.000	19.996	101.038	19.536	38.980	0.440
451.500	306.202	79.998	19.997	101.045	19.538	38.876	0.466
452.000	306.674	79.998	19.997	101.047	19.533	39.192	0.456
452.500	306.858	79.999	19.996	101.047	19.533	39.232	0.617
453.000	307.080	79.998	19.997	101.048	19.527	39.618	0.531
453.500	307.361	79.998	19.997	101.049	19.525	39.752	0.454
454.000	307.558	79.999	19.996	101.049	19.519	40.163	0.491
454.500	307.864	79.998	19.997	101.049	19.521	40.037	0.491
455.000	308.113	80.000	19.997	101.050	19.516	40.307	0.529
455.500	308.273	80.000	19.997	101.050	19.512	40.578	0.482
456.000	308.538	79.999	19.997	101.049	19.515	40.415	0.417
456.500	308.853	79.999	19.996	101.049	19.507	40.919	0.502
457.000	309.022	80.000	19.997	101.050	19.506	41.010	0.532
457.500	309.312	80.000	19.996	101.051	19.502	41.237	0.472
458.000	309.588	79.998	19.996	101.057	19.500	41.415	0.513
458.500	309.806	79.999	19.996	101.061	19.498	41.548	0.530
459.000	310.112	79.999	19.996	101.063	19.495	41.709	0.509
459.500	310.314	79.999	19.996	101.063	19.488	42.192	0.516
460.000	310.602	79.999	19.996	101.061	19.490	42.077	0.499
460.500	310.851	79.999	19.995	101.058	19.488	42.222	0.513
461.000	311.087	79.999	19.996	101.058	19.486	42.355	0.511
461.500	311.326	80.000	19.997	101.056	19.483	42.512	0.480
462.000	311.601	80.000	19.996	101.060	19.481	42.696	0.494
462.500	311.867	80.000	19.996	101.066	19.473	43.188	0.528
463.000	312.106	80.000	19.995	101.067	19.473	43.198	0.523
463.500	312.412	80.002	19.995	101.068	19.468	43.503	0.525
464.000	312.650	80.000	19.996	101.069	19.465	43.708	0.545
464.500	312.872	79.999	19.994	101.066	19.460	44.045	0.502
465.000	313.115	79.999	19.995	101.064	19.459	44.127	0.463
465.500	313.403	80.001	19.995	101.063	19.457	44.254	0.498
466.000	313.673	80.001	19.995	101.064	19.457	44.256	0.545
466.500	313.915	80.000	19.995	101.065	19.453	44.547	0.535
467.000	314.158	80.000	19.995	101.065	19.449	44.778	0.498
467.500	314.441	80.000	19.994	101.061	19.448	44.840	0.506
468.000	314.661	79.999	19.994	101.061	19.441	45.361	0.515
468.500	314.905	80.000	19.995	101.062	19.442	45.289	0.484
469.000	315.205	80.000	19.993	101.064	19.438	45.558	0.504
469.500	315.431	80.000	19.995	101.068	19.434	45.799	0.535
470.000	315.653	80.000	19.995	101.069	19.434	45.788	0.487
470.500	315.926	80.001	19.995	101.074	19.428	46.165	0.472
471.000	316.188	80.000	19.994	101.076	19.427	46.253	0.515
471.500	316.432	80.001	19.995	101.080	19.423	46.536	0.521
472.000	316.671	80.001	19.995	101.083	19.420	46.748	0.494
472.500	316.944	80.002	19.996	101.089	19.419	46.791	0.497
473.000	317.167	80.001	19.996	101.089	19.413	47.183	0.504
473.500	317.459	80.000	19.995	101.091	19.412	47.287	0.506
474.000	317.688	80.001	19.995	101.091	19.413	47.191	0.518
474.500	317.908	80.002	19.995	101.091	19.404	47.787	0.485
475.000	318.181	80.000	19.995	101.090	19.401	47.959	0.471
475.500	318.489	79.999	19.995	101.089	19.400	48.037	0.537
476.000	318.690	80.001	19.996	101.088	19.397	48.229	0.545
476.500	318.956	79.999	19.994	101.087	19.398	48.213	0.488
477.000	319.187	80.001	19.995	101.088	19.391	48.627	0.481
477.500	319.434	80.001	19.994	101.088	19.389	48.801	0.487
478.000	319.694	80.001	19.994	101.089	19.384	49.093	0.493
478.500	319.941	79.999	19.995	101.090	19.385	49.055	0.508
479.000	320.194	79.999	19.995	101.092	19.381	49.283	0.504
479.500	320.462	79.999	19.995	101.092	19.378	49.480	0.510
480.000	320.689	79.999	19.995	101.092	19.373	49.846	0.508
480.500	320.928	79.999	19.994	101.093	19.370	50.013	0.480
481.000	321.197	79.999	19.995	101.092	19.365	50.354	0.487
481.500	321.459	79.997	19.997	101.093	19.368	50.187	0.520
482.000	321.711	79.998	19.995	101.093	19.366	50.332	0.523
482.500	321.966	79.997	19.996	101.093	19.361	50.673	0.511
483.000	322.248	79.997	19.995	101.092	19.364	50.459	0.522
483.500	322.498	79.998	19.995	101.093	19.360	50.676	0.535
484.000	322.718	79.998	19.995	101.091	19.358	50.876	0.501
484.500	322.926	79.997	19.995	101.092	19.356	50.977	0.449
485.000	323.222	79.998	19.995	101.092	19.351	51.310	0.466
485.500	323.460	79.998	19.995	101.093	19.352	51.262	0.519
486.000	323.706	79.998	19.996	101.093	19.349	51.430	0.509
486.500	323.964	79.999	19.995	101.099	19.347	51.593	0.494
487.000	324.216	79.997	19.995	101.102	19.343	51.811	0.507
487.500	324.476	79.997	19.995	101.102	19.340	52.034	0.511
488.000	324.739	79.999	19.997	101.102	19.335	52.335	0.517
488.500	324.962	79.997	19.995	101.102	19.337	52.265	0.505
489.000	325.229	79.998	19.994	101.097	19.330	52.718	0.488
489.500	325.480	79.997	19.995	101.093	19.331	52.663	0.504
490.000	325.726	80.000	19.996	101.093	19.327	52.930	0.507
490.500	325.977	79.999	19.996	101.092	19.325	53.055	0.497
491.000	326.245	80.000	19.996	101.092	19.322	53.251	0.508
491.500	326.478	79.998	19.996	101.094	19.321	53.308	0.510
492.000	326.738	79.998	19.996	101.094	19.321	53.300	0.497
492.500	327.008	79.998	19.996	101.093	19.319	53.425	0.512
493.000	327.244	79.999	19.996	101.093	19.316	53.609	0.518
493.500	327.504	79.999	19.995	101.093	19.314	53.783	0.501
494.000	327.733	79.998	19.995	101.092	19.309	54.093	0.492
494.500	327.970	79.999	19.995	101.092	19.311	53.945	0.477
495.000	328.252	79.999	19.994	101.097	19.309	54.072	0.492
495.500	328.483	79.999	19.997	101.097	19.304	54.437	0.516
496.000	328.757	80.000	19.997	101.097	19.304	54.409	0.510
496.500	329.034	80.000	19.995	101.097	19.306	54.297	0.529
497.000	329.266	80.001	19.996	101.096	19.301	54.606	0.530
497.500	329.539	79.999	19.996	101.091	19.300	54.711	0.506
498.000	329.792	80.001	19.995	101.091	19.296	54.938	0.515
498.500	330.029	79.999	19.996	101.091	19.294	55.109	0.508
499.000	330.304	80.000	19.995	101.091	19.290	55.328	0.501
499.500	330.557	80.000	19.996	101.091	19.289	55.425	0.520
500.000	330.800	80.000	19.997	101.092	19.290	55.375	0.512
500.500	331.042	79.999	19.996	101.094	19.286	55.603	0.490
501.000	331.307	80.000	19.995	101.095	19.282	55.862	0.496
501.500	331.558	79.999	19.995	101.096	19.283	55.854	0.511
502.000	331.848	79.998	19.995	101.096	19.286	55.648	0.528
502.500	332.041	79.999	19.995	101.096	19.279	56.105	0.512
503.000	332.314	79.999	19.996	101.093	19.282	55.893	0.475
503.500	332.557	80.000	19.995	101.093	19.276	56.284	0.491
504.000	332.850	79.999	19.995	101.095	19.279	56.117	0.526
504.500	333.072	80.000	19.995	101.094	19.279	56.095	0.525
505.000	333.309	80.000	19.996	101.094	19.274	56.448	0.487
505.500	333.612	80.000	19.995	101.096	19.275	56.351	0.500
506.000	333.838	79.999	19.996	101.095	19.268	56.844	0.535
506.500	334.098	79.998	19.995	101.093	19.271	56.642	0.507
507.000	334.386	79.998	19.995	101.093	19.269	56.749	0.517
507.500	334.629	79.997	19.995	101.093	19.269	56.735	0.540
508.000	334.869	79.997	19.995	101.093	19.269	56.748	0.507
508.500	335.116	79.998	19.996	101.092	19.265	57.020	0.485
509.000	335.381	79.999	19.995	101.093	19.267	56.886	0.499
509.500	335.637	79.999	19.995	101.094	19.265	57.018	0.516
510.000	335.927	79.999	19.997	101.096	19.260	57.362	0.534
510.500	336.151	79.998	19.997	101.095	19.261	57.257	0.531
511.000	336.419	79.999	19.997	101.096	19.263	57.155	0.503
511.500	336.622	79.997	19.998	101.096	19.258	57.449	0.481
512.000	336.920	79.997	19.997	101.094	19.260	57.333	0.486
512.500	337.134	79.998	19.997	101.093	19.260	57.319	0.506
513.000	337.418	79.999	19.997	101.093	19.259	57.382	0.505
513.500	337.602	79.997	19.997	101.092	19.262	57.223	0.483
514.000	337.909	79.999	19.996	101.091	19.260	57.309	0.480
514.500	338.094	79.998	19.997	101.091	19.263	57.138	0.492
515.000	338.412	80.000	19.996	101.090	19.257	57.505	0.497
515.500	338.631	79.999	19.997	101.090	19.259	57.397	0.520
516.000	338.920	79.998	19.998	101.090	19.258	57.481	0.523
516.500	339.136	79.997	19.996	101.090	19.255	57.635	0.507
517.000	339.425	79.999	19.996	101.090	19.260	57.352	0.505
517.500	339.688	79.998	19.996	101.089	19.257	57.527	0.528
518.000	339.939	79.998	19.995	101.088	19.260	57.305	0.533
518.500	340.168	79.999	19.997	101.086	19.258	57.435	0.497
519.000	340.402	79.998	19.996	101.083	19.256	57.567	0.472
519.500	340.673	79.997	19.997	101.083	19.258	57.470	0.484
520.000	340.939	79.998	19.997	101.084	19.258	57.487	0.521
520.500	341.177	79.998	19.996	101.085	19.259	57.421	0.521
521.000	341.380	79.999	19.997	101.087	19.258	57.475	0.473
521.500	341.668	79.998	19.997	101.089	19.256	57.559	0.466
522.000	341.899	79.999	19.997	101.090	19.262	57.163	0.505
522.500	342.152	79.998	19.996	101.089	19.261	57.254	0.501
523.000	342.433	79.998	19.996	101.088	19.262	57.192	0.509
523.500	342.659	79.998	19.996	101.088	19.267	56.832	0.520
524.000	342.888	79.999	19.996	101.088	19.267	56.890	0.481
524.500	343.110	80.000	19.995	101.086	19.270	56.660	0.453
525.000	343.407	79.998	19.996	101.079	19.265	56.978	0.485
525.500	343.648	79.999	19.996	101.073	19.269	56.705	0.529
526.000	343.895	79.999	19.997	101.068	19.267	56.866	0.513
526.500	344.148	80.000	19.996	101.064	19.266	56.930	0.494
527.000	344.396	80.000	19.995	101.063	19.272	56.519	0.500
527.500	344.662	79.998	19.997	101.063	19.272	56.507	0.507
528.000	344.910	79.999	19.996	101.064	19.273	56.452	0.514
528.500	345.148	79.999	19.997	101.062	19.271	56.598	0.500
529.000	345.413	79.999	19.996	101.060	19.275	56.305	0.495
529.500	345.648	80.000	19.996	101.055	19.283	55.801	0.502
530.000	345.871	80.000	19.996	101.054	19.282	55.834	0.479
530.500	346.153	79.999	19.995	101.053	19.281	55.884	0.481
531.000	346.397	80.000	19.995	101.053	19.286	55.574	0.515
531.500	346.638	80.000	19.995	101.053	19.288	55.443	0.506
532.000	346.893	80.000	19.996	101.053	19.288	55.462	0.490
532.500	347.142	80.000	19.996	101.053	19.293	55.137	0.500
533.000	347.431	79.999	19.996	101.052	19.293	55.100	0.522
533.500	347.662	79.998	19.995	101.052	19.295	54.970	0.529
534.000	347.867	79.999	19.995	101.052	19.303	54.447	0.478
534.500	348.139	79.999	19.996	101.051	19.301	54.577	0.456
535.000	348.383	79.999	19.996	101.049	19.309	54.040	0.496
535.500	348.635	79.998	19.996	101.045	19.309	54.010	0.506
536.000	348.890	79.998	19.996	101.041	19.312	53.852	0.502
536.500	349.134	80.000	19.995	101.039	19.317	53.529	0.503
537.000	349.389	79.998	19.995	101.033	19.316	53.599	0.499
537.500	349.666	79.999	19.997	101.028	19.325	53.006	0.515
538.000	349.904	79.998	19.996	101.027	19.325	52.948	0.523
538.500	350.176	79.999	19.996	101.025	19.331	52.584	0.513
539.000	350.434	79.997	19.996	101.020	19.335	52.289	0.520
539.500	350.650	79.999	19.996	101.020	19.335	52.327	0.502
540.000	350.942	79.998	19.997	101.022	19.338	52.092	0.491
540.500	351.204	79.998	19.996	101.020	19.340	51.981	0.531
541.000	351.459	79.998	19.998	101.020	19.348	51.467	0.536
541.500	351.701	79.997	19.996	101.020	19.353	51.089	0.507
542.000	351.961	79.998	19.998	101.015	19.352	51.168	0.499
542.500	352.149	79.997	19.996	101.011	19.357	50.848	0.475
543.000	352.432	79.999	19.995	101.009	19.357	50.831	0.460
543.500	352.707	79.998	19.996	101.008	19.363	50.408	0.515
544.000	352.937	79.997	19.997	101.005	19.366	50.234	0.532
544.500	353.240	79.998	19.996	101.005	19.372	49.840	0.518
545.000	353.468	79.998	19.997	101.002	19.376	49.545	0.532
545.500	353.703	79.997	19.997	101.000	19.381	49.245	0.497
546.000	353.968	79.997	19.997	100.994	19.387	48.819	0.482
546.500	354.225	79.999	19.997	100.989	19.391	48.601	0.511
547.000	354.489	79.998	19.996	100.985	19.394	48.359	0.521
547.500	354.709	79.999	19.996	100.983	19.397	48.171	0.502
548.000	355.009	79.996	19.997	100.981	19.403	47.802	0.502
548.500	355.256	79.997	19.996	100.981	19.407	47.518	0.533
549.000	355.479	79.999	19.996	100.983	19.412	47.200	0.509
549.500	355.764	79.999	19.996	100.983	19.417	46.866	0.489
550.000	356.026	79.997	19.995	100.980	19.424	46.393	0.527
550.500	356.241	80.001	19.997	100.978	19.429	46.042	0.512
551.000	356.495	80.001	19.996	100.977	19.434	45.714	0.474
551.500	356.764	80.001	19.996	100.975	19.438	45.434	0.497
552.000	357.017	80.001	19.995	100.975	19.443	45.134	0.523
552.500	357.273	80.000	19.995	100.971	19.447	44.878	0.515
553.000	357.511	80.001	19.995	100.965	19.451	44.594	0.501
553.500	357.785	80.001	19.995	100.960	19.460	44.020	0.503
554.000	358.044	80.000	19.994	100.953	19.462	43.854	0.523
554.500	358.264	80.000	19.996	100.949	19.474	43.091	0.506
555.000	358.548	80.002	19.995	100.945	19.472	43.192	0.491
555.500	358.805	80.001	19.996	100.943	19.482	42.519	0.522
556.000	359.052	80.001	19.995	100.943	19.485	42.323	0.523
556.500	359.310	79.999	19.995	100.945	19.490	42.012	0.505
557.000	359.554	80.000	19.994	100.943	19.499	41.374	0.504
557.500	359.747	80.001	19.995	100.943	19.505	41.016	0.469
558.000	359.995	79.999	19.995	100.943	19.506	40.961	0.439
558.500	360.277	80.001	19.995	100.939	19.512	40.557	0.486
559.000	360.523	79.998	19.995	100.936	19.517	40.226	0.529
559.500	360.778	80.000	19.996	100.933	19.528	39.497	0.514
560.000	361.060	80.000	19.996	100.931	19.529	39.381	0.519
560.500	361.280	79.998	19.994	100.930	19.537	38.872	0.519
561.000	361.545	79.998	19.996	100.930	19.542	38.537	0.494
561.500	361.785	79.998	19.994	100.930	19.548	38.162	0.495
562.000	362.075	80.000	19.995	100.929	19.552	37.856	0.518
562.500	362.297	79.996	19.994	100.928	19.562	37.206	0.521
563.000	362.535	79.997	19.995	100.929	19.568	36.804	0.486
563.500	362.792	79.998	19.996	100.930	19.573	36.516	0.477
564.000	363.056	79.997	19.996	100.928	19.577	36.243	0.508
564.500	363.285	79.997	19.997	100.923	19.582	35.869	0.507
565.000	363.576	80.000	19.997	100.918	19.589	35.407	0.506
565.500	363.795	79.998	19.997	100.912	19.600	34.717	0.515
566.000	364.078	80.001	19.995	100.904	19.603	34.484	0.506
566.500	364.308	79.999	19.996	100.899	19.609	34.097	0.507
567.000	364.592	79.999	19.995	100.901	19.617	33.590	0.514
567.500	364.850	79.997	19.996	100.900	19.622	33.257	0.528
568.000	365.084	80.000	19.995	100.899	19.629	32.759	0.517
568.500	365.368	79.995	19.996	100.899	19.635	32.369	0.505
569.000	365.599	79.999	19.995	100.896	19.640	32.041	0.516
569.500	365.876	79.998	19.996	100.893	19.644	31.787	0.512
570.000	366.113	79.998	19.996	100.893	19.650	31.358	0.511
570.500	366.332	79.999	19.995	100.893	19.658	30.850	0.485
571.000	366.614	79.997	19.996	100.892	19.657	30.887	0.479
571.500	366.847	79.998	19.997	100.892	19.666	30.320	0.508
572.000	367.101	80.000	19.995	100.892	19.672	29.910	0.501
572.500	367.342	80.000	19.996	100.888	19.676	29.653	0.491
573.000	367.618	79.998	19.996	100.885	19.682	29.240	0.506
573.500	367.883	79.999	19.996	100.885	19.690	28.733	0.529
574.000	368.118	79.999	19.996	100.883	19.690	28.695	0.520
574.500	368.396	79.999	19.996	100.879	19.701	28.006	0.506
575.000	368.614	79.997	19.996	100.879	19.703	27.884	0.504
575.500	368.913	79.997	19.997	100.876	19.710	27.390	0.506
576.000	369.150	79.999	19.995	100.876	19.719	26.777	0.527
576.500	369.417	79.998	19.997	100.873	19.722	26.636	0.520
577.000	369.671	79.997	19.996	100.871	19.724	26.483	0.513
577.500	369.937	79.998	19.995	100.867	19.726	26.365	0.521
578.000	370.136	80.001	19.995	100.866	19.735	25.748	0.493
578.500	370.435	79.999	19.995	100.859	19.742	25.301	0.481
579.000	370.702	79.999	19.996	100.857	19.745	25.056	0.532
579.500	370.962	79.998	19.996	100.857	19.750	24.763	0.546
580.000	371.186	79.998	19.997	100.857	19.756	24.330	0.505
580.500	371.459	80.000	19.996	100.857	19.764	23.812	0.491
581.000	371.726	80.000	19.996	100.859	19.767	23.614	0.519
581.500	371.968	79.998	19.996	100.859	19.772	23.313	0.525
582.000	372.252	79.998	19.996	100.859	19.778	22.868	0.518
582.500	372.501	79.998	19.995	100.858	19.779	22.842	0.530
583.000	372.751	79.999	19.995	100.854	19.787	22.320	0.516
583.500	373.007	79.999	19.995	100.851	19.791	22.053	0.503
584.000	373.265	79.998	19.995	100.850	19.794	21.822	0.510
584.500	373.544	79.999	19.995	100.848	19.798	21.567	0.525
585.000	373.742	79.999	19.995	100.847	19.802	21.291	0.506
585.500	374.038	79.999	19.996	100.847	19.812	20.673	0.485
586.000	374.275	80.000	19.995	100.846	19.813	20.574	0.513
586.500	374.552	79.999	19.996	100.841	19.820	20.131	0.524
587.000	374.743	79.999	19.996	100.841	19.827	19.630	0.492
587.500	375.015	79.999	19.996	100.842	19.830	19.461	0.466
588.000	375.280	79.998	19.996	100.846	19.831	19.397	0.500
588.500	375.558	79.999	19.997	100.847	19.834	19.203	0.540
589.000	375.830	79.999	19.995	100.848	19.839	18.858	0.546
589.500	376.082	79.997	19.996	100.842	19.843	18.604	0.537
590.000	376.313	80.000	19.995	100.837	19.847	18.336	0.503
590.500	376.573	79.997	19.996	100.831	19.848	18.274	0.487
591.000	376.822	79.998	19.995	100.831	19.852	18.022	0.500
591.500	377.064	79.997	19.995	100.834	19.853	17.905	0.500
592.000	377.350	79.997	19.994	100.837	19.856	17.703	0.509
592.500	377.605	79.998	19.994	100.838	19.862	17.320	0.534
593.000	377.843	79.997	19.994	100.838	19.865	17.133	0.517
593.500	378.134	79.998	19.996	100.836	19.869	16.884	0.511
594.000	378.353	79.997	19.996	100.835	19.873	16.623	0.519
594.500	378.636	79.998	19.996	100.836	19.875	16.498	0.506
595.000	378.851	80.000	19.996	100.836	19.880	16.149	0.500
595.500	379.099	79.999	19.995	100.838	19.880	16.142	0.481
596.000	379.360	79.998	19.996	100.836	19.884	15.861	0.486
596.500	379.579	79.997	19.995	100.832	19.892	15.337	0.495
597.000	379.878	79.998	19.994	100.829	19.888	15.620	0.499
597.500	380.147	79.997	19.995	100.827	19.890	15.450	0.543
598.000	380.407	79.998	19.995	100.825	19.893	15.243	0.548
598.500	380.671	79.997	19.996	100.823	19.900	14.833	0.527
599.000	380.912	79.996	19.995	100.822	19.900	14.831	0.515
599.500	381.222	79.998	19.996	100.822	19.904	14.557	0.528
600.000	381.434	79.997	19.994	100.822	19.904	14.547	0.536
600.500	381.671	79.999	19.995	100.823	19.903	14.618	0.485
601.000	381.957	79.997	19.996	100.823	19.908	14.287	0.486
601.500	382.219	79.997	19.996	100.826	19.909	14.185	0.536
602.000	382.463	79.997	19.996	100.827	19.914	13.896	0.527
602.500	382.713	79.998	19.996	100.826	19.916	13.782	0.500
603.000	382.989	79.998	19.997	100.825	19.923	13.320	0.510
603.500	383.219	79.997	19.997	100.824	19.919	13.549	0.516
604.000	383.454	79.998	19.997	100.822	19.920	13.489	0.486
604.500	383.702	79.999	19.996	100.820	19.924	13.218	0.474
605.000	383.950	79.999	19.995	100.819	19.925	13.154	0.489
605.500	384.238	79.995	19.996	100.819	19.927	13.050	0.516
606.000	384.500	79.999	19.996	100.819	19.924	13.216	0.543
606.500	384.730	79.998	19.997	100.819	19.929	12.866	0.521
607.000	384.962	79.998	19.995	100.818	19.930	12.824	0.477
607.500	385.255	80.000	19.995	100.824	19.932	12.699	0.493
608.000	385.469	79.998	19.996	100.825	19.937	12.375	0.516
608.500	385.708	79.996	19.997	100.825	19.932	12.694	0.480
609.000	385.970	79.999	19.996	100.825	19.937	12.369	0.477
609.500	386.244	79.998	19.995	100.825	19.936	12.413	0.519
610.000	386.510	79.999	19.996	100.822	19.937	12.385	0.538
610.500	386.770	79.998	19.995	100.825	19.939	12.204	0.533
611.000	387.032	79.999	19.996	100.825	19.944	11.930	0.524
611.500	387.282	79.998	19.996	100.826	19.942	12.010	0.517
612.000	387.543	79.998	19.995	100.825	19.948	11.627	0.512
612.500	387.811	79.999	19.995	100.823	19.945	11.801	0.520
613.000	388.053	79.999	19.995	100.821	19.944	11.881	0.519
613.500	388.282	79.997	19.995	100.820	19.947	11.713	0.490
614.000	388.551	79.999	19.995	100.820	19.947	11.693	0.485
614.500	388.794	79.998	19.996	100.821	19.948	11.613	0.505
615.000	389.034	79.997	19.994	100.821	19.952	11.382	0.497
615.500	389.304	79.999	19.997	100.820	19.950	11.504	0.497
616.000	389.507	79.998	19.994	100.821	19.953	11.321	0.492
616.500	389.788	79.999	19.995	100.821	19.956	11.126	0.479
617.000	390.008	79.999	19.996	100.819	19.953	11.311	0.492
617.500	390.305	79.999	19.995	100.819	19.955	11.169	0.509
618.000	390.532	79.998	19.996	100.818	19.955	11.191	0.520
618.500	390.832	80.000	19.996	100.817	19.959	10.892	0.525
619.000	391.057	80.000	19.998	100.819	19.957	11.037	0.526
619.500	391.292	79.998	19.997	100.820	19.958	10.985	0.493
620.000	391.558	79.999	19.996	100.822	19.960	10.810	0.481
620.500	391.808	79.999	19.996	100.822	19.964	10.601	0.509
621.000	392.077	79.998	19.995	100.823	19.958	10.974	0.517
621.500	392.331	80.000	19.996	100.821	19.961	10.749	0.521
622.000	392.552	79.999	19.995	100.820	19.962	10.713	0.499
622.500	392.811	80.000	19.996	100.818	19.962	10.729	0.478
623.000	393.081	80.000	19.996	100.817	19.966	10.451	0.505
623.500	393.309	80.000	19.997	100.816	19.962	10.718	0.513
624.000	393.567	80.000	19.996	100.816	19.966	10.437	0.492
624.500	393.845	79.999	19.995	100.815	19.966	10.410	0.511
625.000	394.101	80.000	19.996	100.815	19.965	10.496	0.535
625.500	394.349	79.999	19.995	100.815	19.966	10.446	0.519
626.000	394.555	79.999	19.996	100.815	19.963	10.668	0.479
626.500	394.881	79.999	19.995	100.815	19.971	10.115	0.493
627.000	395.121	80.001	19.996	100.816	19.969	10.240	0.549
627.500	395.357	80.000	19.997	100.816	19.969	10.269	0.521
628.000	395.588	79.999	19.996	100.816	19.969	10.242	0.471
628.500	395.862	79.999	19.996	100.816	19.967	10.396	0.485
629.000	396.150	79.999	19.997	100.816	19.971	10.121	0.534
629.500	396.380	80.000	19.996	100.816	19.968	10.301	0.541
630.000	396.664	79.998	19.997	100.819	19.972	10.026	0.517
630.500	396.910	80.001	19.997	100.818	19.972	10.024	0.522
631.000	397.175	79.999	19.996	100.818	19.974	9.924	0.520
631.500	397.372	79.999	19.997	100.818	19.976	9.779	0.486
632.000	397.637	80.000	19.997	100.817	19.972	10.056	0.462
632.500	397.882	79.999	19.996	100.814	19.971	10.099	0.486
633.000	398.150	80.002	19.997	100.814	19.975	9.820	0.511
633.500	398.406	80.000	19.997	100.813	19.972	10.071	0.519
634.000	398.621	80.000	19.996	100.813	19.973	9.980	0.498
634.500	398.888	80.001	19.996	100.813	19.976	9.808	0.476
635.000	399.130	80.000	19.996	100.812	19.973	9.947	0.495
635.500	399.408	80.000	19.996	100.813	19.979	9.573	0.515
636.000	399.672	80.000	19.997	100.812	19.978	9.649	0.531
636.500	399.883	80.001	19.998	100.812	19.980	9.523	0.508
637.000	400.177	80.000	19.997	100.812	19.975	9.831	0.490
637.500	400.436	80.000	19.996	100.812	19.975	9.865	0.529
638.000	400.689	80.001	19.997	100.812	19.977	9.682	0.532
638.500	400.926	80.001	19.996	100.813	19.977	9.736	0.501
639.000	401.166	80.000	19.997	100.813	19.973	10.008	0.483
639.500	401.417	80.000	19.996	100.813	19.975	9.865	0.484
640.000	401.682	79.999	19.996	100.813	19.978	9.652	0.503
640.500	401.949	80.000	19.996	100.813	19.978	9.636	0.524
641.000	402.208	80.000	19.996	100.813	19.977	9.733	0.529
641.500	402.443	80.000	19.996	100.813	19.979	9.561	0.510
642.000	402.708	79.998	19.997	100.813	19.975	9.836	0.497
642.500	402.955	79.999	19.997	100.813	19.979	9.600	0.506
643.000	403.185	79.998	19.995	100.814	19.983	9.291	0.495
643.500	403.438	79.998	19.996	100.815	19.983	9.319	0.480
644.000	403.711	80.000	19.995	100.815	19.979	9.550	0.505
644.500	403.982	79.999	19.996	100.816	19.983	9.344	0.535
645.000	404.195	79.998	19.996	100.816	19.981	9.468	0.514
645.500	404.454	80.000	19.996	100.816	19.979	9.591	0.478
646.000	404.665	79.999	19.995	100.815	19.977	9.717	0.471
646.500	404.957	79.998	19.996	100.815	19.980	9.482	0.486
647.000	405.199	80.000	19.996	100.816	19.984	9.279	0.519
647.500	405.450	79.998	19.995	100.816	19.980	9.517	0.514
648.000	405.687	80.000	19.996	100.816	19.980	9.535	0.491
648.500	405.939	80.001	19.997	100.815	19.980	9.504	0.488
649.000	406.168	79.998	19.996	100.815	19.976	9.799	0.485
649.500	406.436	79.999	19.995	100.814	19.978	9.678	0.489
650.000	406.677	79.999	19.996	100.814	19.979	9.579	0.503
650.500	406.954	80.000	19.996	100.815	19.977	9.726	0.513
651.000	407.193	79.999	19.997	100.816	19.980	9.484	0.517
651.500	407.446	80.000	19.995	100.816	19.985	9.160	0.504
652.000	407.697	79.998	19.996	100.816	19.980	9.482	0.498
652.500	407.927	79.998	19.995	100.816	19.982	9.405	0.493
653.000	408.199	79.998	19.995	100.816	19.979	9.568	0.491
653.500	408.457	79.999	19.997	100.816	19.981	9.428	0.516
654.000	408.697	79.999	19.996	100.816	19.982	9.382	0.513
654.500	408.959	79.999	19.997	100.816	19.979	9.555	0.500
655.000	409.231	79.999	19.994	100.816	19.984	9.226	0.519
655.500	409.462	80.000	19.996	100.815	19.981	9.462	0.519
656.000	409.713	79.998	19.997	100.815	19.982	9.387	0.492
656.500	409.966	80.001	19.996	100.816	19.982	9.394	0.492
657.000	410.197	79.999	19.995	100.817	19.980	9.498	0.494
657.500	410.445	79.998	19.995	100.819	19.987	9.056	0.482
658.000	410.731	79.999	19.995	100.821	19.990	8.867	0.507
658.500	410.986	79.999	19.996	100.824	19.985	9.189	0.538
659.000	411.242	79.999	19.996	100.824	19.983	9.310	0.526
659.500	411.452	79.998	19.996	100.824	19.988	8.952	0.488
660.000	411.710	79.998	19.994	100.823	19.987	9.028	0.467
660.500	411.966	79.999	19.995	100.822	19.983	9.285	0.491
661.000	412.210	79.999	19.996	100.819	19.990	8.840	0.507
661.500	412.471	79.997	19.995	100.819	19.986	9.144	0.502
662.000	412.697	80.000	19.997	100.819	19.987	9.053	0.496
662.500	412.949	79.999	19.995	100.818	19.987	9.031	0.483
663.000	413.200	79.998	19.995	100.818	19.992	8.738	0.490
663.500	413.454	79.999	19.995	100.817	19.986	9.087	0.504
664.000	413.669	80.000	19.996	100.814	19.989	8.940	0.487
664.500	413.936	79.999	19.995	100.814	19.992	8.733	0.475
665.000	414.166	80.000	19.994	100.813	19.991	8.813	0.489
665.500	414.447	79.999	19.996	100.811	19.991	8.811	0.504
666.000	414.650	80.000	19.995	100.811	19.989	8.903	0.498
666.500	414.902	80.001	19.996	100.812	19.990	8.872	0.469
667.000	415.181	80.000	19.996	100.811	19.994	8.589	0.493
667.500	415.411	80.000	19.996	100.812	19.994	8.614	0.520
668.000	415.659	79.998	19.996	100.815	19.995	8.505	0.493
668.500	415.902	80.000	19.995	100.814	19.995	8.507	0.484
669.000	416.151	79.999	19.996	100.815	19.994	8.584	0.492
669.500	416.454	79.999	19.994	100.816	19.992	8.745	0.523
670.000	416.646	79.999	19.996	100.815	19.991	8.806	0.524
670.500	416.915	79.998	19.995	100.813	19.993	8.645	0.478
671.000	417.179	79.998	19.996	100.815	19.992	8.747	0.497
671.500	417.454	79.999	19.997	100.815	19.995	8.525	0.536
672.000	417.662	79.998	19.996	100.816	19.996	8.434	0.511
672.500	417.950	79.999	19.995	100.817	19.999	8.282	0.489
673.000	418.205	79.997	19.995	100.819	19.993	8.659	0.520
673.500	418.437	79.999	19.996	100.818	19.997	8.359	0.515
674.000	418.699	79.997	19.994	100.819	19.999	8.235	0.490
674.500	418.917	79.999	19.997	100.819	19.998	8.344	0.487
675.000	419.197	79.996	19.996	100.816	20.002	8.088	0.490
675.500	419.460	79.998	19.995	100.816	19.998	8.308	0.521
676.000	419.697	79.999	19.995	100.817	20.001	8.147	0.521
676.500	419.954	79.999	19.996	100.817	20.001	8.102	0.497
677.000	420.248	79.999	19.995	100.817	20.001	8.129	0.522
677.500	420.471	80.000	19.994	100.817	19.999	8.279	0.534
678.000	420.729	79.998	19.995	100.816	20.005	7.873	0.499
678.500	421.023	79.998	19.996	100.816	20.007	7.702	0.516
679.000	421.235	79.998	19.995	100.817	20.006	7.791	0.529
679.500	421.490	79.999	19.996	100.817	20.008	7.682	0.487
680.000	421.743	79.997	19.995	100.819	20.010	7.535	0.487
680.500	422.002	79.999	19.996	100.821	20.004	7.923	0.510
681.000	422.267	79.997	19.994	100.821	20.013	7.295	0.518
681.500	422.486	80.000	19.996	100.819	20.009	7.562	0.504
682.000	422.783	80.000	19.995	100.818	20.010	7.508	0.500
682.500	423.026	79.999	19.995	100.818	20.010	7.545	0.528
683.000	423.268	79.997	19.995	100.818	20.010	7.503	0.512
683.500	423.524	79.998	19.995	100.817	20.010	7.531	0.492
684.000	423.781	80.000	19.995	100.817	20.011	7.478	0.506
684.500	424.038	80.001	19.995	100.817	20.006	7.811	0.513
685.000	424.239	79.998	19.995	100.816	20.008	7.652	0.485
685.500	424.530	79.998	19.995	100.812	20.008	7.689	0.475
686.000	424.786	80.003	19.996	100.811	20.012	7.403	0.520
686.500	425.046	80.000	19.995	100.811	20.013	7.340	0.531
687.000	425.294	79.999	19.996	100.809	20.009	7.583	0.511
687.500	425.581	80.000	19.995	100.806	20.011	7.427	0.521
688.000	425.816	79.999	19.996	100.809	20.010	7.504	0.529
688.500	426.052	80.000	19.997	100.811	20.007	7.733	0.497
689.000	426.382	80.000	19.996	100.811	20.006	7.789	0.519
689.500	426.591	80.000	19.996	100.812	20.010	7.547	0.553
690.000	426.897	80.001	19.996	100.814	20.009	7.619	0.527
690.500	427.089	80.002	19.997	100.812	20.013	7.307	0.506
691.000	427.376	80.000	19.996	100.811	20.013	7.316	0.488
691.500	427.639	80.001	19.995	100.809	20.016	7.131	0.515
692.000	427.876	79.999	19.996	100.808	20.013	7.307	0.525
692.500	428.131	80.001	19.996	100.805	20.016	7.155	0.496
693.000	428.438	80.001	19.996	100.802	20.018	6.987	0.527
693.500	428.673	80.000	19.995	100.802	20.015	7.205	0.552
694.000	428.931	80.000	19.996	100.805	20.016	7.127	0.517
694.500	429.172	79.999	19.997	100.806	20.013	7.313	0.496
695.000	429.433	80.002	19.996	100.809	20.015	7.182	0.500
695.500	429.725	80.000	19.995	100.814	20.015	7.177	0.528
696.000	429.932	79.999	19.997	100.814	20.018	7.010	0.526
696.500	430.190	79.999	19.995	100.814	20.018	7.005	0.482
697.000	430.447	80.000	19.996	100.814	20.020	6.892	0.490
697.500	430.691	80.000	19.997	100.811	20.016	7.120	0.508
698.000	430.937	80.000	19.997	100.806	20.013	7.333	0.495
698.500	431.203	80.000	19.995	100.801	20.016	7.134	0.501
699.000	431.465	80.001	19.996	100.800	20.013	7.313	0.520
699.500	431.710	79.999	19.996	100.800	20.019	6.957	0.518
700.000	431.995	79.999	19.996	100.802	20.021	6.805	0.519
700.500	432.210	79.998	19.996	100.807	20.018	6.998	0.515
701.000	432.470	79.998	19.995	100.806	20.022	6.760	0.487
701.500	432.705	79.998	19.997	100.799	20.024	6.604	0.485
702.000	432.968	79.999	19.997	100.796	20.025	6.560	0.496
702.500	433.194	80.000	19.995	100.792	20.019	6.919	0.493
703.000	433.492	80.000	19.996	100.791	20.021	6.807	0.507
703.500	433.730	79.999	19.997	100.795	20.026	6.461	0.530
704.000	434.033	79.999	19.995	100.798	20.025	6.520	0.539
704.500	434.244	80.000	19.996	100.800	20.023	6.660	0.528
705.000	434.521	80.001	19.997	100.804	20.029	6.277	0.501
705.500	434.780	80.002	19.995	100.803	20.024	6.628	0.512
706.000	434.996	80.000	19.996	100.797	20.026	6.499	0.505
706.500	435.274	80.001	19.996	100.800	20.030	6.224	0.485
707.000	435.519	80.001	19.996	100.800	20.027	6.424	0.509
707.500	435.793	80.001	19.995	100.798	20.028	6.367	0.521
708.000	436.040	80.001	19.996	100.799	20.030	6.211	0.520
708.500	436.296	80.000	19.996	100.805	20.028	6.354	0.512
709.000	436.539	80.002	19.997	100.805	20.022	6.725	0.501
709.500	436.813	80.003	19.996	100.805	20.028	6.317	0.508
710.000	437.074	80.000	19.996	100.807	20.029	6.249	0.526
710.500	437.309	80.001	19.995	100.807	20.026	6.440	0.516
711.000	437.557	80.001	19.996	100.804	20.024	6.584	0.489
711.500	437.790	80.002	19.995	100.803	20.029	6.245	0.481
712.000	438.018	80.001	19.995	100.803	20.027	6.383	0.471
712.500	438.297	80.001	19.996	100.802	20.027	6.377	0.484
713.000	438.525	80.000	19.995	100.802	20.026	6.467	0.507
713.500	438.785	80.002	19.996	100.805	20.029	6.298	0.497
714.000	439.023	80.002	19.995	100.806	20.026	6.463	0.493
714.500	439.288	80.003	19.996	100.802	20.030	6.191	0.501
715.000	439.556	80.002	19.996	100.799	20.030	6.179	0.518
715.500	439.824	80.001	19.995	100.802	20.032	6.082	0.534
716.000	440.085	80.003	19.996	100.802	20.030	6.225	0.533
716.500	440.311	80.000	19.995	100.803	20.030	6.198	0.509
717.000	440.568	80.000	19.996	100.807	20.029	6.242	0.485
717.500	440.831	80.000	19.996	100.811	20.032	6.071	0.501
718.000	441.103	80.000	19.996	100.810	20.030	6.171	0.528
718.500	441.354	80.000	19.996	100.809	20.032	6.064	0.529
719.000	441.593	80.001	19.996	100.807	20.027	6.425	0.507
719.500	441.853	80.001	19.996	100.807	20.028	6.363	0.494
720.000	442.077	79.999	19.998	100.808	20.028	6.318	0.491
720.500	442.376	80.000	19.995	100.809	20.028	6.366	0.503
721.000	442.615	79.999	19.996	100.810	20.031	6.103	0.531
721.500	442.870	79.999	19.997	100.812	20.035	5.845	0.516
722.000	443.113	80.000	19.997	100.813	20.031	6.164	0.496
722.500	443.353	80.000	19.996	100.811	20.032	6.098	0.491
723.000	443.630	79.999	19.996	100.807	20.033	5.992	0.500
723.500	443.869	79.997	19.997	100.805	20.034	5.906	0.516
724.000	444.110	80.000	19.997	100.803	20.031	6.143	0.498
724.500	444.346	79.997	19.997	100.799	20.030	6.221	0.479
725.000	444.613	79.997	19.996	100.800	20.032	6.071	0.490
725.500	444.843	79.998	19.997	100.801	20.031	6.134	0.500
726.000	445.059	79.997	19.997	100.800	20.029	6.263	0.471
726.500	445.332	79.999	19.997	100.796	20.029	6.257	0.468
727.000	445.625	79.998	19.998	100.796	20.033	6.025	0.528
727.500	445.876	79.996	19.996	100.795	20.031	6.143	0.555
728.000	446.135	79.997	19.996	100.793	20.035	5.873	0.527
728.500	446.359	79.998	19.996	100.790	20.033	6.000	0.496
729.000	446.608	79.997	19.998	100.791	20.031	6.118	0.478
729.500	446.869	79.998	19.998	100.793	20.033	6.020	0.491
730.000	447.120	79.998	19.997	100.795	20.034	5.927	0.511
730.500	447.358	79.997	19.997	100.799	20.037	5.707	0.501
731.000	447.628	79.999	19.996	100.800	20.034	5.950	0.499
731.500	447.862	79.997	19.996	100.801	20.035	5.868	0.506
732.000	448.107	79.999	19.996	100.797	20.039	5.601	0.492
732.500	448.327	79.998	19.997	100.794	20.040	5.561	0.472
733.000	448.609	79.997	19.996	100.793	20.033	5.989	0.483
733.500	448.830	79.998	19.996	100.794	20.038	5.668	0.503
734.000	449.099	79.998	19.996	100.793	20.038	5.654	0.496
734.500	449.354	79.999	19.997	100.795	20.033	5.983	0.507
735.000	449.644	79.999	19.996	100.798	20.035	5.893	0.535
735.500	449.876	79.999	19.997	100.797	20.038	5.648	0.534
736.000	450.101	80.000	19.996	100.797	20.039	5.622	0.489
736.500	450.330	79.999	19.996	100.798	20.037	5.706	0.455
737.000	450.651	79.999	19.996	100.803	20.039	5.582	0.502
737.500	450.867	80.001	19.997	100.805	20.041	5.441	0.544
738.000	451.142	79.999	19.996	100.805	20.042	5.391	0.514
738.500	451.407	79.999	19.995	100.809	20.041	5.446	0.515
739.000	451.645	80.000	19.995	100.812	20.037	5.769	0.521
739.500	451.901	79.995	19.996	100.810	20.037	5.753	0.498
740.000	452.169	79.999	19.996	100.810	20.043	5.318	0.509
740.500	452.397	79.999	19.997	100.813	20.039	5.633	0.510
741.000	452.686	79.999	19.995	100.815	20.044	5.250	0.506
741.500	452.917	79.997	19.995	100.813	20.039	5.581	0.518
742.000	453.159	80.000	19.996	100.812	20.042	5.417	0.496
742.500	453.412	79.999	19.996	100.807	20.044	5.279	0.484
743.000	453.658	80.000	19.997	100.803	20.038	5.646	0.497
743.500	453.910	79.999	19.997	100.799	20.039	5.628	0.499
744.000	454.191	80.000	19.995	100.795	20.044	5.300	0.515
744.500	454.428	79.999	19.997	100.790	20.041	5.481	0.526
745.000	454.707	79.997	19.995	100.787	20.041	5.494	0.517
745.500	454.969	79.999	19.996	100.786	20.046	5.125	0.528
746.000	455.217	79.999	19.996	100.787	20.045	5.186	0.525
746.500	455.447	79.998	19.996	100.789	20.042	5.429	0.494
747.000	455.743	79.998	19.995	100.789	20.048	5.038	0.502
747.500	455.969	79.999	19.995	100.790	20.049	4.975	0.524
748.000	456.270	79.999	19.996	100.789	20.044	5.293	0.524
748.500	456.506	79.997	19.996	100.786	20.042	5.382	0.532
749.000	456.768	80.000	19.996	100.789	20.042	5.384	0.518
749.500	457.021	79.999	19.997	100.792	20.046	5.170	0.507
750.000	457.243	79.998	19.997	100.795	20.048	5.031	0.495
750.500	457.512	79.998	19.997	100.798	20.048	5.038	0.483
751.000	457.760	79.999	19.996	100.802	20.044	5.263	0.504
751.500	458.054	79.998	19.995	100.803	20.046	5.165	0.530
752.000	458.298	80.000	19.997	100.802	20.042	5.392	0.540
752.500	458.539	79.999	19.997	100.804	20.047	5.059	0.512
753.000	458.789	79.999	19.997	100.805	20.048	4.999	0.488
753.500	459.023	79.999	19.996	100.806	20.048	5.009	0.488
754.000	459.339	79.999	19.996	100.802	20.050	4.900	0.517
754.500	459.593	79.998	19.997	100.806	20.046	5.117	0.560
755.000	459.846	79.997	19.997	100.806	20.047	5.079	0.538
755.500	460.093	79.999	19.996	100.804	20.051	4.805	0.503
756.000	460.342	80.001	19.998	100.805	20.045	5.211	0.498
756.500	460.574	80.000	19.996	100.809	20.050	4.906	0.488
757.000	460.851	79.997	19.997	100.805	20.049	4.936	0.495
757.500	461.083	80.000	19.996	100.806	20.046	5.154	0.509
758.000	461.351	79.998	19.996	100.806	20.041	5.441	0.504
758.500	461.600	79.998	19.995	100.801	20.047	5.086	0.508
759.000	461.832	79.999	19.996	100.796	20.044	5.288	0.499
759.500	462.116	80.001	19.996	100.792	20.044	5.253	0.499
760.000	462.362	79.998	19.997	100.785	20.043	5.353	0.523
760.500	462.637	79.998	19.995	100.781	20.047	5.061	0.526
761.000	462.906	80.000	19.997	100.778	20.043	5.335	0.532
761.500	463.136	80.001	19.996	100.777	20.047	5.052	0.521
762.000	463.379	79.999	19.996	100.778	20.045	5.226	0.486
762.500	463.645	79.998	19.995	100.778	20.042	5.376	0.492
763.000	463.872	79.999	19.996	100.778	20.035	5.869	0.501
763.500	464.140	80.000	19.996	100.778	20.043	5.328	0.494
764.000	464.387	80.000	19.995	100.778	20.040	5.535	0.505
764.500	464.617	80.000	19.995	100.777	20.042	5.432	0.496
765.000	464.859	80.000	19.995	100.777	20.042	5.437	0.475
765.500	465.118	80.000	19.997	100.777	20.042	5.433	0.487
766.000	465.387	80.000	19.995	100.777	20.041	5.485	0.515
766.500	465.677	80.002	19.995	100.777	20.043	5.367	0.543
767.000	465.939	80.002	19.996	100.777	20.046	5.163	0.555
767.500	466.156	80.001	19.996	100.778	20.039	5.603	0.515
768.000	466.433	80.000	19.995	100.780	20.043	5.373	0.486
768.500	466.713	80.000	19.995	100.782	20.036	5.789	0.525
769.000	466.940	80.001	19.995	100.782	20.043	5.367	0.532
769.500	467.222	80.001	19.996	100.782	20.044	5.267	0.508
770.000	467.496	80.000	19.995	100.781	20.043	5.337	0.532
770.500	467.705	80.001	19.995	100.779	20.045	5.203	0.520
771.000	467.952	80.001	19.995	100.778	20.041	5.473	0.470
771.500	468.197	80.002	19.996	100.778	20.036	5.808	0.474
772.000	468.459	80.000	19.995	100.778	20.038	5.652	0.499
772.500	468.734	80.001	19.996	100.779	20.038	5.695	0.522
773.000	468.992	80.001	19.996	100.779	20.037	5.731	0.535
773.500	469.224	80.000	19.995	100.777	20.039	5.580	0.511
774.000	469.486	80.000	19.995	100.777	20.042	5.421	0.492
774.500	469.719	80.000	19.995	100.778	20.041	5.473	0.495
775.000	470.001	80.002	19.995	100.780	20.043	5.373	0.505
775.500	470.266	80.003	19.997	100.782	20.042	5.426	0.530
776.000	470.550	80.001	19.996	100.783	20.042	5.419	0.548
776.500	470.765	80.001	19.996	100.783	20.037	5.762	0.525
777.000	471.058	79.998	19.995	100.786	20.039	5.618	0.504
777.500	471.287	80.001	19.996	100.783	20.045	5.235	0.515
778.000	471.563	79.999	19.996	100.782	20.045	5.235	0.514
778.500	471.832	80.002	19.996	100.780	20.050	4.894	0.525
779.000	472.063	79.998	19.995	100.782	20.044	5.269	0.522
779.500	472.322	80.000	19.996	100.780	20.046	5.169	0.495
780.000	472.554	80.000	19.996	100.781	20.040	5.534	0.490
780.500	472.813	80.001	19.996	100.782	20.041	5.481	0.492
781.000	473.100	80.000	19.997	100.783	20.044	5.266	0.519
781.500	473.378	79.999	19.995	100.782	20.050	4.878	0.555
782.000	473.630	80.001	19.995	100.786	20.046	5.125	0.547
782.500	473.904	79.999	19.996	100.789	20.049	4.921	0.528
783.000	474.169	79.999	19.996	100.788	20.053	4.681	0.532
783.500	474.398	80.000	19.996	100.789	20.050	4.847	0.516
784.000	474.672	80.000	19.997	100.789	20.057	4.415	0.499
784.500	474.938	80.001	19.997	100.784	20.046	5.123	0.522
785.000	475.208	79.999	19.996	100.782	20.052	4.715	0.538
785.500	475.467	79.999	19.995	100.782	20.052	4.761	0.532
786.000	475.693	79.999	19.995	100.783	20.052	4.748	0.507
786.500	475.941	79.999	19.995	100.782	20.052	4.757	0.480
787.000	476.228	79.998	19.995	100.781	20.046	5.108	0.505
787.500	476.477	79.999	19.995	100.782	20.058	4.332	0.535
788.000	476.730	79.999	19.996	100.781	20.048	4.993	0.519
788.500	476.971	79.998	19.996	100.782	20.058	4.318	0.498
789.000	477.218	80.001	19.997	100.787	20.055	4.541	0.491
789.500	477.512	80.002	19.996	100.793	20.060	4.205	0.514
790.000	477.733	80.001	19.996	100.793	20.058	4.373	0.528
790.500	478.039	80.001	19.996	100.795	20.055	4.522	0.522
791.000	478.251	79.998	19.995	100.797	20.056	4.486	0.522
791.500	478.529	79.999	19.996	100.797	20.055	4.541	0.504
792.000	478.766	80.002	19.997	100.796	20.058	4.334	0.503
792.500	479.005	80.001	19.997	100.796	20.059	4.259	0.495
793.000	479.284	80.002	19.997	100.794	20.059	4.298	0.497
793.500	479.561	80.000	19.996	100.791	20.056	4.511	0.538
794.000	479.786	80.001	19.994	100.793	20.055	4.531	0.529
794.500	480.056	80.000	19.995	100.795	20.059	4.266	0.498
795.000	480.345	80.001	19.996	100.794	20.059	4.309	0.527
795.500	480.587	80.001	19.997	100.793	20.058	4.341	0.545
796.000	480.806	80.002	19.996	100.793	20.053	4.683	0.496
796.500	481.103	80.001	19.995	100.787	20.057	4.425	0.488
797.000	481.342	80.001	19.997	100.780	20.053	4.649	0.526
797.500	481.613	80.001	19.997	100.780	20.053	4.649	0.523
798.000	481.903	80.000	19.996	100.783	20.056	4.488	0.536
798.500	482.150	80.001	19.996	100.782	20.056	4.467	0.549
799.000	482.406	80.001	19.995	100.783	20.057	4.431	0.520
799.500	482.643	80.000	19.996	100.786	20.057	4.393	0.498
800.000	482.924	80.001	19.997	100.789	20.056	4.468	0.505
800.500	483.147	79.999	19.995	100.791	20.057	4.413	0.511
801.000	483.417	79.999	19.997	100.793	20.059	4.280	0.499
801.500	483.659	79.998	19.995	100.794	20.053	4.647	0.502
802.000	483.883	79.997	19.996	100.794	20.061	4.124	0.489
802.500	484.192	79.998	19.998	100.794	20.057	4.443	0.500
803.000	484.487	79.998	19.997	100.795	20.065	3.903	0.569
803.500	484.697	79.998	19.999	100.795	20.060	4.201	0.555
804.000	484.969	79.998	20.000	100.796	20.064	3.964	0.493
804.500	485.230	79.997	19.998	100.797	20.060	4.216	0.507
805.000	485.496	79.997	19.998	100.798	20.060	4.243	0.530
805.500	485.756	79.999	19.998	100.796	20.061	4.118	0.527
806.000	486.011	79.999	19.999	100.795	20.061	4.153	0.521
806.500	486.299	79.999	19.997	100.794	20.061	4.144	0.529
807.000	486.510	79.998	19.999	100.792	20.060	4.212	0.521
807.500	486.787	79.998	19.999	100.792	20.056	4.504	0.494
808.000	487.058	79.999	19.999	100.795	20.064	3.953	0.518
808.500	487.267	79.998	20.000	100.798	20.063	4.001	0.514
809.000	487.544	79.998	19.998	100.802	20.058	4.323	0.483
809.500	487.786	79.997	19.997	100.804	20.064	3.981	0.502
810.000	488.077	79.999	19.999	100.799	20.063	3.992	0.526
810.500	488.317	79.997	20.000	100.798	20.063	4.029	0.532
811.000	488.551	79.998	19.999	100.795	20.062	4.076	0.502
811.500	488.827	79.999	19.996	100.790	20.063	3.996	0.492
812.000	489.083	79.998	19.998	100.786	20.067	3.770	0.522
812.500	489.357	79.999	19.999	100.786	20.060	4.234	0.531
813.000	489.597	79.998	19.998	100.782	20.062	4.066	0.522
813.500	489.859	79.998	19.997	100.784	20.061	4.128	0.508
814.000	490.137	79.996	19.996	100.785	20.062	4.108	0.521
814.500	490.368	79.994	19.997	100.787	20.069	3.640	0.524
815.000	490.649	79.999	19.998	100.793	20.064	3.918	0.511
815.500	490.878	79.998	19.997	100.798	20.070	3.571	0.511
816.000	491.143	79.998	19.998	100.798	20.065	3.886	0.502
816.500	491.363	79.998	19.998	100.796	20.067	3.759	0.489
817.000	491.657	79.997	19.997	100.793	20.065	3.881	0.499
817.500	491.909	79.997	19.997	100.790	20.072	3.434	0.530
818.000	492.167	79.998	19.997	100.789	20.067	3.727	0.528
818.500	492.413	79.997	19.997	100.793	20.066	3.831	0.507
819.000	492.695	79.997	19.996	100.797	20.066	3.827	0.516
819.500	492.972	79.997	19.997	100.797	20.065	3.895	0.544
820.000	493.234	79.996	19.995	100.793	20.070	3.541	0.550
820.500	493.480	79.998	19.997	100.788	20.067	3.724	0.523
821.000	493.706	79.999	19.997	100.780	20.066	3.801	0.490
821.500	494.001	79.998	19.996	100.776	20.073	3.375	0.497
822.000	494.255	80.000	19.997	100.780	20.070	3.538	0.535
822.500	494.543	79.998	19.996	100.785	20.069	3.593	0.546
823.000	494.837	79.999	19.997	100.789	20.070	3.565	0.562
823.500	495.076	79.999	19.998	100.794	20.067	3.740	0.557
824.000	495.341	79.997	19.997	100.798	20.072	3.423	0.518
824.500	495.582	79.998	19.996	100.795	20.070	3.525	0.505
825.000	495.851	79.998	19.996	100.789	20.066	3.793	0.508
825.500	496.109	79.999	19.997	100.783	20.070	3.563	0.518
826.000	496.361	79.999	19.997	100.779	20.068	3.704	0.518
826.500	496.613	79.999	19.997	100.776	20.068	3.688	0.507
827.000	496.874	80.000	19.996	100.776	20.072	3.411	0.509
827.500	497.140	79.999	19.995	100.777	20.069	3.636	0.520
828.000	497.412	80.001	19.997	100.777	20.068	3.682	0.533
828.500	497.665	79.998	19.998	100.777	20.067	3.763	0.531
829.000	497.941	80.000	19.996	100.777	20.066	3.784	0.527
829.500	498.204	79.998	19.996	100.777	20.072	3.430	0.534
830.000	498.469	79.999	19.997	100.779	20.067	3.725	0.534
830.500	498.745	79.996	19.995	100.782	20.069	3.613	0.534
831.000	498.994	80.001	19.999	100.783	20.071	3.470	0.533
831.500	499.261	79.998	19.997	100.784	20.068	3.686	0.520
832.000	499.538	79.996	19.997	100.783	20.069	3.609	0.530
832.500	499.782	79.999	19.998	100.787	20.066	3.833	0.533
833.000	500.040	79.997	19.997	100.788	20.064	3.960	0.511
833.500	500.290	79.996	19.996	100.788	20.065	3.872	0.505
834.000	500.564	79.999	19.998	100.787	20.066	3.820	0.516
834.500	500.776	79.998	20.001	100.787	20.065	3.897	0.505
835.000	501.067	79.998	19.997	100.786	20.065	3.879	0.494
835.500	501.320	79.999	20.000	100.784	20.067	3.754	0.524
836.000	501.564	79.996	19.997	100.783	20.067	3.749	0.521
836.500	501.825	79.999	19.998	100.784	20.063	4.003	0.501
837.000	502.081	79.999	19.996	100.785	20.071	3.495	0.510
837.500	502.304	79.996	19.996	100.781	20.062	4.068	0.498
838.000	502.576	79.998	19.997	100.779	20.065	3.894	0.487
838.500	502.834	80.001	19.997	100.780	20.064	3.953	0.513
839.000	503.142	79.999	19.996	100.779	20.067	3.757	0.549
839.500	503.376	79.997	19.997	100.777	20.066	3.796	0.554
840.000	503.619	79.997	19.996	100.777	20.070	3.556	0.509
840.500	503.863	79.998	19.996	100.777	20.065	3.853	0.481
841.000	504.132	79.998	19.997	100.777	20.068	3.658	0.500
841.500	504.362	79.997	19.997	100.779	20.066	3.790	0.506
842.000	504.618	79.998	19.996	100.783	20.071	3.468	0.493
842.500	504.870	79.997	19.996	100.785	20.072	3.407	0.497
843.000	505.116	79.999	19.996	100.786	20.070	3.547	0.503
843.500	505.369	79.998	19.996	100.785	20.070	3.550	0.499
844.000	505.630	80.001	19.996	100.784	20.070	3.581	0.506
844.500	505.871	80.002	19.995	100.781	20.074	3.294	0.508
845.000	506.125	79.998	19.998	100.781	20.075	3.226	0.499
845.500	506.405	80.000	19.996	100.782	20.075	3.203	0.515
846.000	506.669	79.999	19.996	100.783	20.071	3.486	0.539
846.500	506.895	79.999	19.997	100.783	20.073	3.332	0.517
847.000	507.143	80.000	19.996	100.784	20.071	3.498	0.481
847.500	507.408	79.999	19.996	100.788	20.072	3.400	0.493
848.000	507.625	80.000	19.996	100.790	20.074	3.314	0.498
848.500	507.896	80.000	19.997	100.796	20.070	3.547	0.485
849.000	508.177	80.000	19.996	100.802	20.072	3.416	0.520
849.500	508.389	80.002	19.997	100.803	20.072	3.430	0.523
850.000	508.673	80.000	19.996	100.801	20.070	3.581	0.495
850.500	508.926	80.001	19.996	100.797	20.071	3.488	0.516
851.000	509.165	80.000	19.997	100.792	20.072	3.395	0.514
851.500	509.483	79.999	19.997	100.788	20.074	3.308	0.525
852.000	509.678	79.999	19.997	100.786	20.072	3.426	0.535
852.500	509.945	79.999	19.997	100.786	20.072	3.395	0.487
853.000	510.151	80.001	19.997	100.791	20.072	3.431	0.467
853.500	510.458	80.001	19.998	100.788	20.075	3.227	0.493
854.000	510.673	80.001	19.996	100.786	20.071	3.456	0.518
854.500	510.928	80.000	19.996	100.784	20.071	3.497	0.496
855.000	511.191	80.002	19.997	100.784	20.071	3.461	0.494
855.500	511.416	79.999	19.996	100.780	20.070	3.534	0.503
856.000	511.693	79.998	19.995	100.782	20.069	3.651	0.495
856.500	511.912	80.000	20.000	100.782	20.070	3.529	0.499
857.000	512.186	80.001	19.996	100.782	20.065	3.885	0.494
857.500	512.440	80.001	19.997	100.782	20.069	3.599	0.511
858.000	512.693	80.000	19.996	100.781	20.073	3.363	0.518
858.500	512.948	79.999	19.997	100.781	20.071	3.456	0.507
859.000	513.191	80.001	19.998	100.783	20.068	3.717	0.503
859.500	513.492	80.000	19.997	100.783	20.075	3.239	0.521
860.000	513.752	79.999	19.996	100.785	20.071	3.497	0.553
860.500	513.962	79.999	19.996	100.786	20.071	3.482	0.515
861.000	514.237	80.005	19.994	100.785	20.066	3.806	0.477
861.500	514.520	80.018	20.004	100.786	20.069	3.618	0.522
862.000	514.777	80.019	20.003	100.794	20.078	2.999	0.549
862.500	515.006	80.017	20.003	100.801	20.078	3.039	0.513
863.000	515.286	80.018	20.001	100.801	20.070	3.547	0.497
863.500	515.524	80.014	19.998	100.807	20.074	3.257	0.514
864.000	515.771	80.001	19.998	100.807	20.072	3.439	0.502
864.500	516.030	80.000	19.997	100.800	20.072	3.421	0.495
865.000	516.292	79.999	19.998	100.793	20.074	3.284	0.513
865.500	516.558	79.999	19.997	100.795	20.070	3.541	0.524
866.000	516.806	80.001	19.996	100.791	20.077	3.098	0.521
866.500	517.062	79.998	19.997	100.789	20.070	3.550	0.509
867.000	517.363	79.999	19.996	100.793	20.069	3.590	0.530
867.500	517.603	79.999	19.996	100.796	20.074	3.298	0.549
868.000	517.829	80.000	19.997	100.797	20.071	3.489	0.504
868.500	518.042	79.999	19.997	100.798	20.072	3.436	0.452
869.000	518.313	80.002	19.999	100.802	20.067	3.721	0.461
869.500	518.564	79.997	19.998	100.804	20.071	3.470	0.503
870.000	518.889	80.000	19.998	100.801	20.068	3.653	0.550
870.500	519.111	79.999	19.996	100.796	20.066	3.824	0.561
871.000	519.348	80.001	19.998	100.793	20.069	3.620	0.502
871.500	519.582	80.001	19.997	100.788	20.077	3.089	0.465
872.000	519.853	80.000	19.997	100.782	20.073	3.363	0.488
872.500	520.111	80.000	19.997	100.780	20.069	3.608	0.517
873.000	520.363	80.000	19.996	100.780	20.071	3.511	0.519
873.500	520.608	80.001	19.998	100.782	20.071	3.456	0.503
874.000	520.860	80.004	19.996	100.783	20.066	3.822	0.497
874.500	521.080	80.002	19.996	100.782	20.080	2.869	0.485
875.000	521.340	80.002	19.996	100.781	20.070	3.538	0.476
875.500	521.602	80.001	19.996	100.782	20.070	3.535	0.501
876.000	521.872	80.003	19.998	100.782	20.075	3.241	0.527
876.500	522.164	80.000	19.996	100.786	20.074	3.281	0.547
877.000	522.376	80.001	19.996	100.786	20.076	3.166	0.533
877.500	522.623	80.002	19.997	100.786	20.080	2.905	0.482
878.000	522.895	80.002	19.996	100.785	20.073	3.357	0.489
878.500	523.138	80.021	20.004	100.785	20.076	3.164	0.517
879.000	523.397	80.019	20.003	100.784	20.071	3.462	0.508
879.500	523.656	80.020	20.000	100.790	20.076	3.128	0.509
880.000	523.902	80.019	20.004	100.795	20.069	3.648	0.512
880.500	524.140	80.021	20.000	100.795	20.072	3.441	0.495
881.000	524.438	80.020	20.001	100.794	20.076	3.128	0.510
881.500	524.677	80.020	20.001	100.789	20.065	3.868	0.536
882.000	524.908	80.019	20.001	100.787	20.075	3.219	0.503
882.500	525.181	80.010	20.000	100.789	20.072	3.398	0.486
883.000	525.450	80.010	20.000	100.793	20.073	3.385	0.523
883.500	525.702	80.007	19.997	100.792	20.078	3.049	0.532
884.000	525.894	80.018	20.003	100.793	20.076	3.180	0.482
884.500	526.212	80.017	20.003	100.795	20.073	3.360	0.477
885.000	526.432	80.017	20.001	100.792	20.073	3.335	0.524
885.500	526.696	80.018	20.002	100.788	20.076	3.133	0.511
886.000	526.938	80.018	20.002	100.792	20.070	3.554	0.495
886.500	527.213	80.018	20.004	100.797	20.074	3.260	0.512
887.000	527.456	80.016	20.004	100.798	20.075	3.201	0.518
887.500	527.707	80.018	20.003	100.802	20.070	3.529	0.506
888.000	527.973	80.019	20.002	100.806	20.075	3.209	0.505
888.500	528.184	80.018	20.003	100.801	20.076	3.153	0.497
889.000	528.473	80.018	20.001	100.795	20.070	3.541	0.489
889.500	528.743	80.017	20.004	100.789	20.074	3.318	0.529
890.000	528.981	80.019	20.003	100.781	20.075	3.241	0.533
890.500	529.245	80.017	20.003	100.777	20.076	3.155	0.505
891.000	529.486	80.020	20.003	100.779	20.073	3.359	0.504
891.500	529.756	80.014	20.000	100.780	20.069	3.616	0.508
892.000	530.021	80.003	20.001	100.781	20.071	3.466	0.523
892.500	530.274	80.002	19.999	100.782	20.070	3.561	0.526
893.000	530.476	79.997	19.998	100.781	20.073	3.352	0.487
893.500	530.757	79.999	19.998	100.779	20.071	3.477	0.469
894.000	530.954	79.998	19.998	100.778	20.074	3.298	0.480
894.500	531.256	79.999	19.999	100.777	20.076	3.159	0.488
895.000	531.525	80.000	20.000	100.780	20.067	3.774	0.535
895.500	531.760	80.001	19.997	100.780	20.073	3.355	0.538
896.000	532.043	79.998	19.998	100.780	20.073	3.380	0.511
896.500	532.309	79.998	19.996	100.779	20.071	3.477	0.533
897.000	532.513	80.000	19.999	100.778	20.074	3.262	0.510
897.500	532.775	80.004	20.001	100.779	20.079	2.978	0.468
898.000	533.052	80.000	20.001	100.785	20.075	3.248	0.502
898.500	533.297	79.999	20.000	100.788	20.077	3.072	0.530
899.000	533.532	79.999	20.001	100.788	20.072	3.391	0.501
899.500	533.821	80.000	20.001	100.789	20.075	3.239	0.502
900.000	534.017	79.996	19.998	100.785	20.081	2.802	0.505
900.500	534.302	79.998	19.998	100.779	20.070	3.577	0.483
901.000	534.553	79.998	19.998	100.777	20.078	3.040	0.508
901.500	534.810	79.997	19.996	100.777	20.072	3.436	0.522
902.000	535.029	80.003	20.000	100.777	20.075	3.234	0.492
902.500	535.318	80.001	20.000	100.780	20.071	3.502	0.492
903.000	535.569	79.995	20.001	100.782	20.080	2.863	0.524
903.500	535.837	79.999	20.000	100.783	20.070	3.531	0.530
904.000	536.096	80.004	19.999	100.786	20.077	3.071	0.523
904.500	536.356	80.020	20.005	100.790	20.074	3.297	0.523
905.000	536.583	80.019	20.003	100.794	20.079	2.976	0.503
905.500	536.831	80.017	20.003	100.795	20.076	3.166	0.481
906.000	537.106	80.009	20.001	100.794	20.073	3.366	0.499
906.500	537.348	80.005	20.001	100.791	20.077	3.112	0.520
907.000	537.611	80.000	20.002	100.786	20.077	3.080	0.511
907.500	537.872	79.999	20.000	100.779	20.075	3.205	0.515
908.000	538.131	79.995	19.998	100.776	20.074	3.287	0.522
908.500	538.385	79.996	20.001	100.776	20.075	3.251	0.517
909.000	538.581	79.997	19.999	100.777	20.074	3.255	0.482
909.500	538.876	80.001	20.003	100.778	20.072	3.446	0.470
910.000	539.121	79.998	20.000	100.778	20.072	3.396	0.515
910.500	539.390	79.998	20.001	100.778	20.076	3.137	0.527
911.000	539.653	79.995	19.999	100.779	20.077	3.067	0.523
911.500	539.918	79.997	20.002	100.780	20.080	2.858	0.530
912.000	540.176	79.998	20.001	100.782	20.076	3.137	0.526
912.500	540.426	79.997	20.000	100.782	20.076	3.157	0.516
913.000	540.677	79.999	19.999	100.782	20.075	3.251	0.505
913.500	540.929	79.997	19.999	100.784	20.077	3.065	0.502
914.000	541.194	79.999	20.002	100.787	20.078	3.019	0.510
914.500	541.450	79.997	20.001	100.787	20.081	2.801	0.519
915.000	541.684	79.998	20.001	100.789	20.073	3.360	0.505
915.500	541.962	80.004	20.004	100.793	20.078	3.021	0.501
916.000	542.227	79.998	20.003	100.795	20.079	2.928	0.528
916.500	542.495	79.997	20.001	100.797	20.076	3.141	0.538
917.000	542.718	79.998	20.001	100.796	20.077	3.108	0.512
917.500	542.994	79.996	19.999	100.795	20.078	3.048	0.496
918.000	543.242	79.999	19.998	100.792	20.078	3.006	0.512
918.500	543.473	79.999	19.997	100.786	20.074	3.285	0.501
919.000	543.742	80.000	19.998	100.781	20.078	3.028	0.489
919.500	543.976	79.997	19.997	100.780	20.078	3.014	0.501
920.000	544.223	79.998	19.998	100.779	20.077	3.114	0.492
920.500	544.499	79.997	19.998	100.779	20.075	3.217	0.503
921.000	544.752	79.997	19.998	100.779	20.074	3.255	0.526
921.500	544.965	79.998	19.997	100.780	20.078	3.014	0.497
922.000	545.247	80.001	19.997	100.781	20.080	2.867	0.480
922.500	545.506	79.998	19.996	100.781	20.077	3.057	0.518
923.000	545.759	80.000	19.994	100.781	20.077	3.071	0.527
923.500	546.002	79.997	19.996	100.780	20.077	3.080	0.504
924.000	546.280	79.998	19.996	100.779	20.083	2.661	0.508
924.500	546.522	79.999	19.996	100.779	20.079	2.980	0.521
925.000	546.782	79.998	19.997	100.778	20.081	2.829	0.512
925.500	547.052	79.997	19.996	100.778	20.079	2.981	0.516
926.000	547.317	79.999	19.997	100.779	20.080	2.895	0.532
926.500	547.572	79.997	19.996	100.779	20.080	2.883	0.528
927.000	547.785	79.998	19.996	100.780	20.077	3.103	0.494
927.500	548.058	79.999	19.996	100.782	20.079	2.969	0.476
928.000	548.335	79.997	19.997	100.782	20.079	2.985	0.518
928.500	548.602	80.000	19.996	100.782	20.076	3.148	0.547
929.000	548.817	79.998	19.995	100.782	20.080	2.906	0.513
929.500	549.109	79.998	19.997	100.781	20.079	2.974	0.494
930.000	549.354	79.999	19.997	100.780	20.081	2.803	0.522
930.500	549.599	80.001	19.997	100.780	20.082	2.770	0.513
931.000	549.857	79.997	19.996	100.780	20.077	3.103	0.497
931.500	550.114	79.999	19.996	100.781	20.081	2.835	0.509
932.000	550.369	80.000	19.996	100.783	20.080	2.858	0.513
932.500	550.639	79.998	19.995	100.783	20.082	2.736	0.519
933.000	550.906	80.000	19.997	100.785	20.081	2.842	0.531
933.500	551.180	79.999	19.996	100.785	20.081	2.792	0.539
934.000	551.400	79.998	19.997	100.784	20.081	2.836	0.518
934.500	551.666	80.001	19.995	100.784	20.081	2.808	0.490
935.000	551.903	80.000	19.997	100.783	20.081	2.856	0.495
935.500	552.149	79.999	19.995	100.781	20.076	3.142	0.493
936.000	552.449	80.001	19.996	100.780	20.079	2.940	0.514
936.500	552.689	80.000	19.995	100.780	20.087	2.457	0.543
937.000	552.957	80.000	19.995	100.779	20.078	3.053	0.524
937.500	553.195	79.999	19.995	100.779	20.080	2.868	0.506
938.000	553.514	79.999	19.995	100.779	20.077	3.085	0.531
938.500	553.743	79.999	19.995	100.783	20.077	3.063	0.553
939.000	554.025	79.999	19.996	100.785	20.079	2.931	0.530
939.500	554.286	80.000	19.996	100.785	20.080	2.920	0.527
940.000	554.544	80.002	19.997	100.784	20.080	2.879	0.530
940.500	554.801	80.000	19.996	100.784	20.078	3.015	0.517
941.000	555.034	79.999	19.996	100.780	20.077	3.087	0.503
941.500	555.333	80.001	19.996	100.778	20.078	3.037	0.511
942.000	555.581	80.001	19.995	100.777	20.078	3.055	0.540
942.500	555.838	80.001	19.995	100.776	20.075	3.192	0.526
943.000	556.104	79.999	19.996	100.774	20.076	3.144	0.514
943.500	556.339	79.995	19.996	100.774	20.074	3.314	0.512
944.000	556.584	79.999	19.996	100.774	20.077	3.076	0.490
944.500	556.856	79.999	19.998	100.773	20.077	3.088	0.498
945.000	557.099	80.002	19.996	100.773	20.076	3.176	0.516
945.500	557.337	80.000	19.996	100.774	20.078	3.042	0.498
946.000	557.612	79.999	19.995	100.774	20.079	2.983	0.497
946.500	557.877	79.998	19.995	100.773	20.074	3.307	0.526
947.000	558.159	79.999	19.996	100.773	20.078	3.040	0.543
947.500	558.415	79.999	19.997	100.772	20.076	3.147	0.543
948.000	558.648	80.000	19.996	100.773	20.079	2.979	0.514
948.500	558.902	80.000	19.995	100.773	20.077	3.058	0.488
949.000	559.150	80.001	19.996	100.773	20.078	3.033	0.494
949.500	559.418	80.002	19.995	100.775	20.077	3.114	0.509
950.000	559.687	80.000	19.995	100.776	20.079	2.971	0.526
950.500	559.973	80.000	19.995	100.776	20.079	2.960	0.546
951.000	560.226	80.003	19.995	100.776	20.079	2.942	0.547
951.500	560.478	80.002	19.996	100.775	20.083	2.722	0.522
952.000	560.696	79.999	19.995	100.775	20.080	2.883	0.487
952.500	560.959	79.999	19.995	100.776	20.080	2.899	0.476
953.000	561.213	80.002	19.995	100.776	20.084	2.643	0.499
953.500	561.478	80.002	19.995	100.777	20.082	2.727	0.518
954.000	561.736	80.002	19.996	100.779	20.080	2.895	0.521
954.500	561.982	80.000	19.995	100.778	20.082	2.763	0.513
955.000	562.244	80.000	19.995	100.778	20.081	2.818	0.506
955.500	562.506	80.001	19.996	100.775	20.081	2.836	0.516
956.000	562.743	80.000	19.995	100.773	20.080	2.881	0.512
956.500	562.998	80.002	19.994	100.773	20.085	2.573	0.496
957.000	563.276	80.004	19.994	100.773	20.084	2.607	0.512
957.500	563.481	80.001	19.995	100.773	20.083	2.665	0.508
958.000	563.791	80.001	19.995	100.774	20.083	2.691	0.499
958.500	564.051	80.002	19.996	100.774	20.080	2.913	0.543
959.000	564.297	80.000	19.996	100.775	20.080	2.872	0.538
959.500	564.511	80.002	19.996	100.775	20.079	2.965	0.483
960.000	564.794	80.001	19.996	100.776	20.082	2.759	0.478
960.500	565.043	80.000	19.994	100.777	20.079	2.944	0.515
961.000	565.340	80.001	19.995	100.777	20.080	2.860	0.539
961.500	565.588	79.999	19.995	100.777	20.083	2.693	0.545
962.000	565.829	80.000	19.997	100.777	20.084	2.658	0.516
962.500	566.072	80.000	19.995	100.776	20.080	2.861	0.486
963.000	566.358	79.999	19.995	100.776	20.080	2.876	0.507
963.500	566.628	80.000	19.997	100.776	20.078	2.990	0.542
964.000	566.889	80.000	19.995	100.775	20.075	3.221	0.544
964.500	567.155	79.998	19.996	100.774	20.083	2.681	0.529
965.000	567.405	79.997	19.996	100.774	20.077	3.092	0.521
965.500	567.651	79.998	19.997	100.775	20.081	2.808	0.506
966.000	567.913	80.000	19.996	100.775	20.079	2.987	0.502
966.500	568.186	79.996	19.996	100.775	20.080	2.908	0.521
967.000	568.457	79.996	19.996	100.776	20.080	2.906	0.540
967.500	568.705	79.999	19.997	100.776	20.080	2.906	0.531
968.000	568.967	79.999	19.995	100.775	20.077	3.069	0.514
968.500	569.231	79.999	19.996	100.775	20.079	2.976	0.518
969.000	569.484	79.996	19.996	100.774	20.075	3.233	0.522
969.500	569.702	79.997	19.997	100.774	20.078	3.003	0.494
970.000	570.002	79.997	19.995	100.773	20.080	2.917	0.494
970.500	570.252	79.998	19.997	100.775	20.078	3.042	0.534
971.000	570.513	79.999	19.996	100.775	20.078	3.026	0.531
971.500	570.777	79.999	19.997	100.775	20.080	2.917	0.518
972.000	571.003	80.000	19.996	100.776	20.075	3.223	0.507
972.500	571.266	79.999	19.997	100.777	20.078	2.995	0.489
973.000	571.507	79.997	19.997	100.777	20.083	2.681	0.497
973.500	571.810	79.995	19.998	100.777	20.081	2.826	0.524
974.000	572.029	79.999	19.996	100.777	20.079	2.942	0.533
974.500	572.287	79.997	19.996	100.778	20.086	2.484	0.499
975.000	572.543	79.998	19.996	100.779	20.078	2.997	0.496
975.500	572.812	79.999	19.997	100.778	20.081	2.815	0.520
976.000	573.084	79.998	19.997	100.778	20.080	2.883	0.534
976.500	573.300	79.997	19.997	100.778	20.082	2.760	0.514
977.000	573.589	79.997	19.997	100.777	20.084	2.647	0.496
977.500	573.875	79.998	19.996	100.776	20.079	2.955	0.540
978.000	574.129	79.999	19.997	100.776	20.083	2.715	0.557
978.500	574.369	80.000	19.997	100.776	20.085	2.563	0.517
979.000	574.670	80.000	19.995	100.778	20.079	2.976	0.517
979.500	574.908	79.999	19.996	100.778	20.080	2.869	0.540
980.000	575.150	79.998	19.996	100.779	20.081	2.845	0.510
980.500	575.471	79.999	19.995	100.780	20.085	2.559	0.522
981.000	575.659	79.998	19.995	100.781	20.084	2.654	0.536
981.500	575.948	79.998	19.997	100.780	20.082	2.727	0.493
982.000	576.189	79.998	19.996	100.780	20.081	2.802	0.504
982.500	576.456	79.998	19.995	100.779	20.084	2.624	0.519
983.000	576.672	79.998	19.995	100.776	20.084	2.595	0.495
983.500	576.946	80.000	19.995	100.773	20.081	2.838	0.487
984.000	577.202	79.999	19.996	100.773	20.082	2.767	0.510
984.500	577.476	80.000	19.997	100.773	20.081	2.835	0.530
985.000	577.700	79.999	19.996	100.774	20.083	2.710	0.514
985.500	577.980	79.996	19.995	100.777	20.083	2.692	0.501
986.000	578.275	79.997	19.997	100.779	20.081	2.847	0.540
986.500	578.453	79.998	19.996	100.779	20.084	2.649	0.524
987.000	578.732	79.998	19.997	100.779	20.082	2.749	0.465
987.500	579.014	80.000	19.997	100.779	20.081	2.847	0.509
988.000	579.249	79.999	19.997	100.780	20.081	2.822	0.539
988.500	579.457	79.999	19.997	100.781	20.083	2.659	0.480
989.000	579.737	79.998	19.995	100.781	20.082	2.727	0.465
989.500	580.023	79.998	19.996	100.782	20.077	3.081	0.527
990.000	580.281	79.998	19.996	100.781	20.081	2.845	0.555
990.500	580.558	79.995	19.997	100.780	20.083	2.675	0.540
991.000	580.822	79.996	19.995	100.779	20.085	2.570	0.538
991.500	581.086	79.998	19.997	100.778	20.082	2.779	0.534
992.000	581.317	79.996	19.996	100.778	20.083	2.663	0.511
992.500	581.585	79.998	19.995	100.778	20.085	2.573	0.497
993.000	581.800	79.998	19.996	100.777	20.080	2.915	0.491
993.500	582.115	79.999	19.997	100.777	20.081	2.838	0.506
994.000	582.362	79.997	19.996	100.778	20.081	2.810	0.546
994.500	582.656	79.996	19.995	100.778	20.077	3.087	0.551
995.000	582.857	79.997	19.997	100.779	20.081	2.793	0.518
995.500	583.103	79.997	19.997	100.779	20.085	2.552	0.471
996.000	583.369	79.996	19.997	100.783	20.076	3.174	0.480
996.500	583.631	79.996	19.997	100.783	20.078	3.051	0.520
997.000	583.905	79.997	19.998	100.783	20.076	3.182	0.532
997.500	584.149	79.996	19.997	100.784	20.075	3.246	0.527
998.000	584.404	79.995	19.996	100.784	20.077	3.108	0.509
998.500	584.687	79.997	19.994	100.781	20.077	3.085	0.518
999.000	584.919	79.995	19.997	100.781	20.078	3.003	0.527
999.500	585.216	79.997	19.995	100.781	20.076	3.130	0.522
1000.000	585.432	79.997	19.996	100.781	20.082	2.736	0.521
1000.500	585.688	79.996	19.996	100.780	20.081	2.808	0.492
1001.000	585.938	79.996	19.997	100.779	20.084	2.636	0.489
1001.500	586.186	79.997	19.997	100.777	20.077	3.106	0.502
1002.000	586.435	79.998	19.996	100.777	20.077	3.106	0.497
1002.500	586.691	79.996	19.998	100.776	20.081	2.808	0.501
1003.000	586.967	79.998	19.998	100.776	20.079	2.933	0.519
1003.500	587.239	79.995	19.996	100.777	20.086	2.507	0.540
1004.000	587.479	79.996	19.997	100.779	20.081	2.835	0.530
1004.500	587.754	79.998	19.998	100.779	20.082	2.772	0.514
1005.000	587.981	80.002	19.997	100.778	20.079	2.926	0.509
1005.500	588.254	79.999	19.997	100.777	20.078	3.005	0.501
1006.000	588.529	79.999	19.998	100.776	20.080	2.861	0.524
1006.500	588.760	80.001	19.997	100.776	20.079	2.976	0.527
1007.000	589.027	79.998	19.996	100.776	20.073	3.360	0.502
1007.500	589.304	80.000	19.997	100.776	20.077	3.065	0.521
1008.000	589.530	79.999	19.997	100.776	20.080	2.870	0.523
1008.500	589.745	79.999	19.997	100.778	20.075	3.230	0.472
1009.000	590.019	80.000	19.997	100.779	20.079	2.945	0.465
1009.500	590.283	80.000	19.998	100.779	20.074	3.284	0.513
1010.000	590.532	79.998	19.996	100.779	20.076	3.148	0.526
1010.500	590.801	79.999	19.996	100.778	20.076	3.124	0.515
1011.000	591.034	79.999	19.997	100.776	20.078	3.049	0.510
1011.500	591.297	80.000	19.996	100.774	20.080	2.872	0.499
1012.000	591.549	79.998	19.995	100.774	20.081	2.802	0.506
1012.500	591.806	80.000	19.996	100.774	20.079	2.963	0.512
1013.000	592.106	80.000	19.996	100.774	20.081	2.811	0.533
1013.500	592.361	79.998	19.995	100.774	20.079	2.988	0.556
1014.000	592.615	79.999	19.994	100.776	20.081	2.849	0.532
1014.500	592.827	79.999	19.995	100.776	20.078	2.992	0.487
1015.000	593.123	80.000	19.997	100.778	20.084	2.634	0.487
1015.500	593.375	79.999	19.997	100.777	20.075	3.190	0.528
1016.000	593.632	80.002	19.995	100.778	20.076	3.142	0.528
1016.500	593.894	80.001	19.995	100.777	20.076	3.182	0.514
1017.000	594.191	79.999	19.996	100.777	20.080	2.910	0.540
1017.500	594.447	79.996	19.996	100.773	20.078	3.033	0.556
1018.000	594.704	80.000	19.994	100.773	20.075	3.237	0.533
1018.500	594.931	80.001	19.996	100.774	20.081	2.840	0.499
1019.000	595.196	80.000	19.996	100.776	20.081	2.856	0.488
1019.500	595.458	79.999	19.996	100.775	20.082	2.786	0.510
1020.000	595.700	79.999	19.995	100.777	20.074	3.262	0.515
1020.500	595.935	79.998	19.998	100.778	20.083	2.710	0.490
1021.000	596.191	79.999	19.995	100.775	20.081	2.813	0.484
1021.500	596.444	79.999	19.994	100.771	20.076	3.184	0.500
1022.000	596.729	79.998	19.996	100.771	20.080	2.917	0.523
1022.500	596.944	80.000	19.997	100.773	20.081	2.792	0.519
1023.000	597.239	79.999	19.995	100.773	20.080	2.886	0.505
1023.500	597.481	79.999	19.994	100.775	20.079	2.924	0.524
1024.000	597.733	79.998	19.996	100.777	20.078	3.021	0.515
1024.499	598.005	79.999	19.996	100.776	20.077	3.096	0.509
1024.999	598.253	79.997	19.996	100.775	20.083	2.720	0.522
1025.499	598.526	79.998	19.995	100.776	20.074	3.267	0.520
1025.999	598.780	80.001	19.997	100.776	20.078	3.053	0.524
1026.499	599.001	79.998	19.995	100.776	20.076	3.155	0.501
1026.999	599.252	80.001	19.997	100.777	20.076	3.164	0.474
1027.499	599.544	80.000	19.996	100.777	20.079	2.949	0.508
1027.999	599.797	80.000	19.995	100.776	20.080	2.919	0.544
1028.499	600.051	79.998	19.997	100.776	20.081	2.826	0.526
1028.999	600.335	79.999	19.996	100.776	20.076	3.126	0.522
1029.499	600.548	79.999	19.997	100.778	20.073	3.359	0.518
1029.999	600.843	79.999	19.995	100.778	20.074	3.300	0.502
1030.499	601.040	80.000	19.995	100.778	20.078	3.046	0.500
1030.999	601.293	79.998	19.996	100.779	20.076	3.187	0.471
1031.499	601.566	80.001	19.997	100.783	20.076	3.153	0.488
1032.000	601.844	80.000	19.997	100.783	20.076	3.151	0.539
1032.500	602.121	80.000	19.996	100.782	20.077	3.069	0.553
1032.999	602.337	79.998	19.996	100.783	20.077	3.064	0.524
1033.499	602.591	79.998	19.996	100.781	20.076	3.162	0.481
1033.999	602.820	80.000	19.996	100.777	20.077	3.092	0.476
1034.499	603.141	79.999	19.995	100.775	20.080	2.892	0.517
1034.999	603.375	80.003	19.997	100.775	20.077	3.069	0.553
1035.499	603.608	80.000	19.996	100.773	20.077	3.108	0.511
1035.999	603.854	80.000	19.996	100.773	20.081	2.854	0.473
1036.499	604.136	80.002	19.996	100.773	20.081	2.845	0.503
1036.999	604.372	80.002	19.995	100.773	20.079	2.976	0.523
1037.499	604.620	79.998	19.994	100.773	20.079	2.939	0.501
1037.999	604.885	80.002	19.996	100.774	20.077	3.083	0.499
1038.499	605.131	80.001	19.995	100.775	20.076	3.130	0.512
1038.999	605.380	80.000	19.996	100.775	20.077	3.098	0.503
1039.499	605.637	80.001	19.996	100.775	20.077	3.071	0.501
1039.999	605.867	80.000	19.995	100.774	20.079	2.971	0.496
1040.499	606.119	80.002	19.996	100.775	20.077	3.072	0.484
1040.999	606.437	80.001	19.995	100.775	20.079	2.944	0.526
1041.500	606.630	79.999	19.995	100.775	20.077	3.118	0.540
1042.000	606.902	79.998	19.995	100.776	20.082	2.785	0.488
1042.500	607.168	79.999	19.995	100.778	20.081	2.847	0.502
1043.000	607.361	79.999	19.995	100.778	20.082	2.774	0.499
1043.499	607.603	79.999	19.996	100.779	20.077	3.121	0.447
1043.999	607.862	79.999	19.995	100.779	20.081	2.849	0.468
1044.499	608.131	79.999	19.994	100.779	20.077	3.081	0.515
1045.000	608.401	79.997	19.995	100.779	20.076	3.158	0.534
1045.500	608.680	79.998	19.997	100.776	20.077	3.090	0.544
1045.999	608.928	79.998	19.993	100.776	20.075	3.201	0.538
1046.499	609.200	79.997	19.996	100.775	20.077	3.119	0.524
1046.999	609.420	79.998	19.996	100.777	20.076	3.178	0.506
1047.499	609.721	79.997	19.997	100.777	20.079	2.987	0.506
1047.999	609.962	79.997	19.996	100.780	20.078	3.053	0.532
1048.499	610.236	79.998	19.994	100.783	20.077	3.058	0.529
1048.999	610.434	79.998	19.995	100.784	20.080	2.863	0.493
1049.499	610.699	79.997	19.996	100.783	20.077	3.103	0.468
1049.999	610.975	79.997	19.995	100.782	20.079	2.938	0.503
1050.499	611.195	79.998	19.995	100.782	20.078	3.051	0.519
1050.999	611.486	79.997	19.995	100.779	20.073	3.359	0.503
1051.499	611.742	79.998	19.995	100.778	20.075	3.226	0.529
1051.999	611.986	79.999	19.995	100.782	20.076	3.157	0.523
1052.499	612.246	79.998	19.996	100.789	20.078	3.010	0.502
1052.999	612.529	79.999	19.996	100.789	20.079	2.947	0.524
1053.499	612.764	79.998	19.996	100.789	20.081	2.842	0.530
1053.999	612.997	79.999	19.996	100.790	20.078	3.026	0.493
1054.499	613.256	80.000	19.995	100.785	20.075	3.237	0.480
1054.999	613.523	79.997	19.996	100.774	20.076	3.128	0.509
1055.499	613.822	79.997	19.996	100.772	20.077	3.112	0.546
1055.999	614.107	79.997	19.994	100.772	20.072	3.400	0.575
1056.499	614.317	79.998	19.994	100.772	20.073	3.334	0.539
1056.999	614.553	79.997	19.997	100.773	20.076	3.187	0.470
1057.499	614.853	79.999	19.996	100.778	20.076	3.163	0.491
1057.999	615.081	79.997	19.997	100.779	20.079	2.960	0.532
1058.499	615.336	79.997	19.994	100.779	20.070	3.543	0.506
1058.999	615.614	79.996	19.996	100.779	20.078	3.008	0.508
1059.499	615.845	79.996	19.996	100.780	20.074	3.298	0.521
1059.999	616.154	79.998	19.995	100.780	20.079	2.969	0.524
1060.499	616.366	79.997	19.996	100.780	20.077	3.119	0.530
1060.999	616.650	79.996	19.996	100.780	20.077	3.120	0.508
1061.499	616.917	79.998	19.996	100.781	20.075	3.235	0.524
1061.999	617.178	79.997	19.996	100.780	20.078	3.040	0.540
1062.499	617.439	79.997	19.997	100.779	20.078	2.993	0.525
1062.999	617.689	79.996	19.997	100.779	20.076	3.153	0.516
1063.499	617.954	79.997	19.997	100.777	20.075	3.242	0.513
1063.999	618.227	79.999	19.996	100.777	20.080	2.877	0.527
1064.499	618.461	79.997	19.996	100.777	20.079	2.979	0.522
1065.000	618.726	79.997	19.996	100.778	20.075	3.235	0.503
1065.500	618.988	79.999	19.995	100.778	20.075	3.214	0.513
1065.999	619.239	79.997	19.997	100.779	20.077	3.105	0.520
1066.499	619.507	79.998	19.996	100.778	20.080	2.886	0.516
1066.999	619.759	79.997	19.996	100.777	20.077	3.113	0.520
1067.499	620.001	79.999	19.996	100.776	20.069	3.585	0.507
1067.999	620.296	79.998	19.996	100.773	20.080	2.917	0.515
1068.499	620.546	79.999	19.996	100.771	20.075	3.210	0.541
1068.999	620.789	80.000	19.995	100.770	20.079	2.938	0.519
1069.499	621.038	80.000	19.995	100.770	20.076	3.158	0.492
1069.999	621.302	79.998	19.995	100.771	20.079	2.972	0.503
1070.499	621.553	80.000	19.997	100.773	20.081	2.834	0.514
1071.000	621.797	79.996	19.997	100.772	20.082	2.733	0.505
1071.500	622.078	79.996	19.996	100.769	20.079	2.942	0.510
1071.999	622.335	79.999	19.996	100.767	20.074	3.283	0.532
1072.499	622.575	80.001	19.998	100.761	20.078	3.035	0.517
1072.999	622.822	79.998	19.997	100.761	20.080	2.916	0.492
1073.499	623.097	79.999	19.995	100.762	20.075	3.231	0.504
1074.000	623.352	79.999	19.996	100.764	20.076	3.140	0.526
1074.500	623.635	79.997	19.996	100.764	20.075	3.240	0.534
1074.999	623.901	79.998	19.996	100.769	20.081	2.843	0.543
1075.499	624.148	79.999	19.997	100.770	20.074	3.264	0.531
1075.999	624.429	80.000	19.997	100.770	20.076	3.135	0.521
1076.500	624.668	79.997	19.996	100.772	20.077	3.078	0.524
1077.001	624.942	79.998	19.997	100.774	20.076	3.187	0.516
1077.500	625.168	79.998	19.997	100.773	20.077	3.085	0.506
1078.000	625.442	79.996	19.997	100.768	20.079	2.958	0.500
1078.501	625.656	79.997	19.995	100.768	20.075	3.196	0.494
1079.000	625.923	79.997	19.997	100.769	20.076	3.153	0.485
1079.499	626.175	79.997	19.996	100.769	20.076	3.176	0.501
1079.999	626.454	79.997	19.998	100.768	20.079	2.970	0.525
1080.499	626.693	79.996	19.997	100.773	20.074	3.287	0.524
1080.999	626.949	79.996	19.997	100.773	20.077	3.112	0.506
1081.499	627.177	79.998	19.997	100.772	20.078	3.020	0.489
1081.999	627.468	79.994	19.996	100.771	20.077	3.078	0.501
1082.499	627.742	79.997	19.996	100.774	20.074	3.267	0.542
1082.999	627.985	79.998	19.997	100.773	20.071	3.485	0.542
1083.499	628.268	79.997	19.996	100.767	20.080	2.883	0.522
1084.000	628.496	79.996	19.997	100.762	20.078	3.054	0.518
1084.500	628.756	79.999	19.996	100.763	20.073	3.382	0.500
1084.999	629.002	79.998	19.997	100.764	20.072	3.425	0.497
1085.499	629.278	79.999	19.997	100.765	20.075	3.233	0.514
1085.999	629.526	79.997	19.996	100.771	20.075	3.212	0.523
1086.499	629.771	79.998	19.999	100.775	20.075	3.201	0.509
1086.999	630.018	79.998	19.997	100.776	20.075	3.221	0.493
1087.499	630.290	80.000	19.998	100.776	20.072	3.398	0.505
1087.999	630.531	79.999	19.996	100.774	20.073	3.323	0.516
1088.499	630.773	79.995	19.996	100.773	20.074	3.287	0.498
1088.999	631.016	80.000	19.996	100.773	20.072	3.425	0.484
1089.500	631.280	79.999	19.996	100.769	20.069	3.607	0.496
1090.001	631.555	79.998	19.997	100.767	20.075	3.233	0.523
1090.500	631.823	80.000	19.998	100.767	20.074	3.273	0.541
1091.000	632.026	79.999	19.997	100.768	20.073	3.330	0.507
1091.500	632.304	80.000	19.998	100.769	20.076	3.180	0.476
1091.999	632.592	79.998	19.997	100.772	20.074	3.314	0.524
1092.499	632.848	79.996	19.998	100.774	20.071	3.518	0.555
1092.999	633.078	79.998	19.997	100.775	20.067	3.782	0.515
1093.499	633.343	80.001	19.997	100.774	20.069	3.629	0.490
1093.999	633.606	79.998	19.995	100.774	20.070	3.561	0.511
1094.499	633.860	79.999	19.996	100.774	20.074	3.312	0.522
1094.999	634.103	79.999	19.996	100.774	20.073	3.362	0.507
1095.499	634.336	80.000	19.995	100.773	20.069	3.620	0.487
1095.999	634.595	79.999	19.998	100.771	20.069	3.611	0.484
1096.499	634.875	80.001	19.996	100.770	20.069	3.630	0.515
1096.999	635.126	80.001	19.996	100.770	20.067	3.718	0.535
1097.499	635.394	79.996	19.995	100.768	20.076	3.174	0.525
1097.999	635.659	80.001	19.996	100.766	20.074	3.287	0.526
1098.499	635.924	79.999	19.997	100.769	20.070	3.519	0.531
1098.999	636.178	79.999	19.997	100.769	20.074	3.309	0.525
1099.499	636.402	79.999	19.996	100.770	20.071	3.478	0.498
1099.999	636.678	80.000	19.996	100.771	20.076	3.174	0.489
1100.499	636.953	79.998	19.997	100.774	20.073	3.325	0.526
1100.999	637.154	80.000	19.997	100.773	20.071	3.507	0.514
1101.499	637.418	79.999	19.997	100.773	20.070	3.553	0.470
1101.999	637.668	79.998	19.995	100.774	20.075	3.208	0.489
1102.499	637.937	79.998	19.995	100.774	20.072	3.407	0.516
1102.999	638.153	80.000	19.995	100.774	20.073	3.325	0.502
1103.500	638.437	79.998	19.996	100.776	20.069	3.591	0.492
1104.001	638.669	79.998	19.996	100.776	20.066	3.816	0.508
1104.501	638.990	79.999	19.994	100.777	20.068	3.679	0.534
1105.000	639.168	80.003	19.995	100.777	20.067	3.738	0.526
1105.499	639.480	79.999	19.996	100.776	20.069	3.647	0.494
1106.000	639.710	79.999	19.995	100.777	20.071	3.455	0.516
1106.500	639.934	80.000	19.997	100.777	20.073	3.376	0.498
1106.999	640.208	80.000	19.996	100.777	20.071	3.473	0.476
1107.499	640.445	79.998	19.996	100.774	20.069	3.605	0.504
1107.999	640.679	79.998	19.995	100.775	20.064	3.956	0.491
1108.500	640.930	80.000	19.997	100.774	20.076	3.135	0.478
1109.000	641.202	80.001	19.997	100.774	20.071	3.484	0.504
1109.499	641.486	80.002	19.996	100.774	20.075	3.216	0.539
1109.999	641.713	79.999	19.995	100.778	20.073	3.350	0.533
1110.499	641.958	79.998	19.995	100.778	20.071	3.486	0.492
1110.999	642.234	80.000	19.997	100.778	20.072	3.421	0.497
1111.499	642.492	79.999	19.995	100.775	20.080	2.894	0.527
1111.999	642.754	79.998	19.996	100.775	20.074	3.275	0.527
1112.499	643.016	79.997	19.995	100.775	20.076	3.187	0.522
1112.999	643.260	80.001	19.996	100.774	20.071	3.511	0.515
1113.499	643.526	80.001	19.995	100.774	20.076	3.153	0.508
1113.999	643.746	80.000	19.996	100.777	20.070	3.548	0.498
1114.499	644.029	80.002	19.995	100.776	20.071	3.477	0.495
1115.000	644.232	80.000	19.995	100.776	20.076	3.133	0.495
1115.500	644.522	80.000	19.996	100.777	20.074	3.259	0.490
1115.999	644.746	79.998	19.995	100.777	20.081	2.833	0.503
1116.500	645.008	79.997	19.995	100.778	20.071	3.514	0.500
1117.000	645.225	80.000	19.995	100.776	20.077	3.058	0.483
1117.499	645.480	80.000	19.996	100.775	20.074	3.267	0.476
1117.999	645.742	80.000	19.996	100.775	20.079	2.971	0.494
1118.499	646.005	80.000	19.995	100.775	20.069	3.586	0.520
1118.999	646.259	80.000	19.994	100.777	20.075	3.244	0.521
1119.499	646.510	80.000	19.995	100.780	20.073	3.350	0.511
1119.999	646.772	80.000	19.994	100.780	20.075	3.217	0.509
1120.499	647.024	80.000	19.994	100.780	20.073	3.353	0.514
1121.000	647.309	80.001	19.995	100.780	20.074	3.273	0.525
1121.500	647.534	79.999	19.995	100.777	20.072	3.389	0.523
1121.999	647.791	80.002	19.995	100.777	20.072	3.419	0.496
1122.500	648.056	80.001	19.994	100.777	20.075	3.249	0.502
1123.000	648.294	79.998	19.993	100.777	20.072	3.387	0.512
1123.499	648.527	79.997	19.993	100.778	20.075	3.246	0.487
1123.999	648.768	79.998	19.995	100.778	20.073	3.344	0.472
1124.499	649.016	79.998	19.995	100.779	20.071	3.480	0.482
1125.000	649.338	79.998	19.996	100.779	20.070	3.553	0.530
1125.500	649.579	79.998	19.996	100.780	20.072	3.398	0.567
1125.999	649.841	79.998	19.995	100.780	20.067	3.741	0.533
1126.499	650.110	79.999	19.994	100.780	20.065	3.861	0.517
1126.999	650.333	79.999	19.997	100.780	20.071	3.498	0.512
1127.499	650.596	79.998	19.996	100.779	20.069	3.611	0.489
1127.999	650.886	79.997	19.995	100.778	20.070	3.536	0.519
1128.499	651.123	79.998	19.995	100.779	20.068	3.682	0.540
1129.000	651.346	79.999	19.995	100.778	20.066	3.784	0.493
1129.500	651.603	80.000	19.998	100.777	20.064	3.924	0.470
1129.999	651.859	79.999	19.996	100.777	20.070	3.521	0.497
1130.499	652.123	79.999	19.996	100.777	20.067	3.718	0.517
1130.999	652.409	79.998	19.995	100.776	20.068	3.715	0.535
1131.500	652.650	79.999	19.996	100.775	20.070	3.561	0.538
1132.000	652.884	79.999	19.996	100.776	20.067	3.770	0.501
1132.499	653.132	79.997	19.994	100.776	20.070	3.562	0.479
1132.999	653.384	79.998	19.996	100.775	20.066	3.813	0.491
1133.499	653.652	79.998	19.995	100.776	20.067	3.773	0.510
1133.999	653.917	79.999	19.996	100.776	20.069	3.605	0.526
1134.500	654.166	79.999	19.998	100.775	20.067	3.779	0.524
1135.000	654.432	79.999	19.997	100.774	20.063	3.983	0.514
1135.499	654.703	79.998	19.996	100.775	20.063	4.036	0.526
1135.999	654.940	80.000	19.994	100.773	20.069	3.643	0.522
1136.499	655.182	79.997	19.995	100.774	20.070	3.582	0.493
1136.999	655.436	80.000	19.997	100.774	20.067	3.750	0.487
1137.499	655.686	80.000	19.996	100.776	20.069	3.621	0.500
1137.999	655.939	79.999	19.994	100.777	20.070	3.537	0.504
1138.499	656.151	79.998	19.995	100.779	20.068	3.688	0.484
1138.999	656.404	80.000	19.996	100.779	20.071	3.505	0.465
1139.499	656.683	79.998	19.993	100.779	20.070	3.561	0.498
1139.999	656.931	80.000	19.996	100.778	20.066	3.795	0.529
1140.500	657.177	79.998	19.997	100.778	20.070	3.557	0.511
1141.001	657.428	79.998	19.995	100.778	20.067	3.766	0.496
1141.500	657.664	79.999	19.996	100.777	20.067	3.763	0.492
1141.999	657.972	79.999	19.994	100.777	20.064	3.942	0.516
1142.499	658.199	79.999	19.995	100.777	20.069	3.632	0.540
1142.999	658.426	80.000	19.995	100.777	20.064	3.929	0.495
1143.500	658.657	79.998	19.995	100.777	20.068	3.709	0.456
1144.000	658.987	79.997	19.994	100.777	20.066	3.831	0.509
1144.499	659.180	80.002	19.996	100.777	20.067	3.764	0.542
1144.999	659.488	79.999	19.997	100.776	20.060	4.203	0.512
1145.499	659.738	79.998	19.996	100.777	20.065	3.872	0.529
1145.999	659.959	79.998	19.994	100.777	20.062	4.079	0.514
1146.499	660.238	79.999	19.995	100.777	20.063	3.999	0.485
1147.000	660.483	79.999	19.996	100.777	20.068	3.689	0.512
1147.500	660.702	79.999	19.995	100.777	20.064	3.977	0.494
1147.999	661.011	80.000	19.995	100.777	20.066	3.834	0.496
1148.499	661.253	79.998	19.996	100.777	20.067	3.782	0.539
1148.999	661.491	80.000	19.995	100.777	20.070	3.578	0.515
1149.499	661.760	79.999	19.996	100.776	20.064	3.929	0.494
1149.999	662.014	79.998	19.996	100.776	20.065	3.909	0.516
1150.500	662.289	79.999	19.996	100.776	20.068	3.675	0.526
1151.000	662.556	79.998	19.996	100.776	20.068	3.702	0.535
1151.499	662.809	79.998	19.997	100.775	20.062	4.093	0.531
1151.999	663.104	79.998	19.996	100.775	20.061	4.147	0.534
1152.499	663.330	79.998	19.995	100.776	20.065	3.854	0.534
1152.999	663.571	79.997	19.995	100.776	20.066	3.802	0.493
1153.499	663.848	79.998	19.995	100.776	20.060	4.195	0.492
1153.999	664.094	79.996	19.995	100.776	20.066	3.841	0.521
1154.499	664.342	79.995	19.996	100.775	20.064	3.923	0.509
1154.999	664.574	79.998	19.996	100.775	20.065	3.911	0.486
1155.499	664.798	79.999	19.996	100.775	20.065	3.911	0.468
1155.999	665.060	79.998	19.996	100.774	20.064	3.936	0.471
1156.499	665.321	79.998	19.995	100.774	20.065	3.911	0.504
1156.999	665.601	79.997	19.997	100.775	20.066	3.804	0.532
1157.499	665.844	79.998	19.997	100.771	20.065	3.884	0.532
1157.999	666.128	79.999	19.995	100.771	20.068	3.709	0.525
1158.499	666.384	80.000	19.997	100.771	20.065	3.875	0.533
1158.999	666.628	79.998	19.995	100.771	20.066	3.838	0.520
1159.499	666.893	79.998	19.997	100.768	20.067	3.775	0.505
1159.999	667.109	79.999	19.997	100.767	20.064	3.981	0.495
1160.499	667.359	79.998	19.995	100.766	20.063	3.992	0.474
1160.999	667.634	79.997	19.998	100.764	20.066	3.825	0.495
1161.499	667.908	79.998	19.996	100.762	20.062	4.108	0.537
1161.999	668.188	79.999	19.997	100.765	20.059	4.260	0.551
1162.499	668.420	79.999	19.996	100.771	20.061	4.169	0.533
1162.999	668.675	79.997	19.995	100.772	20.066	3.831	0.500
1163.499	668.910	79.998	19.996	100.774	20.063	4.019	0.489
1163.999	669.182	79.998	19.997	100.774	20.059	4.260	0.498
1164.499	669.414	79.997	19.995	100.770	20.068	3.664	0.505
1164.999	669.704	79.996	19.997	100.771	20.066	3.800	0.513
1165.499	669.928	79.999	19.994	100.771	20.063	4.006	0.518
1166.000	670.186	79.999	19.995	100.772	20.065	3.895	0.498
1166.500	670.473	79.998	19.997	100.774	20.062	4.052	0.514
1166.999	670.685	79.997	19.995	100.778	20.066	3.788	0.522
1167.500	670.942	79.997	19.997	100.776	20.057	4.381	0.484
1168.000	671.213	79.998	19.997	100.776	20.064	3.949	0.498
1168.499	671.494	79.998	19.995	100.775	20.062	4.068	0.540
1168.999	671.731	79.998	19.997	100.772	20.064	3.979	0.535
1169.499	672.009	80.000	19.997	100.773	20.062	4.065	0.517
1169.999	672.260	79.998	19.996	100.773	20.066	3.807	0.523
1170.499	672.552	79.999	19.995	100.775	20.061	4.115	0.536
1170.999	672.825	79.999	19.996	100.777	20.062	4.060	0.554
1171.499	672.995	80.000	19.997	100.779	20.064	3.979	0.504
1171.999	673.315	80.001	19.995	100.779	20.064	3.976	0.466
1172.499	673.514	80.001	19.993	100.779	20.067	3.763	0.504
1172.999	673.774	79.999	19.995	100.778	20.063	4.044	0.490
1173.499	674.013	79.999	19.995	100.778	20.064	3.979	0.479
1174.000	674.306	79.999	19.996	100.777	20.066	3.797	0.515
1174.501	674.591	79.997	19.995	100.777	20.067	3.770	0.555
1175.000	674.829	79.996	19.997	100.777	20.068	3.697	0.550
1175.499	675.066	79.997	19.995	100.777	20.067	3.765	0.499
1175.999	675.315	80.002	19.997	100.776	20.062	4.051	0.481
1176.499	675.615	79.999	19.997	100.776	20.063	4.004	0.518
1176.999	675.868	79.998	19.995	100.777	20.063	3.992	0.551
1177.499	676.102	80.000	19.996	100.775	20.064	3.951	0.520
1177.999	676.358	79.997	19.995	100.774	20.064	3.927	0.488
1178.499	676.633	80.000	19.997	100.775	20.064	3.924	0.510
1178.999	676.887	79.999	19.996	100.775	20.063	4.002	0.530
1179.499	677.137	79.998	19.997	100.774	20.065	3.883	0.516
1179.999	677.387	79.997	19.996	100.775	20.066	3.840	0.502
1180.499	677.660	80.001	19.998	100.776	20.067	3.754	0.511
1180.999	677.888	79.995	19.997	100.777	20.061	4.144	0.512
1181.499	678.132	79.998	19.996	100.776	20.062	4.062	0.487
1181.999	678.418	80.000	19.997	100.778	20.064	3.958	0.501
1182.499	678.688	79.999	19.996	100.778	20.064	3.952	0.543
1182.999	678.921	79.999	19.997	100.778	20.065	3.892	0.530
1183.499	679.218	79.997	19.998	100.778	20.063	3.985	0.516
1183.999	679.475	79.998	19.998	100.777	20.061	4.138	0.542
1184.499	679.693	79.999	19.999	100.776	20.060	4.235	0.515
1184.999	679.949	79.998	19.996	100.776	20.061	4.156	0.475
1185.499	680.180	79.999	19.996	100.776	20.062	4.070	0.481
1185.999	680.451	79.999	19.998	100.776	20.062	4.088	0.494
1186.499	680.730	79.998	19.996	100.776	20.066	3.811	0.526
1186.999	680.955	79.997	19.998	100.777	20.067	3.763	0.527
1187.499	681.234	80.000	19.994	100.777	20.063	3.992	0.504
1187.999	681.480	79.999	19.997	100.776	20.064	3.961	0.514
1188.499	681.752	79.998	19.996	100.777	20.061	4.120	0.521
1188.999	682.013	79.998	19.996	100.778	20.064	3.934	0.526
1189.500	682.260	79.998	19.995	100.777	20.061	4.168	0.521
1190.000	682.509	80.000	19.996	100.777	20.065	3.913	0.502
1190.499	682.789	79.998	19.995	100.778	20.060	4.229	0.513
1190.999	683.001	80.000	19.996	100.778	20.064	3.934	0.510
1191.499	683.286	79.999	19.996	100.777	20.060	4.213	0.494
1191.999	683.535	80.002	19.996	100.778	20.061	4.135	0.516
1192.499	683.794	80.000	19.998	100.779	20.063	4.015	0.521
1192.999	684.009	80.000	19.996	100.779	20.060	4.224	0.491
1193.499	684.308	79.999	19.998	100.779	20.062	4.097	0.494
1193.999	684.535	79.999	19.995	100.780	20.064	3.958	0.520
1194.499	684.766	79.999	19.995	100.779	20.066	3.820	0.492
1194.999	685.048	80.000	19.993	100.779	20.062	4.108	0.485
1195.499	685.303	80.001	19.995	100.775	20.059	4.296	0.525
1195.999	685.563	80.000	19.998	100.775	20.060	4.213	0.526
1196.499	685.820	80.000	19.996	100.775	20.061	4.147	0.516
1197.000	686.056	80.001	19.995	100.775	20.060	4.208	0.505
1197.500	686.316	79.999	19.995	100.775	20.064	3.942	0.495
1197.999	686.553	80.000	19.995	100.778	20.064	3.933	0.496
1198.499	686.794	80.000	19.996	100.778	20.063	4.040	0.487
1198.999	687.077	80.001	19.995	100.777	20.063	4.045	0.501
1199.499	687.290	80.001	19.996	100.775	20.062	4.074	0.510
1199.999	687.558	79.999	19.995	100.772	20.065	3.886	0.489
1200.499	687.804	80.002	19.997	100.771	20.063	4.027	0.498
1200.999	688.123	80.001	19.998	100.770	20.063	4.019	0.539
1201.500	688.329	80.001	19.996	100.771	20.061	4.128	0.545
1202.001	688.595	80.000	19.994	100.772	20.065	3.874	0.499
1202.500	688.855	80.001	19.994	100.774	20.066	3.845	0.499
1202.999	689.114	79.998	19.997	100.774	20.064	3.979	0.522
1203.499	689.349	79.998	19.997	100.775	20.064	3.927	0.506
1203.999	689.589	80.000	19.995	100.775	20.069	3.593	0.484
1204.499	689.850	80.005	19.994	100.776	20.066	3.823	0.488
1204.999	690.118	79.998	19.995	100.775	20.063	4.033	0.515
1205.499	690.374	80.000	19.996	100.774	20.064	3.934	0.527
1206.000	690.610	79.997	19.997	100.774	20.064	3.968	0.508
1206.501	690.860	79.998	19.995	100.774	20.064	3.974	0.489
1207.000	691.130	79.997	19.996	100.774	20.065	3.852	0.503
1207.499	691.378	79.999	19.995	100.775	20.064	3.947	0.519
1207.999	691.644	79.998	19.997	100.775	20.062	4.079	0.516
1208.500	691.887	79.997	19.996	100.775	20.067	3.734	0.512
1209.000	692.094	79.998	19.996	100.776	20.066	3.791	0.479
1209.499	692.334	79.998	19.994	100.776	20.064	3.965	0.448
1209.999	692.621	79.999	19.997	100.776	20.069	3.638	0.487
1210.500	692.907	79.996	19.996	100.776	20.067	3.783	0.550
1211.000	693.150	79.999	19.997	100.777	20.067	3.718	0.551
1211.499	693.383	79.999	19.995	100.777	20.065	3.856	0.503
1211.999	693.643	79.997	19.996	100.777	20.068	3.659	0.485
1212.499	693.897	79.997	19.995	100.777	20.067	3.740	0.504
1212.999	694.148	79.997	19.998	100.777	20.070	3.546	0.510
1213.499	694.424	79.998	19.997	100.776	20.072	3.428	0.516
1213.999	694.686	80.000	19.996	100.774	20.068	3.668	0.532
1214.499	694.922	79.998	19.999	100.772	20.068	3.668	0.518
1215.000	695.169	79.998	19.995	100.773	20.063	4.001	0.491
1215.501	695.454	79.997	19.997	100.773	20.068	3.709	0.508
1216.000	695.720	79.998	19.997	100.773	20.069	3.646	0.542
1216.499	695.964	79.997	19.996	100.775	20.065	3.899	0.530
1216.999	696.203	79.997	19.996	100.777	20.066	3.786	0.496
1217.499	696.487	79.997	19.994	100.777	20.066	3.847	0.503
1217.999	696.725	79.998	19.996	100.776	20.065	3.861	0.522
1218.499	696.965	79.999	19.993	100.776	20.068	3.698	0.500
1218.999	697.234	79.999	19.996	100.776	20.062	4.054	0.494
1219.499	697.471	79.999	19.996	100.778	20.060	4.190	0.508
1219.999	697.723	79.996	19.995	100.778	20.066	3.825	0.497
1220.499	697.969	79.999	19.995	100.778	20.068	3.679	0.493
1220.999	698.227	79.999	19.997	100.778	20.060	4.224	0.501
1221.499	698.472	80.000	19.996	100.779	20.063	4.001	0.503
1221.999	698.717	80.000	19.996	100.777	20.060	4.226	0.496
1222.500	698.978	79.998	19.996	100.777	20.059	4.289	0.498
1223.000	699.234	79.999	19.996	100.777	20.064	3.963	0.512
1223.499	699.512	79.997	19.995	100.777	20.062	4.070	0.526
1224.000	699.771	80.001	19.996	100.778	20.059	4.292	0.536
1224.500	700.007	79.998	19.997	100.778	20.061	4.169	0.516
1224.999	700.265	79.997	19.996	100.778	20.061	4.128	0.494
1225.499	700.523	79.998	19.996	100.778	20.065	3.858	0.505
1225.999	700.794	79.998	19.995	100.777	20.059	4.276	0.523
1226.499	701.005	79.999	19.994	100.776	20.058	4.351	0.505
1226.999	701.272	79.998	19.996	100.776	20.056	4.494	0.480
1227.499	701.583	80.000	19.994	100.775	20.057	4.382	0.528
1228.000	701.790	80.000	19.995	100.775	20.054	4.611	0.548
1228.501	702.037	79.998	19.995	100.776	20.057	4.382	0.486
1229.000	702.301	80.000	19.996	100.776	20.056	4.477	0.483
1229.499	702.521	79.998	19.993	100.776	20.056	4.509	0.498
1229.999	702.808	79.999	19.996	100.778	20.057	4.435	0.495
1230.499	703.038	79.999	19.995	100.778	20.057	4.432	0.512
1230.999	703.255	79.999	19.996	100.778	20.060	4.217	0.482
1231.499	703.526	80.001	19.997	100.779	20.057	4.394	0.467
1231.999	703.795	79.998	19.996	100.779	20.055	4.568	0.514
1232.499	704.042	79.997	19.996	100.778	20.055	4.561	0.528
1232.999	704.212	79.997	19.994	100.778	20.058	4.314	0.466
1233.499	704.524	79.997	19.995	100.778	20.060	4.194	0.450
1233.999	704.788	79.998	19.994	100.778	20.060	4.192	0.529
1234.499	705.030	79.999	19.997	100.778	20.056	4.503	0.541
1234.999	705.244	79.998	19.995	100.779	20.059	4.292	0.481
1235.499	705.498	79.997	19.995	100.780	20.058	4.364	0.462
1235.999	705.781	79.996	19.996	100.781	20.057	4.405	0.502
1236.500	706.024	79.998	19.995	100.780	20.057	4.401	0.531
1237.000	706.249	79.997	19.996	100.780	20.054	4.612	0.497
1237.499	706.507	79.997	19.997	100.779	20.053	4.654	0.476
1237.999	706.775	79.997	19.995	100.779	20.057	4.396	0.505
1238.499	707.018	79.997	19.995	100.779	20.056	4.462	0.519
1238.999	707.256	79.996	19.996	100.780	20.056	4.507	0.496
1239.499	707.576	79.995	19.996	100.781	20.055	4.575	0.519
1239.999	707.772	79.997	19.995	100.783	20.054	4.598	0.537
1240.499	708.059	79.996	19.997	100.783	20.060	4.197	0.500
1240.999	708.287	79.996	19.997	100.783	20.053	4.677	0.499
1241.499	708.526	79.996	19.995	100.783	20.057	4.412	0.491
1241.999	708.752	79.998	19.995	100.782	20.056	4.505	0.466
1242.499	709.005	79.998	19.996	100.780	20.057	4.403	0.472
1242.999	709.259	79.996	19.996	100.779	20.056	4.476	0.493
1243.499	709.520	79.997	19.996	100.780	20.054	4.594	0.511
1243.999	709.754	79.997	19.994	100.779	20.058	4.337	0.505
1244.500	710.035	79.997	19.995	100.779	20.055	4.557	0.505
1245.000	710.316	79.997	19.996	100.780	20.055	4.523	0.538
1245.499	710.584	79.997	19.997	100.780	20.057	4.385	0.556
1246.000	710.808	79.998	19.996	100.780	20.054	4.612	0.521
1246.500	711.055	79.997	19.998	100.780	20.054	4.634	0.481
1247.000	711.308	79.999	19.997	100.780	20.056	4.487	0.485
1247.500	711.560	79.996	19.996	100.779	20.055	4.550	0.503
1247.999	711.858	79.997	19.995	100.780	20.057	4.408	0.528
1248.499	712.116	79.999	19.995	100.781	20.055	4.559	0.553
1248.999	712.356	79.997	19.998	100.780	20.055	4.518	0.527
1249.499	712.590	80.000	19.995	100.780	20.053	4.686	0.486
1249.999	712.847	79.998	19.997	100.780	20.054	4.602	0.483
1250.499	713.108	79.998	19.996	100.780	20.055	4.537	0.505
1250.999	713.358	79.998	19.996	100.778	20.052	4.716	0.515
1251.499	713.598	80.000	19.997	100.779	20.054	4.593	0.500
1251.999	713.879	79.998	19.996	100.779	20.052	4.725	0.505
1252.499	714.112	79.998	19.995	100.779	20.052	4.727	0.517
1252.999	714.353	80.000	19.997	100.779	20.053	4.652	0.494
1253.499	714.646	79.997	19.997	100.780	20.056	4.460	0.505
1253.999	714.873	79.999	19.994	100.779	20.058	4.328	0.527
1254.499	715.146	79.996	19.994	100.779	20.054	4.612	0.510
1254.999	715.401	79.999	19.995	100.780	20.055	4.528	0.514
1255.499	715.669	79.999	19.996	100.780	20.052	4.760	0.525
1255.999	715.940	79.999	19.997	100.780	20.051	4.803	0.530
1256.499	716.202	79.999	19.996	100.780	20.053	4.689	0.536
1256.999	716.437	79.997	19.997	100.781	20.056	4.485	0.515
1257.499	716.710	79.999	19.996	100.780	20.057	4.440	0.503
1257.999	716.970	79.998	19.996	100.779	20.050	4.907	0.521
1258.499	717.206	79.998	19.997	100.779	20.056	4.487	0.514
1258.999	717.435	79.999	19.997	100.780	20.055	4.523	0.481
1259.500	717.722	79.998	19.995	100.783	20.053	4.659	0.491
1260.000	717.977	79.997	19.994	100.784	20.055	4.517	0.529
1260.499	718.237	79.996	19.996	100.785	20.053	4.675	0.528
1260.999	718.500	79.998	19.996	100.785	20.054	4.603	0.518
1261.499	718.709	80.000	19.996	100.785	20.056	4.500	0.497
1262.000	719.013	79.999	19.995	100.779	20.055	4.537	0.493
1262.500	719.246	80.000	19.993	100.779	20.053	4.653	0.525
1262.999	719.489	80.000	19.996	100.778	20.054	4.603	0.506
1263.499	719.786	79.998	19.997	100.778	20.055	4.514	0.508
1263.999	719.990	79.998	19.997	100.777	20.056	4.458	0.521
1264.500	720.239	79.999	19.997	100.777	20.049	4.922	0.477
1265.000	720.476	79.997	19.996	100.774	20.054	4.634	0.470
1265.499	720.771	79.998	19.996	100.774	20.054	4.607	0.509
1265.999	721.025	79.998	19.996	100.773	20.056	4.469	0.541
1266.499	721.313	80.000	19.996	100.773	20.052	4.718	0.545
1267.000	721.520	80.001	19.996	100.773	20.055	4.521	0.518
1267.500	721.768	80.001	19.996	100.776	20.054	4.601	0.475
1267.999	722.031	79.997	19.994	100.774	20.056	4.492	0.483
1268.499	722.301	79.997	19.995	100.774	20.054	4.587	0.522
1268.999	722.532	79.998	19.997	100.774	20.054	4.617	0.517
1269.499	722.767	79.999	19.996	100.774	20.056	4.446	0.483
1269.999	723.031	79.998	19.996	100.773	20.056	4.455	0.483
1270.499	723.313	79.999	19.997	100.775	20.058	4.324	0.523
1270.999	723.554	79.998	19.996	100.777	20.057	4.412	0.534
1271.499	723.806	79.999	19.997	100.777	20.053	4.684	0.508
1271.999	724.045	79.998	19.997	100.776	20.055	4.569	0.493
1272.500	724.311	80.001	19.996	100.777	20.056	4.499	0.498
1273.001	724.547	80.002	19.998	100.777	20.057	4.439	0.503
1273.500	724.823	79.999	19.995	100.775	20.054	4.612	0.507
1273.999	725.071	80.000	20.000	100.775	20.057	4.433	0.518
1274.499	725.363	80.000	19.995	100.775	20.057	4.410	0.532
1274.999	725.619	79.999	19.995	100.774	20.061	4.156	0.544
1275.499	725.837	80.002	19.997	100.774	20.056	4.458	0.511
1275.999	726.034	79.999	19.997	100.774	20.057	4.444	0.444
1276.499	726.372	79.999	19.997	100.774	20.059	4.269	0.475
1276.999	726.611	80.001	19.997	100.774	20.054	4.591	0.556
1277.500	726.851	80.000	19.997	100.773	20.053	4.644	0.529
1278.001	727.126	79.999	19.997	100.773	20.054	4.591	0.497
1278.500	727.374	79.998	19.996	100.772	20.058	4.351	0.519
1278.999	727.618	79.999	19.995	100.771	20.056	4.492	0.508
1279.499	727.865	80.001	19.993	100.772	20.058	4.351	0.491
1279.999	728.136	80.001	19.997	100.772	20.054	4.618	0.505
1280.499	728.368	80.000	19.996	100.772	20.053	4.646	0.511
1280.999	728.630	80.001	19.995	100.772	20.056	4.494	0.499
1281.499	728.905	79.999	19.998	100.773	20.053	4.669	0.516
1281.999	729.184	79.999	19.998	100.774	20.057	4.417	0.546
1282.499	729.377	80.001	19.996	100.773	20.057	4.408	0.513
1282.999	729.657	80.000	19.997	100.773	20.055	4.550	0.472
1283.499	729.932	80.001	19.995	100.772	20.056	4.501	0.514
1283.999	730.163	80.001	19.996	100.771	20.058	4.321	0.531
1284.499	730.455	80.001	19.995	100.771	20.054	4.628	0.515
1284.999	730.685	79.998	19.995	100.771	20.058	4.348	0.522
1285.499	730.905	80.002	19.996	100.772	20.056	4.475	0.486
1285.999	731.178	80.000	19.996	100.774	20.055	4.519	0.471
1286.499	731.410	80.000	19.996	100.774	20.055	4.541	0.499
1286.999	731.728	80.000	19.996	100.774	20.056	4.456	0.528
1287.499	731.968	80.000	19.996	100.774	20.054	4.593	0.554
1287.999	732.230	80.001	19.995	100.773	20.056	4.475	0.530
1288.499	732.463	80.000	19.995	100.773	20.051	4.820	0.498
1288.999	732.725	79.999	19.997	100.772	20.056	4.452	0.495
1289.499	732.969	80.000	19.997	100.773	20.054	4.632	0.501
1289.999	733.231	79.999	19.997	100.773	20.054	4.580	0.506
1290.499	733.476	79.998	19.998	100.774	20.050	4.886	0.507
1290.999	733.769	79.998	19.996	100.775	20.054	4.605	0.522
1291.499	733.985	79.999	19.995	100.776	20.053	4.652	0.523
1291.999	734.226	79.999	19.996	100.777	20.054	4.594	0.483
1292.499	734.467	79.998	19.995	100.777	20.055	4.569	0.470
1292.999	734.766	79.998	19.996	100.778	20.054	4.596	0.511
1293.499	735.005	79.999	19.997	100.778	20.053	4.687	0.539
1293.999	735.258	79.999	19.997	100.778	20.052	4.730	0.515
1294.499	735.503	79.999	19.995	100.778	20.050	4.906	0.495
1294.999	735.761	80.000	19.996	100.777	20.051	4.791	0.501
1295.499	736.029	79.999	19.997	100.777	20.052	4.725	0.514
1296.000	736.267	79.999	19.995	100.777	20.052	4.716	0.515
1296.500	736.510	79.999	19.997	100.778	20.054	4.612	0.493
1296.999	736.799	79.998	19.997	100.774	20.055	4.525	0.506
1297.499	737.047	79.998	19.995	100.772	20.055	4.546	0.535
1297.999	737.289	79.999	19.996	100.773	20.049	4.920	0.514
1298.499	737.537	79.998	19.995	100.777	20.053	4.655	0.490
1298.999	737.796	79.999	19.997	100.778	20.049	4.942	0.499
1299.500	738.023	80.000	19.995	100.782	20.051	4.826	0.497
1300.000	738.277	80.000	19.996	100.783	20.046	5.123	0.483
1300.499	738.527	79.999	19.996	100.783	20.051	4.789	0.493
1300.999	738.766	79.998	19.997	100.778	20.047	5.099	0.497
1301.499	739.009	79.998	19.996	100.779	20.047	5.082	0.486
1301.999	739.246	79.997	19.997	100.779	20.050	4.885	0.481
1302.499	739.525	79.999	19.995	100.779	20.047	5.101	0.498
1302.999	739.775	79.998	19.995	100.779	20.047	5.100	0.522
1303.499	740.012	79.995	19.994	100.778	20.046	5.144	0.508
1304.000	740.249	79.997	19.996	100.778	20.049	4.939	0.481
1304.500	740.511	80.000	19.996	100.778	20.047	5.053	0.487
1304.999	740.750	79.999	19.995	100.778	20.049	4.957	0.500
1305.499	740.988	80.001	19.997	100.778	20.049	4.911	0.489
1306.000	741.213	80.000	19.995	100.779	20.051	4.788	0.470
1306.500	741.533	79.998	19.995	100.779	20.047	5.074	0.504
1307.000	741.760	79.998	19.996	100.779	20.053	4.698	0.547
1307.500	742.012	80.002	19.996	100.779	20.048	5.029	0.513
1308.000	742.239	79.999	19.996	100.780	20.050	4.874	0.479
1308.500	742.504	79.999	19.995	100.781	20.050	4.908	0.486
1308.999	742.753	79.999	19.995	100.781	20.048	5.004	0.503
1309.499	742.980	79.997	19.995	100.783	20.050	4.879	0.495
1309.999	743.261	79.999	19.996	100.787	20.051	4.799	0.492
1310.499	743.476	79.999	19.995	100.790	20.053	4.695	0.502
