Sample ID:	C:\MCC\MCC Cal\Test\Ext_Plywood_MCC_30K_min_211006_R2.txt
Sample Weight (mg):	4.55
Heating Rate (C/s):	0.5
Combustor Temp (C):	900
N2 Flow Rate (cc/min):	80
O2 Flow Rate (cc/min):	20
Calibration File:	C:\MCC\MCC Cal\Coeff1 JN10440_30_210304.txt.txt
T Correction Coefficients:	0	1.024463	0
Time Shift (s):	14
*
Time (s)	Temperature (C)	N2 flow rate (cc/min)	O2 flow rate (cc/min)	Flow Rate (cc/min)	Oxygen (%)	HRR (W/g)	Heating rate (C/s)
0.000	108.794	79.997	19.996	100.738	20.056	0.119	-0.030
0.500	108.798	79.998	19.995	100.739	20.055	0.153	-0.033
1.000	108.767	79.999	19.995	100.739	20.051	0.474	-0.023
1.500	108.770	79.999	19.996	100.738	20.051	0.413	-0.027
2.000	108.748	79.999	19.994	100.738	20.053	0.273	-0.024
2.500	108.771	79.999	19.995	100.738	20.055	0.147	-0.009
3.000	108.772	80.000	19.995	100.738	20.054	0.250	0.012
3.500	108.785	80.000	19.995	100.739	20.053	0.302	0.019
4.000	108.787	79.997	19.994	100.739	20.057	0.045	0.015
4.500	108.797	80.000	19.995	100.740	20.053	0.323	0.014
5.000	108.777	80.000	19.996	100.739	20.055	0.174	0.001
5.501	108.766	80.000	19.996	100.739	20.054	0.230	-0.021
6.001	108.770	79.999	19.995	100.738	20.055	0.146	-0.018
6.500	108.756	79.999	19.995	100.739	20.054	0.200	-0.008
7.000	108.778	79.998	19.995	100.739	20.051	0.420	-0.001
7.500	108.774	79.999	19.995	100.741	20.051	0.463	0.013
8.000	108.754	79.997	19.995	100.746	20.051	0.450	-0.003
8.501	108.768	80.000	19.996	100.751	20.051	0.473	-0.015
9.001	108.757	79.999	19.996	100.757	20.051	0.420	-0.001
9.500	108.779	79.998	19.996	100.761	20.051	0.461	0.007
10.000	108.733	79.998	19.996	100.762	20.049	0.570	-0.007
10.501	108.705	80.001	19.995	100.763	20.051	0.454	-0.049
11.001	108.767	79.998	19.996	100.765	20.049	0.561	-0.020
11.501	108.736	79.999	19.996	100.767	20.049	0.598	0.033
12.001	108.753	79.999	19.996	100.770	20.048	0.622	0.008
12.501	108.729	79.999	19.995	100.775	20.045	0.822	-0.011
13.001	108.730	79.999	19.996	100.777	20.048	0.626	-0.015
13.500	108.762	79.999	19.996	100.776	20.050	0.512	0.005
14.000	108.788	80.000	19.996	100.777	20.046	0.821	0.045
14.500	108.759	79.999	19.996	100.777	20.043	0.976	0.028
15.000	108.747	79.997	19.996	100.781	20.043	1.025	-0.021
15.500	108.752	80.000	19.996	100.785	20.045	0.860	-0.024
16.000	108.784	79.999	19.996	100.788	20.042	1.056	0.015
16.500	108.751	79.999	19.996	100.789	20.041	1.126	0.018
17.000	108.782	79.998	19.995	100.795	20.040	1.202	-0.001
17.500	108.745	80.000	19.996	100.799	20.040	1.191	-0.004
18.000	108.792	80.000	19.996	100.801	20.039	1.296	0.002
18.500	108.822	79.999	19.997	100.807	20.039	1.298	0.044
19.000	108.849	80.002	19.997	100.815	20.042	1.085	0.067
19.500	108.880	79.999	19.996	100.825	20.035	1.518	0.057
20.000	108.896	79.998	19.997	100.832	20.037	1.380	0.052
20.500	108.892	80.001	19.996	100.841	20.036	1.483	0.029
21.000	108.927	80.000	19.996	100.848	20.035	1.524	0.022
21.500	108.865	80.003	19.996	100.852	20.035	1.524	0.002
22.000	108.947	80.002	19.995	100.853	20.033	1.685	-0.004
22.500	108.924	79.998	19.997	100.853	20.035	1.519	0.039
23.000	108.955	80.000	19.996	100.859	20.029	1.973	0.033
23.500	108.994	80.001	19.996	100.868	20.027	2.071	0.039
24.000	109.010	79.999	19.996	100.881	20.027	2.125	0.063
24.500	109.058	80.002	19.995	100.896	20.024	2.325	0.060
25.000	109.085	80.000	19.996	100.911	20.025	2.267	0.069
25.500	109.146	80.000	19.996	100.921	20.026	2.201	0.081
26.000	109.159	79.999	19.995	100.928	20.025	2.215	0.081
26.500	109.207	79.999	19.995	100.932	20.020	2.611	0.068
27.000	109.296	80.000	19.996	100.933	20.022	2.417	0.099
27.500	109.327	80.001	19.995	100.933	20.019	2.626	0.128
28.000	109.361	80.001	19.995	100.936	20.019	2.673	0.092
28.500	109.432	80.000	19.996	100.939	20.016	2.864	0.085
29.000	109.460	79.999	19.995	100.942	20.018	2.709	0.102
29.500	109.516	80.000	19.995	100.943	20.018	2.740	0.092
30.001	109.572	80.000	19.995	100.944	20.016	2.836	0.098
30.500	109.649	80.002	19.995	100.942	20.015	2.961	0.122
31.000	109.674	80.000	19.995	100.942	20.015	2.954	0.117
31.500	109.761	79.998	19.996	100.943	20.014	2.989	0.107
32.000	109.818	79.998	19.996	100.949	20.016	2.841	0.128
32.500	109.904	79.999	19.996	100.953	20.013	3.066	0.143
33.000	109.943	79.999	19.996	100.957	20.016	2.860	0.134
33.500	110.030	79.999	19.995	100.962	20.013	3.077	0.126
34.000	110.129	79.997	19.996	100.965	20.010	3.256	0.156
34.500	110.234	79.998	19.995	100.963	20.010	3.294	0.195
35.000	110.304	80.001	19.995	100.962	20.012	3.152	0.189
35.500	110.350	79.998	19.996	100.963	20.012	3.174	0.146
36.000	110.453	79.998	19.995	100.961	20.012	3.144	0.133
36.500	110.550	79.998	19.995	100.962	20.008	3.409	0.174
37.000	110.627	79.999	19.996	100.966	20.007	3.477	0.187
37.500	110.706	79.999	19.995	100.970	20.006	3.561	0.165
38.000	110.843	79.999	19.995	100.972	20.009	3.367	0.186
38.500	110.882	80.001	19.995	100.974	20.009	3.333	0.196
39.000	110.995	79.999	19.995	100.974	20.008	3.403	0.164
39.500	111.078	79.999	19.996	100.974	20.009	3.374	0.174
40.000	111.182	79.998	19.995	100.974	20.007	3.477	0.192
40.500	111.301	79.998	19.996	100.974	20.009	3.382	0.205
41.000	111.379	80.002	19.996	100.974	20.004	3.709	0.210
41.500	111.483	80.000	19.996	100.974	20.007	3.516	0.190
42.000	111.638	80.000	19.996	100.974	20.006	3.539	0.221
42.500	111.701	79.999	19.996	100.973	20.007	3.470	0.239
43.000	111.842	80.000	19.997	100.972	20.006	3.552	0.211
43.500	111.940	79.999	19.997	100.970	20.007	3.519	0.222
44.001	112.063	80.000	19.997	100.966	20.007	3.464	0.230
44.501	112.205	80.001	19.995	100.965	20.004	3.702	0.243
45.000	112.300	80.001	19.996	100.964	20.009	3.337	0.251
45.500	112.422	80.003	19.996	100.962	20.007	3.468	0.227
46.000	112.542	79.999	19.996	100.962	20.006	3.537	0.229
46.501	112.636	80.000	19.997	100.960	20.005	3.649	0.228
47.001	112.760	80.002	19.995	100.955	20.007	3.479	0.216
47.500	112.898	80.001	19.996	100.953	20.011	3.217	0.240
48.000	113.021	80.001	19.996	100.954	20.011	3.182	0.261
48.500	113.166	79.999	19.996	100.955	20.007	3.486	0.264
49.000	113.244	80.000	19.996	100.961	20.006	3.582	0.246
49.500	113.437	80.000	19.997	100.966	20.010	3.297	0.247
50.000	113.532	80.001	19.996	100.970	20.010	3.277	0.279
50.501	113.650	80.003	19.996	100.969	20.007	3.509	0.250
51.001	113.756	80.000	19.996	100.966	20.010	3.311	0.219
51.500	113.852	79.999	19.996	100.965	20.010	3.314	0.213
52.000	114.044	80.001	19.995	100.962	20.004	3.668	0.245
52.500	114.178	80.001	19.996	100.962	20.008	3.406	0.307
53.001	114.257	80.001	19.995	100.964	20.006	3.542	0.270
53.501	114.401	79.999	19.995	100.967	20.008	3.411	0.218
54.000	114.535	79.998	19.995	100.967	20.010	3.275	0.250
54.500	114.727	80.000	19.996	100.969	20.007	3.503	0.302
55.000	114.865	79.999	19.997	100.969	20.008	3.404	0.328
55.500	114.942	79.998	19.996	100.970	20.011	3.236	0.273
56.000	115.073	80.001	19.996	100.972	20.008	3.433	0.212
56.501	115.257	79.999	19.996	100.969	20.010	3.257	0.261
57.001	115.372	79.999	19.995	100.970	20.012	3.118	0.306
57.501	115.550	79.999	19.996	100.968	20.010	3.294	0.296
58.000	115.726	79.999	19.996	100.967	20.008	3.421	0.324
58.500	115.830	80.000	19.995	100.963	20.005	3.640	0.317
59.001	115.936	79.999	19.995	100.962	20.006	3.534	0.245
59.501	116.129	79.999	19.995	100.959	20.008	3.401	0.255
60.000	116.255	80.000	19.995	100.958	20.010	3.249	0.309
60.500	116.380	79.999	19.995	100.954	20.007	3.472	0.285
61.001	116.580	80.000	19.997	100.954	20.011	3.199	0.289
61.501	116.746	79.997	19.995	100.959	20.008	3.406	0.346
62.001	116.902	79.999	19.994	100.960	20.010	3.274	0.344
62.501	117.007	79.997	19.995	100.960	20.006	3.562	0.291
63.000	117.192	79.999	19.995	100.962	20.009	3.322	0.275
63.500	117.359	79.998	19.995	100.962	20.008	3.397	0.321
64.000	117.505	79.997	19.994	100.957	20.008	3.395	0.333
64.500	117.649	79.997	19.996	100.954	20.006	3.558	0.301
65.000	117.818	79.999	19.995	100.955	20.005	3.618	0.301
65.500	117.961	80.000	19.995	100.957	20.006	3.584	0.313
66.000	118.186	80.000	19.995	100.960	20.004	3.709	0.340
66.500	118.305	79.999	19.995	100.966	20.008	3.431	0.356
67.000	118.464	79.999	19.995	100.971	20.002	3.803	0.311
67.500	118.607	80.000	19.995	100.971	20.004	3.689	0.290
68.000	118.757	79.999	19.995	100.972	20.004	3.687	0.297
68.500	118.927	80.000	19.996	100.972	20.007	3.455	0.306
69.000	119.102	79.998	19.995	100.972	20.007	3.470	0.333
69.500	119.268	80.000	19.996	100.972	20.006	3.537	0.343
70.000	119.414	80.000	19.996	100.972	20.007	3.504	0.326
70.500	119.621	79.999	19.996	100.971	20.004	3.685	0.332
71.001	119.780	80.000	19.997	100.971	20.003	3.758	0.360
71.501	119.916	79.999	19.998	100.971	20.004	3.698	0.331
72.000	120.096	79.999	19.995	100.971	20.006	3.558	0.306
72.500	120.255	80.000	19.996	100.971	20.003	3.737	0.328
73.000	120.462	80.000	19.996	100.971	20.003	3.780	0.353
73.500	120.632	79.997	19.997	100.971	20.003	3.769	0.372
74.000	120.785	79.996	19.995	100.971	20.005	3.618	0.350
74.500	120.986	80.000	19.996	100.972	20.004	3.730	0.338
75.000	121.142	79.998	19.996	100.972	20.005	3.635	0.355
75.500	121.310	79.999	19.995	100.972	20.006	3.554	0.340
76.000	121.489	79.999	19.996	100.972	20.005	3.657	0.336
76.500	121.668	79.999	19.995	100.972	20.007	3.513	0.353
77.000	121.883	80.001	19.996	100.971	20.005	3.597	0.376
77.501	122.019	79.998	19.995	100.972	20.008	3.431	0.372
78.001	122.218	79.997	19.995	100.971	20.003	3.766	0.343
78.501	122.365	80.000	19.995	100.971	20.006	3.577	0.341
79.000	122.514	79.999	19.996	100.971	20.006	3.560	0.321
79.500	122.751	80.000	19.996	100.972	20.005	3.603	0.341
80.000	122.936	79.999	19.996	100.972	20.006	3.565	0.403
80.501	123.090	80.000	19.995	100.972	20.003	3.756	0.381
81.001	123.294	79.998	19.996	100.972	20.005	3.653	0.349
81.500	123.454	80.000	19.995	100.972	20.005	3.605	0.361
82.000	123.674	79.999	19.996	100.972	20.004	3.672	0.372
82.501	123.818	80.000	19.996	100.971	20.004	3.708	0.372
83.001	124.029	79.999	19.996	100.971	20.006	3.536	0.360
83.500	124.236	79.998	19.996	100.971	20.004	3.700	0.387
84.000	124.398	79.999	19.995	100.972	20.004	3.713	0.394
84.500	124.568	79.998	19.996	100.971	20.005	3.659	0.350
85.001	124.791	79.999	19.995	100.971	20.003	3.786	0.362
85.501	124.960	79.999	19.995	100.971	20.002	3.837	0.393
86.000	125.145	80.000	19.997	100.971	20.004	3.713	0.373
86.501	125.373	80.000	19.995	100.972	20.004	3.721	0.384
87.001	125.500	79.999	19.996	100.972	20.003	3.766	0.384
87.500	125.694	79.998	19.995	100.973	20.002	3.839	0.338
88.000	125.905	79.999	19.995	100.973	20.000	3.949	0.363
88.500	126.091	79.998	19.994	100.974	19.999	4.063	0.401
89.000	126.292	79.999	19.996	100.973	20.002	3.845	0.392
89.500	126.501	79.997	19.996	100.973	20.005	3.656	0.398
90.000	126.672	79.999	19.996	100.973	20.002	3.865	0.395
90.500	126.872	79.998	19.995	100.973	20.005	3.637	0.376
91.000	127.057	79.998	19.995	100.973	20.000	3.985	0.378
91.500	127.241	79.999	19.995	100.974	19.999	4.069	0.377
92.000	127.436	79.999	19.995	100.974	19.996	4.263	0.374
92.500	127.651	79.998	19.996	100.974	20.002	3.820	0.395
93.000	127.825	79.999	19.996	100.974	19.997	4.190	0.400
93.500	128.066	79.999	19.996	100.975	20.002	3.820	0.402
94.000	128.248	80.000	19.995	100.975	20.001	3.893	0.419
94.500	128.453	80.001	19.996	100.976	19.997	4.164	0.405
95.000	128.651	79.999	19.995	100.976	20.001	3.878	0.395
95.501	128.831	80.000	19.996	100.975	20.003	3.751	0.390
96.001	129.047	79.999	19.995	100.977	20.000	3.955	0.388
96.500	129.297	80.000	19.996	100.977	20.000	3.963	0.431
97.000	129.446	80.001	19.996	100.978	19.998	4.114	0.432
97.500	129.652	79.998	19.995	100.979	20.001	3.918	0.377
98.000	129.836	79.999	19.996	100.980	20.000	4.004	0.373
98.501	130.076	79.999	19.994	100.980	20.000	3.957	0.408
99.001	130.265	80.001	19.995	100.981	20.002	3.828	0.426
99.500	130.474	80.000	19.996	100.981	20.001	3.878	0.413
100.000	130.682	80.000	19.996	100.983	19.999	4.050	0.407
100.500	130.904	80.001	19.995	100.982	20.000	3.957	0.424
101.000	131.105	79.999	19.995	100.982	20.000	3.996	0.427
101.500	131.265	80.000	19.994	100.981	20.002	3.816	0.392
102.000	131.502	79.999	19.995	100.980	20.003	3.775	0.379
102.500	131.712	80.000	19.995	100.979	19.998	4.078	0.422
103.000	131.924	80.002	19.996	100.979	20.001	3.873	0.434
103.501	132.139	80.001	19.995	100.979	20.000	3.992	0.424
104.001	132.333	80.000	19.995	100.979	19.999	4.020	0.418
104.501	132.591	80.001	19.996	100.979	20.001	3.871	0.431
105.000	132.751	80.001	19.995	100.981	19.999	4.020	0.436
105.500	132.959	80.001	19.996	100.982	19.999	4.039	0.393
106.000	133.137	80.001	19.996	100.984	20.002	3.837	0.376
106.500	133.373	80.000	19.996	100.987	20.001	3.929	0.400
107.001	133.588	80.000	19.996	100.989	20.003	3.796	0.433
107.501	133.817	80.000	19.996	100.990	20.000	3.940	0.447
108.000	134.041	79.999	19.995	100.989	20.002	3.811	0.449
108.500	134.271	80.002	19.997	100.986	19.999	4.028	0.454
109.000	134.505	80.001	19.996	100.982	19.998	4.133	0.459
109.500	134.695	80.000	19.995	100.981	19.999	4.045	0.444
110.000	134.960	79.999	19.995	100.979	19.999	4.056	0.439
110.501	135.148	79.999	19.996	100.979	20.002	3.822	0.454
111.001	135.337	80.000	19.996	100.981	20.002	3.852	0.415
111.500	135.564	79.999	19.996	100.984	20.000	4.005	0.397
112.000	135.779	80.000	19.996	100.984	19.999	4.024	0.429
112.500	135.992	80.000	19.997	100.983	20.002	3.858	0.435
113.000	136.216	80.000	19.998	100.984	20.000	3.955	0.432
113.500	136.443	80.000	19.996	100.981	20.000	3.979	0.444
114.000	136.645	79.998	19.995	100.981	20.002	3.839	0.440
114.500	136.906	79.998	19.996	100.980	19.997	4.187	0.446
115.000	137.136	79.999	19.996	100.981	19.998	4.140	0.477
115.500	137.333	79.998	19.996	100.980	19.998	4.129	0.459
116.000	137.578	79.999	19.996	100.981	19.997	4.209	0.434
116.500	137.859	79.997	19.996	100.980	19.995	4.310	0.484
117.000	138.047	80.001	19.997	100.981	19.995	4.322	0.498
117.500	138.214	80.000	19.997	100.982	19.999	4.043	0.412
118.000	138.475	79.999	19.995	100.982	19.999	4.063	0.391
118.500	138.699	79.999	19.996	100.981	19.995	4.293	0.456
119.001	138.906	79.997	19.996	100.981	19.997	4.202	0.458
119.501	139.171	80.003	19.996	100.981	19.997	4.153	0.451
120.000	139.366	79.999	19.996	100.982	19.993	4.458	0.466
120.500	139.585	79.999	19.996	100.982	19.992	4.503	0.437
121.000	139.845	80.000	19.995	100.981	19.996	4.237	0.447
121.500	140.072	80.000	19.996	100.982	19.996	4.284	0.483
122.000	140.309	80.001	19.995	100.983	19.998	4.080	0.476
122.500	140.519	80.000	19.995	100.981	19.999	4.069	0.456
123.000	140.759	80.001	19.995	100.983	19.997	4.148	0.449
123.500	140.958	80.001	19.996	100.985	19.998	4.127	0.445
124.000	141.196	80.000	19.997	100.983	19.995	4.291	0.438
124.500	141.474	80.002	19.996	100.985	19.995	4.321	0.476
125.000	141.680	80.001	19.996	100.983	19.995	4.299	0.500
125.501	141.877	80.002	19.997	100.979	19.995	4.342	0.444
126.001	142.088	80.004	19.995	100.982	19.995	4.349	0.406
126.500	142.314	80.002	19.997	100.983	19.995	4.318	0.422
127.000	142.575	80.002	19.996	100.979	19.991	4.596	0.462
127.500	142.811	80.001	19.996	100.982	19.992	4.516	0.492
128.000	143.049	80.002	19.995	100.984	19.995	4.344	0.486
128.500	143.281	80.003	19.995	100.983	19.994	4.417	0.472
129.000	143.514	80.000	19.996	100.981	19.993	4.475	0.467
129.500	143.732	80.001	19.996	100.982	19.994	4.421	0.458
130.000	143.973	80.001	19.996	100.980	19.994	4.392	0.455
130.500	144.234	80.002	19.996	100.978	19.996	4.263	0.481
131.000	144.466	80.001	19.995	100.975	19.993	4.437	0.498
131.500	144.688	80.002	19.997	100.976	19.996	4.228	0.473
132.000	144.918	80.001	19.995	100.978	19.994	4.387	0.453
132.500	145.166	80.002	19.995	100.981	19.992	4.521	0.465
133.000	145.429	80.001	19.995	100.984	19.994	4.390	0.495
133.500	145.635	80.000	19.996	100.987	19.993	4.430	0.490
134.000	145.866	80.001	19.994	100.985	19.991	4.594	0.453
134.500	146.117	80.001	19.997	100.981	19.993	4.447	0.460
135.000	146.352	80.000	19.996	100.977	19.993	4.432	0.484
135.500	146.564	80.001	19.996	100.974	19.998	4.113	0.466
136.000	146.787	80.000	19.996	100.971	19.994	4.409	0.441
136.500	147.072	80.001	19.996	100.974	19.994	4.370	0.471
137.000	147.287	80.000	19.998	100.977	19.995	4.338	0.504
137.500	147.519	80.000	19.998	100.977	19.996	4.274	0.473
138.000	147.733	80.001	19.997	100.978	19.996	4.261	0.446
138.500	148.003	79.999	19.998	100.978	19.991	4.628	0.465
139.000	148.236	79.999	19.998	100.977	19.993	4.475	0.494
139.500	148.498	79.998	19.997	100.976	19.994	4.372	0.499
140.000	148.742	79.998	19.997	100.976	19.995	4.314	0.500
140.500	148.965	80.000	19.998	100.979	19.991	4.577	0.487
141.000	149.214	79.998	19.998	100.977	19.993	4.424	0.470
141.500	149.458	79.999	19.997	100.976	19.993	4.484	0.482
142.000	149.728	79.998	19.997	100.975	19.990	4.637	0.503
142.500	150.002	79.998	19.996	100.975	19.992	4.495	0.528
143.000	150.217	79.999	19.998	100.973	19.991	4.615	0.516
143.500	150.432	79.998	19.996	100.975	19.994	4.388	0.460
144.000	150.704	79.998	19.996	100.975	19.996	4.241	0.459
144.500	150.940	79.998	19.998	100.976	19.993	4.480	0.498
145.000	151.142	79.998	19.996	100.975	19.997	4.207	0.473
145.500	151.366	79.998	19.996	100.975	19.992	4.512	0.432
146.000	151.694	79.999	19.997	100.973	19.995	4.353	0.489
146.500	151.924	79.999	19.997	100.973	19.992	4.495	0.555
147.000	152.161	79.998	19.995	100.972	19.989	4.738	0.513
147.500	152.412	79.999	19.997	100.974	19.995	4.295	0.477
148.000	152.675	79.998	19.996	100.974	19.992	4.512	0.501
148.500	152.895	79.999	19.996	100.975	19.994	4.418	0.498
149.000	153.130	79.998	19.996	100.975	19.995	4.317	0.469
149.500	153.376	79.998	19.997	100.975	19.991	4.592	0.468
150.000	153.640	79.998	19.997	100.973	19.992	4.553	0.496
150.500	153.896	79.999	19.996	100.973	19.990	4.660	0.515
151.000	154.130	79.998	19.997	100.973	19.993	4.439	0.505
151.500	154.344	79.998	19.996	100.973	19.991	4.621	0.468
152.000	154.599	79.998	19.996	100.973	19.991	4.592	0.458
152.500	154.827	80.000	19.996	100.973	19.988	4.791	0.476
153.000	155.059	79.998	19.996	100.972	19.988	4.806	0.472
153.500	155.287	79.999	19.995	100.972	19.990	4.692	0.460
154.000	155.526	79.999	19.996	100.972	19.989	4.710	0.463
154.500	155.765	80.000	19.997	100.972	19.991	4.624	0.472
155.000	156.041	80.000	19.995	100.972	19.991	4.626	0.497
155.500	156.294	79.999	19.996	100.973	19.991	4.611	0.522
156.000	156.520	79.998	19.996	100.973	19.991	4.576	0.504
156.500	156.782	80.000	19.996	100.973	19.990	4.693	0.484
157.000	157.016	80.000	19.995	100.974	19.990	4.692	0.492
157.500	157.256	80.001	19.996	100.975	19.989	4.757	0.485
158.000	157.543	80.000	19.996	100.975	19.989	4.731	0.501
158.500	157.803	80.000	19.996	100.975	19.988	4.780	0.537
159.000	158.059	79.998	19.996	100.975	19.990	4.665	0.531
159.500	158.283	80.000	19.996	100.974	19.989	4.757	0.498
160.000	158.561	79.998	19.995	100.974	19.989	4.710	0.491
160.500	158.762	79.999	19.997	100.975	19.990	4.699	0.491
161.000	158.983	79.999	19.996	100.975	19.991	4.619	0.450
161.500	159.276	80.000	19.994	100.975	19.991	4.583	0.468
162.000	159.504	79.999	19.996	100.975	19.987	4.888	0.518
162.500	159.734	79.998	19.996	100.975	19.990	4.650	0.490
163.000	160.006	79.998	19.996	100.975	19.989	4.722	0.480
163.500	160.260	80.001	19.995	100.975	19.990	4.699	0.514
164.000	160.490	79.999	19.996	100.976	19.987	4.849	0.505
164.500	160.725	80.000	19.996	100.976	19.989	4.755	0.475
165.000	160.972	79.999	19.996	100.976	19.987	4.875	0.474
165.500	161.228	79.998	19.995	100.976	19.985	4.998	0.492
166.000	161.482	79.998	19.995	100.975	19.986	4.955	0.506
166.500	161.758	79.999	19.995	100.974	19.985	5.045	0.520
167.000	161.958	79.998	19.996	100.973	19.985	4.991	0.503
167.500	162.261	79.998	19.995	100.973	19.989	4.759	0.490
168.000	162.457	79.998	19.995	100.974	19.988	4.796	0.502
168.500	162.751	79.998	19.996	100.974	19.988	4.836	0.495
169.000	162.992	79.999	19.994	100.974	19.986	4.938	0.512
169.500	163.201	80.000	19.995	100.975	19.986	4.912	0.492
170.000	163.524	79.998	19.996	100.975	19.987	4.880	0.491
170.500	163.763	79.999	19.995	100.975	19.986	4.934	0.547
171.000	164.027	79.998	19.997	100.975	19.991	4.603	0.533
171.500	164.219	80.000	19.996	100.975	19.987	4.848	0.479
172.000	164.532	79.999	19.996	100.975	19.988	4.824	0.480
172.500	164.711	79.998	19.996	100.975	19.987	4.886	0.499
173.000	165.033	79.998	19.996	100.974	19.986	4.942	0.497
173.500	165.281	79.998	19.997	100.974	19.989	4.764	0.535
174.000	165.532	79.999	19.996	100.974	19.988	4.776	0.534
174.500	165.782	79.999	19.997	100.974	19.989	4.742	0.500
175.000	166.044	79.997	19.996	100.974	19.987	4.871	0.507
175.500	166.248	79.998	19.997	100.976	19.987	4.841	0.489
176.000	166.550	79.998	19.995	100.976	19.988	4.807	0.486
176.500	166.787	79.999	19.997	100.976	19.986	4.947	0.523
177.000	167.033	79.997	19.996	100.976	19.989	4.741	0.511
177.500	167.272	79.997	19.997	100.976	19.984	5.046	0.484
178.000	167.537	79.998	19.996	100.976	19.985	5.015	0.494
178.500	167.790	79.998	19.997	100.975	19.987	4.897	0.511
179.000	168.028	79.998	19.996	100.974	19.987	4.841	0.504
179.500	168.283	79.998	19.997	100.972	19.988	4.773	0.492
180.000	168.507	79.998	19.995	100.969	19.987	4.874	0.486
180.500	168.760	79.998	19.995	100.964	19.989	4.743	0.478
181.000	168.998	79.999	19.996	100.960	19.986	4.916	0.484
181.500	169.305	79.999	19.996	100.959	19.989	4.729	0.518
182.000	169.548	79.999	19.996	100.960	19.985	5.019	0.548
182.500	169.789	79.998	19.997	100.960	19.985	5.032	0.517
183.000	170.033	79.999	19.997	100.964	19.987	4.877	0.485
183.500	170.286	79.999	19.996	100.969	19.985	4.988	0.491
184.000	170.525	79.999	19.996	100.969	19.983	5.160	0.494
184.500	170.784	79.999	19.995	100.968	19.984	5.106	0.495
185.000	171.029	80.001	19.996	100.972	19.989	4.765	0.501
185.500	171.320	79.999	19.996	100.970	19.987	4.887	0.520
186.000	171.548	79.999	19.995	100.969	19.986	4.971	0.527
186.500	171.847	79.999	19.994	100.966	19.986	4.954	0.523
187.000	172.060	79.998	19.995	100.964	19.987	4.885	0.520
187.500	172.315	80.001	19.995	100.960	19.985	5.034	0.490
188.000	172.584	80.001	19.995	100.960	19.978	5.517	0.496
188.500	172.793	80.001	19.995	100.960	19.984	5.090	0.501
189.000	173.080	80.000	19.996	100.963	19.980	5.339	0.487
189.500	173.342	80.000	19.997	100.964	19.985	5.040	0.523
190.000	173.590	80.001	19.996	100.960	19.984	5.077	0.530
190.500	173.829	79.999	19.996	100.955	19.981	5.279	0.498
191.000	174.087	80.001	19.995	100.950	19.984	5.090	0.492
191.500	174.352	79.999	19.994	100.944	19.982	5.204	0.510
192.000	174.626	80.000	19.996	100.941	19.979	5.432	0.531
192.500	174.901	80.001	19.996	100.943	19.978	5.515	0.544
193.000	175.156	80.000	19.996	100.943	19.976	5.659	0.540
193.500	175.391	80.000	19.995	100.944	19.975	5.687	0.510
194.000	175.614	80.001	19.993	100.946	19.977	5.558	0.474
194.500	175.854	79.999	19.996	100.949	19.979	5.405	0.460
195.000	176.141	80.000	19.995	100.951	19.976	5.603	0.494
195.500	176.341	80.001	19.996	100.950	19.975	5.715	0.507
196.000	176.635	80.001	19.996	100.951	19.976	5.659	0.491
196.500	176.854	80.000	19.995	100.951	19.978	5.502	0.503
197.000	177.092	80.000	19.995	100.948	19.977	5.582	0.485
197.500	177.340	80.000	19.995	100.947	19.977	5.593	0.472
198.000	177.591	80.000	19.996	100.947	19.979	5.408	0.493
198.500	177.847	79.999	19.996	100.946	19.978	5.473	0.503
199.000	178.099	80.000	19.996	100.945	19.975	5.679	0.507
199.500	178.371	80.000	19.995	100.945	19.976	5.649	0.516
200.000	178.653	79.999	19.996	100.944	19.976	5.613	0.539
200.500	178.921	79.998	19.996	100.945	19.978	5.470	0.552
201.000	179.122	80.000	19.996	100.944	19.974	5.802	0.509
201.500	179.344	80.000	19.997	100.943	19.975	5.722	0.446
202.000	179.621	80.000	19.995	100.942	19.974	5.793	0.461
202.500	179.896	79.999	19.997	100.941	19.971	5.978	0.526
203.000	180.134	80.001	19.998	100.940	19.970	6.036	0.532
203.500	180.365	80.001	19.998	100.942	19.975	5.718	0.491
204.000	180.627	80.000	19.994	100.942	19.971	5.956	0.481
204.500	180.911	79.999	19.996	100.942	19.975	5.726	0.520
205.000	181.161	79.999	19.995	100.942	19.974	5.741	0.541
205.500	181.408	79.999	19.998	100.943	19.972	5.909	0.516
206.000	181.648	80.000	19.995	100.940	19.975	5.727	0.492
206.500	181.869	80.000	19.997	100.939	19.974	5.769	0.474
207.000	182.126	80.001	19.996	100.939	19.972	5.922	0.469
207.500	182.327	80.001	19.998	100.938	19.971	5.950	0.468
208.000	182.584	80.001	19.995	100.937	19.973	5.846	0.458
208.500	182.876	80.001	19.999	100.938	19.967	6.242	0.503
209.000	183.142	80.000	19.996	100.937	19.968	6.152	0.554
209.500	183.347	80.001	19.997	100.936	19.968	6.162	0.515
210.000	183.584	80.000	19.996	100.937	19.972	5.890	0.456
210.500	183.857	80.002	19.998	100.935	19.974	5.754	0.476
211.000	184.129	80.000	19.997	100.933	19.971	5.952	0.527
211.500	184.380	80.002	19.996	100.936	19.971	5.959	0.534
212.000	184.632	80.003	19.997	100.937	19.966	6.309	0.513
212.500	184.881	80.001	19.997	100.936	19.970	6.042	0.502
213.000	185.143	80.003	19.995	100.936	19.973	5.872	0.506
213.500	185.380	80.002	19.995	100.936	19.969	6.085	0.505
214.001	185.610	80.002	19.997	100.933	19.969	6.083	0.484
214.501	185.909	80.001	19.996	100.933	19.968	6.188	0.498
215.000	186.179	80.001	19.997	100.933	19.967	6.257	0.549
215.500	186.394	80.003	19.997	100.933	19.965	6.363	0.527
216.000	186.614	80.001	19.996	100.933	19.968	6.163	0.460
216.500	186.920	80.001	19.996	100.933	19.967	6.270	0.481
217.000	187.170	80.001	19.996	100.933	19.968	6.158	0.541
217.500	187.428	80.000	19.997	100.933	19.967	6.225	0.532
218.000	187.652	80.001	19.995	100.932	19.964	6.476	0.495
218.500	187.937	80.001	19.996	100.934	19.964	6.442	0.495
219.000	188.122	80.002	19.996	100.939	19.967	6.279	0.489
219.500	188.473	80.001	19.995	100.939	19.967	6.246	0.503
220.000	188.681	80.000	19.995	100.937	19.968	6.219	0.548
220.500	188.904	80.001	19.995	100.937	19.965	6.378	0.495
221.000	189.177	79.998	19.996	100.936	19.963	6.530	0.463
221.500	189.414	79.999	19.996	100.932	19.963	6.558	0.503
222.000	189.651	79.999	19.996	100.933	19.966	6.317	0.492
222.500	189.874	79.998	19.996	100.933	19.967	6.281	0.467
223.000	190.143	79.998	19.996	100.935	19.966	6.335	0.476
223.500	190.400	79.997	19.996	100.938	19.963	6.549	0.509
224.000	190.654	79.999	19.995	100.938	19.965	6.382	0.518
224.500	190.890	79.999	19.996	100.939	19.962	6.571	0.500
225.000	191.170	79.998	19.996	100.939	19.965	6.365	0.503
225.500	191.376	79.997	19.997	100.938	19.965	6.365	0.501
226.000	191.626	79.999	19.996	100.936	19.968	6.219	0.471
226.500	191.911	79.997	19.996	100.935	19.961	6.648	0.496
227.000	192.172	79.999	19.997	100.936	19.964	6.472	0.540
227.500	192.394	79.998	19.996	100.936	19.962	6.608	0.514
228.000	192.678	79.996	19.995	100.937	19.964	6.455	0.495
228.500	192.919	79.998	19.997	100.937	19.964	6.477	0.516
229.000	193.114	79.998	19.996	100.937	19.964	6.461	0.481
229.500	193.425	79.998	19.997	100.936	19.962	6.603	0.471
230.000	193.615	79.999	19.997	100.936	19.962	6.614	0.504
230.500	193.893	79.996	19.995	100.936	19.963	6.552	0.484
231.000	194.150	79.997	19.998	100.936	19.961	6.670	0.501
231.500	194.411	79.996	19.997	100.937	19.963	6.502	0.527
232.000	194.661	79.997	19.998	100.937	19.961	6.646	0.515
232.500	194.895	79.998	19.996	100.938	19.966	6.326	0.497
233.000	195.177	79.997	19.997	100.937	19.963	6.522	0.500
233.500	195.389	79.998	19.997	100.938	19.959	6.821	0.505
234.001	195.621	79.998	19.997	100.937	19.960	6.709	0.469
234.500	195.876	79.997	19.996	100.937	19.960	6.754	0.466
235.000	196.108	79.996	19.998	100.936	19.960	6.737	0.487
235.500	196.393	79.997	19.998	100.936	19.959	6.799	0.502
236.000	196.612	79.999	19.997	100.934	19.961	6.657	0.511
236.500	196.884	79.997	19.996	100.934	19.959	6.794	0.497
237.000	197.136	79.997	19.998	100.934	19.960	6.745	0.507
237.500	197.373	79.997	19.996	100.934	19.961	6.678	0.507
238.000	197.638	79.998	19.996	100.934	19.958	6.908	0.495
238.500	197.880	79.997	19.995	100.935	19.960	6.739	0.504
239.000	198.126	79.997	19.997	100.935	19.959	6.805	0.497
239.500	198.378	79.998	19.997	100.936	19.956	7.048	0.493
240.000	198.613	79.998	19.995	100.936	19.957	6.956	0.493
240.500	198.860	79.997	19.996	100.936	19.956	7.040	0.484
241.000	199.146	79.997	19.997	100.935	19.956	7.024	0.507
241.500	199.376	79.998	19.996	100.936	19.953	7.255	0.524
242.000	199.594	79.998	19.995	100.935	19.954	7.123	0.482
242.500	199.850	79.998	19.998	100.935	19.955	7.055	0.461
243.000	200.097	79.999	19.995	100.936	19.951	7.338	0.488
243.500	200.339	79.997	19.996	100.936	19.959	6.810	0.496
244.000	200.606	79.999	19.998	100.935	19.955	7.108	0.500
244.500	200.863	79.999	19.995	100.935	19.955	7.115	0.517
245.000	201.090	79.999	19.994	100.935	19.953	7.244	0.504
245.500	201.343	79.999	19.998	100.935	19.955	7.111	0.482
246.000	201.562	79.997	19.997	100.936	19.954	7.134	0.476
246.500	201.886	79.998	19.995	100.937	19.955	7.057	0.507
247.000	202.077	79.999	19.997	100.939	19.952	7.302	0.529
247.500	202.336	79.999	19.996	100.939	19.949	7.487	0.483
248.000	202.597	80.000	19.995	100.939	19.952	7.293	0.485
248.500	202.839	79.998	19.996	100.939	19.954	7.141	0.511
249.000	203.082	80.000	19.997	100.938	19.953	7.225	0.494
249.500	203.322	79.998	19.995	100.937	19.952	7.263	0.484
250.000	203.576	79.998	19.997	100.936	19.953	7.246	0.488
250.500	203.812	79.998	19.996	100.937	19.954	7.145	0.492
251.000	204.073	79.997	19.997	100.936	19.952	7.261	0.494
251.500	204.348	79.999	19.995	100.936	19.949	7.487	0.517
252.000	204.575	79.998	19.996	100.937	19.953	7.208	0.519
252.500	204.820	79.999	19.995	100.937	19.949	7.468	0.487
253.000	205.036	79.999	19.995	100.936	19.949	7.470	0.467
253.500	205.298	80.000	19.995	100.936	19.948	7.601	0.470
254.000	205.549	79.999	19.998	100.936	19.947	7.627	0.495
254.500	205.802	79.999	19.995	100.935	19.952	7.274	0.508
255.000	206.048	79.999	19.996	100.934	19.946	7.702	0.502
255.500	206.293	79.999	19.997	100.933	19.951	7.351	0.495
256.000	206.506	79.999	19.995	100.933	19.951	7.392	0.475
256.500	206.778	79.999	19.996	100.933	19.947	7.642	0.471
257.000	207.013	79.997	19.997	100.933	19.947	7.629	0.496
257.500	207.275	79.999	19.997	100.934	19.949	7.521	0.502
258.000	207.522	79.998	19.993	100.934	19.945	7.747	0.503
258.500	207.823	79.998	19.996	100.934	19.948	7.582	0.529
259.000	208.057	79.997	19.996	100.934	19.949	7.487	0.542
259.500	208.335	79.998	19.997	100.935	19.948	7.605	0.523
260.000	208.494	79.999	19.998	100.934	19.943	7.915	0.474
260.500	208.770	79.998	19.995	100.934	19.946	7.717	0.436
261.000	209.039	79.999	19.995	100.934	19.941	8.067	0.490
261.500	209.256	79.999	19.995	100.934	19.945	7.807	0.516
262.000	209.503	79.999	19.996	100.933	19.947	7.633	0.475
262.500	209.774	79.998	19.995	100.934	19.945	7.760	0.491
263.000	210.011	79.999	19.995	100.933	19.947	7.631	0.513
263.500	210.230	79.999	19.996	100.933	19.943	7.939	0.482
264.000	210.502	80.000	19.996	100.934	19.942	7.995	0.473
264.500	210.720	80.000	19.996	100.934	19.941	8.035	0.491
265.000	211.033	80.000	19.995	100.934	19.942	7.954	0.511
265.500	211.258	79.999	19.995	100.934	19.938	8.244	0.535
266.000	211.478	79.999	19.997	100.934	19.942	7.966	0.491
266.500	211.715	80.000	19.995	100.934	19.941	8.033	0.451
267.000	211.945	80.000	19.996	100.933	19.938	8.261	0.462
267.500	212.255	80.000	19.996	100.933	19.944	7.881	0.504
268.000	212.483	80.001	19.997	100.933	19.942	7.967	0.539
268.500	212.693	80.001	19.997	100.933	19.942	7.992	0.489
269.000	212.944	80.000	19.997	100.933	19.943	7.938	0.450
269.500	213.207	80.002	19.997	100.933	19.941	8.050	0.487
270.000	213.463	80.001	19.996	100.933	19.940	8.143	0.516
270.500	213.697	80.001	19.995	100.933	19.939	8.211	0.505
271.000	213.910	80.001	19.998	100.932	19.937	8.328	0.468
271.500	214.205	80.001	19.994	100.932	19.941	8.076	0.477
272.000	214.433	80.001	19.995	100.932	19.939	8.170	0.516
272.500	214.663	79.999	19.996	100.932	19.936	8.390	0.491
273.000	214.894	80.001	19.996	100.932	19.938	8.243	0.459
273.500	215.131	80.002	19.997	100.932	19.942	7.996	0.464
274.000	215.417	79.999	19.996	100.931	19.938	8.246	0.495
274.500	215.679	80.000	19.995	100.931	19.938	8.229	0.535
275.000	215.928	79.999	19.994	100.931	19.939	8.177	0.530
275.500	216.151	80.000	19.994	100.930	19.935	8.473	0.492
276.000	216.390	79.999	19.996	100.931	19.937	8.308	0.467
276.500	216.640	80.000	19.996	100.932	19.932	8.648	0.475
277.000	216.916	80.001	19.996	100.932	19.937	8.353	0.507
277.500	217.144	80.000	19.994	100.931	19.936	8.403	0.515
278.000	217.338	80.000	19.995	100.931	19.937	8.362	0.463
278.500	217.588	80.000	19.995	100.931	19.941	8.072	0.433
279.000	217.853	80.000	19.996	100.931	19.935	8.461	0.480
279.500	218.148	79.999	19.997	100.931	19.937	8.302	0.537
280.000	218.370	80.000	19.996	100.932	19.936	8.435	0.538
280.500	218.609	80.000	19.996	100.933	19.936	8.377	0.489
281.000	218.846	79.999	19.993	100.933	19.936	8.435	0.468
281.500	219.138	80.000	19.997	100.933	19.932	8.676	0.502
282.000	219.311	80.001	19.995	100.933	19.936	8.383	0.497
282.500	219.598	80.001	19.995	100.933	19.933	8.637	0.463
283.000	219.848	80.001	19.996	100.933	19.937	8.304	0.498
283.500	220.070	80.000	19.994	100.933	19.935	8.488	0.505
284.000	220.298	80.000	19.995	100.934	19.938	8.267	0.461
284.500	220.571	79.998	19.995	100.933	19.933	8.620	0.475
285.000	220.822	80.000	19.994	100.933	19.938	8.259	0.513
285.500	221.051	80.001	19.996	100.933	19.933	8.616	0.502
286.000	221.300	79.999	19.995	100.933	19.929	8.899	0.479
286.500	221.535	80.000	19.995	100.933	19.932	8.710	0.481
287.000	221.832	80.001	19.995	100.934	19.931	8.759	0.508
287.500	222.067	80.000	19.996	100.934	19.929	8.869	0.532
288.000	222.292	79.999	19.995	100.935	19.930	8.835	0.496
288.500	222.550	80.000	19.997	100.934	19.932	8.680	0.471
289.000	222.811	80.000	19.998	100.935	19.929	8.854	0.501
289.500	223.048	80.001	19.996	100.935	19.930	8.794	0.509
290.000	223.295	79.999	19.998	100.935	19.933	8.603	0.491
290.500	223.557	80.000	19.994	100.935	19.929	8.893	0.497
291.000	223.774	80.000	19.995	100.935	19.932	8.646	0.494
291.500	224.052	80.001	19.996	100.934	19.932	8.658	0.487
292.000	224.271	80.001	19.995	100.934	19.932	8.695	0.496
292.500	224.556	80.000	19.995	100.934	19.929	8.863	0.501
293.000	224.795	79.999	19.995	100.934	19.931	8.740	0.514
293.500	225.066	79.999	19.996	100.934	19.929	8.856	0.517
294.000	225.249	80.001	19.994	100.934	19.928	8.979	0.482
294.500	225.548	80.000	19.996	100.934	19.925	9.196	0.468
295.000	225.780	80.000	19.996	100.935	19.930	8.811	0.507
295.500	226.006	80.001	19.994	100.934	19.929	8.905	0.494
296.000	226.264	80.001	19.994	100.934	19.929	8.863	0.471
296.500	226.487	79.999	19.995	100.934	19.923	9.333	0.483
297.000	226.775	80.001	19.996	100.933	19.932	8.662	0.496
297.500	226.998	80.003	19.996	100.933	19.924	9.264	0.511
298.000	227.228	80.000	19.996	100.933	19.924	9.260	0.482
298.500	227.467	80.001	19.995	100.933	19.928	8.953	0.461
299.000	227.720	80.002	19.996	100.933	19.927	9.028	0.480
299.500	228.005	80.000	19.995	100.933	19.927	8.993	0.515
300.000	228.227	80.002	19.996	100.933	19.925	9.174	0.522
300.500	228.494	79.998	19.997	100.932	19.929	8.871	0.498
301.000	228.727	79.999	19.995	100.931	19.930	8.837	0.495
301.500	228.969	79.999	19.995	100.932	19.924	9.225	0.488
302.000	229.202	79.999	19.996	100.932	19.928	8.923	0.475
302.500	229.492	79.999	19.997	100.932	19.931	8.738	0.499
303.000	229.740	80.000	19.995	100.933	19.926	9.060	0.530
303.500	229.983	79.998	19.996	100.934	19.925	9.140	0.515
304.000	230.224	80.000	19.994	100.934	19.929	8.886	0.488
304.500	230.441	79.996	19.995	100.935	19.926	9.105	0.471
305.000	230.744	79.998	19.996	100.935	19.929	8.856	0.489
305.500	230.959	79.997	19.995	100.935	19.923	9.318	0.519
306.000	231.208	79.998	19.997	100.935	19.922	9.350	0.491
306.500	231.439	79.998	19.995	100.935	19.923	9.326	0.472
307.000	231.697	79.997	19.995	100.935	19.926	9.116	0.485
307.500	231.927	79.998	19.994	100.935	19.926	9.103	0.488
308.000	232.204	79.998	19.995	100.935	19.924	9.219	0.498
308.500	232.423	79.998	19.996	100.936	19.921	9.421	0.502
309.000	232.690	79.998	19.996	100.936	19.926	9.079	0.491
309.500	232.894	79.997	19.996	100.937	19.924	9.250	0.478
310.000	233.200	79.997	19.996	100.937	19.925	9.148	0.490
310.500	233.421	79.998	19.995	100.937	19.925	9.163	0.518
311.000	233.692	79.997	19.997	100.937	19.925	9.170	0.509
311.500	233.927	79.997	19.994	100.937	19.929	8.856	0.499
312.000	234.158	79.998	19.994	100.937	19.924	9.217	0.486
312.500	234.441	79.996	19.997	100.937	19.923	9.318	0.490
313.000	234.672	79.998	19.995	100.937	19.922	9.391	0.514
313.500	234.940	79.998	19.996	100.937	19.923	9.310	0.507
314.000	235.161	79.999	19.995	100.937	19.921	9.451	0.494
314.500	235.413	79.998	19.995	100.937	19.925	9.183	0.481
315.000	235.677	79.998	19.996	100.937	19.922	9.394	0.495
315.500	235.900	79.998	19.995	100.937	19.922	9.344	0.502
316.000	236.122	79.999	19.997	100.937	19.921	9.456	0.466
316.500	236.410	79.999	19.995	100.937	19.921	9.465	0.477
317.000	236.691	79.999	19.996	100.937	19.920	9.507	0.540
317.500	236.909	79.999	19.995	100.937	19.919	9.591	0.534
318.000	237.130	79.998	19.996	100.937	19.922	9.398	0.469
318.500	237.391	79.999	19.995	100.937	19.915	9.843	0.460
319.000	237.675	79.998	19.996	100.937	19.919	9.610	0.513
319.500	237.905	80.000	19.996	100.936	19.917	9.690	0.530
320.000	238.107	79.997	19.995	100.935	19.917	9.740	0.473
320.500	238.351	79.998	19.996	100.934	19.919	9.561	0.439
321.000	238.605	79.998	19.996	100.934	19.915	9.825	0.472
321.500	238.859	79.998	19.996	100.934	19.918	9.668	0.504
322.000	239.095	79.998	19.997	100.934	19.920	9.503	0.499
322.500	239.361	79.998	19.995	100.934	19.922	9.355	0.496
323.000	239.599	79.998	19.997	100.935	19.921	9.425	0.503
323.500	239.822	79.998	19.998	100.934	19.921	9.415	0.482
324.000	240.088	79.998	19.998	100.935	19.922	9.395	0.475
324.500	240.333	79.997	19.995	100.934	19.917	9.698	0.500
325.000	240.568	79.997	19.996	100.934	19.917	9.689	0.495
325.500	240.865	79.998	19.997	100.933	19.920	9.513	0.506
326.000	241.090	79.998	19.997	100.933	19.915	9.846	0.527
326.500	241.338	79.998	19.995	100.934	19.911	10.139	0.498
327.000	241.607	79.997	19.996	100.934	19.911	10.111	0.495
327.500	241.831	79.999	19.996	100.934	19.915	9.838	0.505
328.000	242.053	79.999	19.997	100.935	19.911	10.131	0.469
328.500	242.355	79.998	19.997	100.935	19.915	9.858	0.485
329.000	242.554	79.998	19.997	100.934	19.918	9.643	0.513
329.500	242.850	79.997	19.996	100.935	19.914	9.909	0.498
330.001	243.072	79.996	19.998	100.935	19.913	9.974	0.507
330.500	243.336	79.996	19.996	100.935	19.911	10.163	0.502
331.000	243.594	79.998	19.996	100.934	19.916	9.819	0.503
331.500	243.856	79.997	19.995	100.934	19.907	10.376	0.521
332.000	244.082	79.997	19.995	100.935	19.912	10.042	0.504
332.500	244.299	79.995	19.996	100.937	19.908	10.315	0.466
333.000	244.566	79.997	19.997	100.935	19.910	10.212	0.464
333.500	244.784	79.999	19.996	100.935	19.911	10.130	0.484
334.000	245.067	79.997	19.996	100.937	19.910	10.189	0.493
334.500	245.273	79.998	19.997	100.938	19.909	10.272	0.495
335.000	245.552	79.996	19.995	100.940	19.912	10.094	0.487
335.500	245.810	79.998	19.996	100.942	19.911	10.152	0.511
336.000	246.096	79.998	19.996	100.942	19.907	10.401	0.540
336.500	246.344	79.998	19.997	100.940	19.906	10.487	0.539
337.000	246.583	79.998	19.998	100.939	19.911	10.164	0.510
337.500	246.847	79.997	19.995	100.935	19.903	10.656	0.495
338.000	247.089	79.998	19.996	100.935	19.907	10.407	0.505
338.500	247.293	79.998	19.996	100.934	19.909	10.299	0.476
339.000	247.578	79.998	19.996	100.935	19.906	10.498	0.467
339.500	247.836	80.000	19.996	100.935	19.901	10.797	0.516
340.000	248.031	79.998	19.995	100.936	19.905	10.517	0.498
340.500	248.323	79.999	19.994	100.936	19.907	10.442	0.470
341.000	248.545	79.999	19.995	100.936	19.905	10.518	0.500
341.500	248.771	79.997	19.995	100.936	19.903	10.709	0.481
342.000	249.061	79.999	19.995	100.936	19.905	10.582	0.482
342.500	249.279	79.998	19.996	100.936	19.900	10.887	0.512
343.000	249.564	79.999	19.997	100.936	19.907	10.419	0.506
343.500	249.850	80.000	19.995	100.936	19.901	10.806	0.537
344.000	250.113	79.998	19.995	100.936	19.901	10.824	0.560
344.500	250.379	79.999	19.995	100.936	19.905	10.563	0.539
345.000	250.577	79.998	19.997	100.937	19.901	10.849	0.496
345.500	250.825	79.998	19.995	100.938	19.902	10.773	0.455
346.000	251.081	80.001	19.997	100.937	19.903	10.672	0.475
346.500	251.357	79.999	19.996	100.938	19.899	10.997	0.518
347.000	251.601	79.999	19.995	100.939	19.896	11.191	0.526
347.500	251.864	80.001	19.995	100.938	19.898	11.028	0.513
348.000	252.145	80.000	19.996	100.940	19.893	11.346	0.525
348.500	252.330	80.000	19.995	100.942	19.898	11.051	0.505
349.000	252.585	80.000	19.995	100.945	19.894	11.277	0.453
349.500	252.862	80.000	19.997	100.948	19.892	11.473	0.486
350.000	253.128	80.000	19.997	100.950	19.897	11.073	0.537
350.500	253.299	79.999	19.995	100.953	19.893	11.356	0.490
351.000	253.621	80.002	19.997	100.955	19.892	11.446	0.466
351.500	253.835	79.999	19.995	100.954	19.896	11.158	0.515
352.000	254.090	80.001	19.995	100.952	19.897	11.094	0.502
352.500	254.299	80.000	19.995	100.954	19.892	11.437	0.466
353.000	254.629	80.001	19.995	100.952	19.889	11.689	0.501
353.500	254.871	79.999	19.995	100.955	19.894	11.281	0.556
354.000	255.140	80.000	19.994	100.953	19.888	11.728	0.542
354.500	255.347	80.001	19.994	100.951	19.891	11.501	0.494
355.000	255.640	80.000	19.996	100.947	19.886	11.881	0.488
355.500	255.843	80.002	19.995	100.950	19.888	11.733	0.498
356.000	256.125	80.000	19.995	100.950	19.888	11.741	0.490
356.500	256.402	79.998	19.996	100.954	19.884	12.018	0.522
357.000	256.584	80.001	19.996	100.959	19.883	12.054	0.509
357.500	256.912	79.998	19.995	100.966	19.882	12.161	0.485
358.000	257.152	80.000	19.995	100.965	19.882	12.116	0.539
358.500	257.406	79.999	19.996	100.964	19.880	12.273	0.531
359.001	257.558	79.999	19.995	100.962	19.880	12.256	0.450
359.500	257.876	79.999	19.994	100.963	19.879	12.331	0.438
360.000	258.132	79.998	19.994	100.963	19.876	12.533	0.522
360.500	258.381	79.998	19.994	100.965	19.878	12.402	0.540
361.000	258.606	80.000	19.995	100.965	19.878	12.446	0.489
361.500	258.824	79.998	19.997	100.967	19.869	13.022	0.459
362.000	259.100	79.999	19.996	100.968	19.875	12.618	0.469
362.500	259.385	79.998	19.996	100.970	19.872	12.842	0.528
363.000	259.647	79.999	19.996	100.971	19.872	12.809	0.554
363.500	259.837	79.999	19.996	100.969	19.872	12.818	0.499
364.000	260.081	79.999	19.995	100.968	19.871	12.919	0.443
364.500	260.282	79.998	19.995	100.967	19.872	12.865	0.440
365.000	260.816	79.999	19.994	100.964	19.871	12.872	0.590
365.500	260.942	79.997	19.994	100.959	19.868	13.108	0.697
366.000	261.199	79.998	19.995	100.959	19.865	13.345	0.521
366.500	261.557	80.000	19.994	100.962	19.868	13.102	0.499
367.000	261.445	80.000	19.995	100.963	19.865	13.302	0.430
367.500	261.986	79.999	19.995	100.966	19.862	13.547	0.337
368.000	262.003	79.999	19.994	100.970	19.863	13.482	0.494
368.500	262.369	80.000	19.995	100.970	19.861	13.606	0.471
369.000	262.674	79.999	19.996	100.970	19.857	13.888	0.527
369.500	262.812	80.001	19.994	100.971	19.859	13.710	0.557
370.000	263.144	80.000	19.995	100.971	19.858	13.781	0.456
370.500	263.343	79.999	19.995	100.972	19.856	13.922	0.500
371.000	263.617	80.000	19.994	100.974	19.855	14.038	0.502
371.500	263.868	80.000	19.994	100.975	19.857	13.868	0.499
372.000	264.076	79.999	19.997	100.975	19.854	14.109	0.492
372.500	264.272	80.000	19.994	100.975	19.857	13.884	0.431
373.000	264.576	80.000	19.995	100.976	19.850	14.328	0.452
373.500	264.851	80.000	19.994	100.975	19.853	14.176	0.540
374.000	265.089	79.999	19.995	100.976	19.851	14.320	0.546
374.500	265.379	80.000	19.994	100.976	19.851	14.281	0.521
375.000	265.606	80.000	19.995	100.975	19.846	14.614	0.522
375.500	265.819	80.000	19.994	100.976	19.850	14.389	0.479
376.000	266.063	80.002	19.995	100.976	19.850	14.378	0.449
376.500	266.342	80.002	19.994	100.976	19.846	14.635	0.490
377.000	266.582	80.002	19.993	100.975	19.847	14.574	0.521
377.500	266.834	80.001	19.995	100.975	19.844	14.744	0.505
378.000	267.105	80.001	19.994	100.975	19.844	14.750	0.507
378.500	267.385	80.000	19.995	100.975	19.842	14.907	0.537
379.000	267.614	80.001	19.996	100.976	19.839	15.129	0.530
379.500	267.885	80.001	19.995	100.976	19.839	15.155	0.505
380.000	268.073	80.000	19.993	100.976	19.840	15.045	0.480
380.500	268.355	79.999	19.995	100.976	19.836	15.334	0.464
381.000	268.584	80.001	19.995	100.976	19.831	15.685	0.490
381.500	268.888	80.001	19.995	100.978	19.834	15.444	0.522
382.000	269.112	80.000	19.994	100.978	19.830	15.725	0.531
382.500	269.359	79.999	19.996	100.978	19.829	15.834	0.499
383.000	269.600	80.001	19.994	100.978	19.830	15.759	0.480
383.500	269.844	80.000	19.996	100.978	19.826	16.044	0.487
384.000	270.155	80.000	19.993	100.978	19.824	16.137	0.520
384.500	270.359	79.999	19.995	100.977	19.822	16.317	0.535
385.000	270.649	79.998	19.994	100.976	19.822	16.282	0.504
385.500	270.918	80.000	19.995	100.975	19.816	16.717	0.526
386.000	271.199	80.000	19.997	100.974	19.819	16.537	0.555
386.500	271.456	80.000	19.995	100.972	19.821	16.353	0.544
387.000	271.703	79.998	19.995	100.974	19.819	16.514	0.521
387.500	271.981	79.998	19.997	100.980	19.817	16.621	0.515
388.000	272.199	79.998	19.993	100.982	19.811	17.060	0.511
388.500	272.459	79.998	19.996	100.983	19.812	16.985	0.487
389.000	272.720	79.997	19.997	100.984	19.810	17.163	0.499
389.500	272.960	79.998	19.995	100.984	19.810	17.101	0.511
390.000	273.192	79.999	19.996	100.980	19.809	17.201	0.487
390.500	273.442	79.997	19.995	100.979	19.804	17.517	0.477
391.000	273.749	79.999	19.997	100.985	19.804	17.517	0.519
391.500	273.927	79.999	19.997	100.988	19.800	17.798	0.521
392.000	274.223	79.999	19.997	100.986	19.801	17.725	0.480
392.500	274.441	80.000	19.997	100.988	19.802	17.667	0.494
393.000	274.723	80.000	19.997	100.990	19.798	17.991	0.507
393.500	274.947	79.997	19.996	100.989	19.794	18.225	0.503
394.000	275.195	79.998	19.998	100.989	19.793	18.290	0.489
394.500	275.434	79.998	19.996	100.992	19.795	18.193	0.479
395.000	275.690	79.998	19.996	100.992	19.792	18.414	0.491
395.500	275.962	79.998	19.997	100.994	19.787	18.719	0.512
396.000	276.224	79.998	19.996	100.995	19.787	18.700	0.531
396.500	276.464	79.999	19.997	100.993	19.784	18.908	0.518
397.000	276.688	79.998	19.996	100.991	19.782	19.043	0.483
397.500	276.970	79.998	19.996	100.995	19.782	19.069	0.485
398.000	277.237	79.999	19.996	100.997	19.781	19.172	0.528
398.500	277.465	79.998	19.996	100.998	19.782	19.067	0.522
399.000	277.715	79.998	19.997	101.002	19.774	19.630	0.487
399.500	277.987	79.997	19.996	101.006	19.778	19.378	0.500
400.000	278.245	79.999	19.996	101.006	19.777	19.411	0.525
400.500	278.483	80.000	19.995	101.007	19.770	19.898	0.513
401.000	278.764	79.998	19.997	101.008	19.770	19.878	0.508
401.500	278.969	79.998	19.997	101.008	19.764	20.320	0.503
402.000	279.210	80.001	19.995	101.010	19.764	20.310	0.466
402.500	279.454	80.000	19.996	101.012	19.763	20.393	0.466
403.000	279.733	79.999	19.997	101.011	19.759	20.700	0.504
403.501	279.993	79.998	19.995	101.011	19.756	20.889	0.531
404.000	280.216	80.001	19.996	101.010	19.756	20.852	0.511
404.500	280.492	80.000	19.996	101.010	19.758	20.769	0.491
405.000	280.742	79.998	19.997	101.010	19.752	21.139	0.512
405.500	281.004	79.998	19.995	101.010	19.752	21.167	0.519
406.000	281.239	79.999	19.997	101.010	19.751	21.238	0.504
406.500	281.511	80.000	19.995	101.010	19.747	21.504	0.502
407.000	281.725	79.999	19.998	101.009	19.747	21.475	0.496
407.500	281.992	79.997	19.997	101.010	19.747	21.492	0.484
408.000	282.256	79.999	19.995	101.010	19.740	21.982	0.506
408.500	282.516	79.999	19.996	101.010	19.740	22.016	0.527
409.000	282.745	80.000	19.997	101.010	19.737	22.214	0.506
409.500	282.980	79.998	19.997	101.011	19.737	22.204	0.476
410.000	283.252	79.999	19.998	101.011	19.731	22.578	0.486
410.500	283.552	79.998	19.996	101.012	19.733	22.493	0.539
411.000	283.762	79.998	19.995	101.011	19.731	22.600	0.541
411.500	284.044	79.998	19.996	101.011	19.727	22.911	0.501
412.001	284.271	79.998	19.997	101.014	19.729	22.781	0.500
412.501	284.523	79.996	19.995	101.014	19.726	22.937	0.495
413.000	284.782	79.998	19.997	101.014	19.722	23.204	0.495
413.500	285.005	79.999	19.996	101.016	19.723	23.193	0.496
414.000	285.287	79.999	19.997	101.018	19.711	23.981	0.493
414.500	285.521	79.997	19.997	101.017	19.715	23.744	0.511
415.000	285.737	79.999	19.997	101.017	19.717	23.604	0.483
415.500	286.031	79.997	19.997	101.017	19.713	23.840	0.480
416.000	286.237	79.997	19.997	101.015	19.712	23.900	0.504
416.500	286.476	79.998	19.996	101.014	19.705	24.395	0.472
417.000	286.753	79.997	19.997	101.014	19.708	24.178	0.481
417.501	287.007	79.998	19.997	101.015	19.704	24.498	0.524
418.000	287.251	79.999	19.997	101.016	19.699	24.820	0.515
418.500	287.495	79.998	19.998	101.017	19.697	24.940	0.493
419.000	287.792	79.997	19.996	101.017	19.694	25.207	0.514
419.500	288.050	79.997	19.997	101.016	19.693	25.237	0.548
420.000	288.295	79.997	19.997	101.015	19.693	25.282	0.529
420.500	288.539	79.996	19.996	101.014	19.689	25.530	0.496
421.000	288.788	79.996	19.997	101.014	19.686	25.746	0.491
421.500	288.997	79.999	19.998	101.016	19.682	26.006	0.476
422.000	289.286	79.997	19.998	101.021	19.678	26.322	0.478
422.500	289.533	79.998	19.997	101.027	19.678	26.279	0.517
423.000	289.784	79.997	19.997	101.031	19.673	26.603	0.517
423.500	290.073	79.998	19.997	101.036	19.677	26.391	0.519
424.000	290.291	79.997	19.998	101.041	19.671	26.792	0.524
424.500	290.585	79.996	19.997	101.042	19.666	27.148	0.509
425.000	290.803	79.997	19.998	101.042	19.664	27.260	0.512
425.500	291.092	79.998	19.997	101.043	19.668	27.004	0.510
426.000	291.322	79.998	19.997	101.045	19.664	27.277	0.513
426.500	291.581	79.998	19.997	101.047	19.664	27.266	0.504
427.000	291.849	79.999	19.996	101.048	19.655	27.878	0.508
427.500	292.092	79.998	19.997	101.049	19.656	27.818	0.519
428.000	292.333	79.997	19.996	101.050	19.653	28.002	0.497
428.500	292.564	79.999	19.996	101.050	19.652	28.082	0.478
429.000	292.861	79.999	19.997	101.050	19.650	28.234	0.500
429.500	293.091	80.000	19.996	101.051	19.646	28.481	0.527
430.000	293.346	79.999	19.996	101.051	19.648	28.356	0.506
430.500	293.651	79.999	19.995	101.051	19.641	28.887	0.523
431.000	293.904	79.999	19.995	101.051	19.641	28.854	0.559
431.500	294.125	79.998	19.996	101.052	19.638	29.061	0.516
432.000	294.353	80.000	19.996	101.055	19.633	29.400	0.461
432.500	294.608	79.999	19.996	101.055	19.631	29.531	0.466
433.000	294.804	79.999	19.995	101.055	19.630	29.647	0.467
433.500	295.148	79.998	19.995	101.055	19.624	30.037	0.496
434.000	295.339	80.000	19.996	101.056	19.626	29.925	0.538
434.500	295.620	80.000	19.995	101.054	19.625	29.968	0.503
435.000	295.877	80.001	19.995	101.054	19.621	30.239	0.505
435.500	296.066	79.999	19.994	101.054	19.619	30.370	0.492
436.000	296.340	79.999	19.996	101.054	19.615	30.624	0.455
436.500	296.599	79.999	19.995	101.054	19.613	30.802	0.498
437.000	296.803	80.000	19.995	101.054	19.615	30.632	0.498
437.500	297.092	80.001	19.995	101.054	19.611	30.924	0.478
438.000	297.356	80.000	19.995	101.055	19.611	30.931	0.523
438.500	297.583	80.000	19.994	101.055	19.606	31.313	0.522
439.000	297.869	80.001	19.994	101.055	19.605	31.350	0.502
439.500	298.088	80.000	19.995	101.056	19.603	31.498	0.509
440.000	298.363	80.000	19.995	101.056	19.598	31.849	0.499
440.500	298.623	80.000	19.996	101.055	19.595	32.076	0.514
441.000	298.860	80.000	19.996	101.055	19.595	32.042	0.516
441.500	299.098	80.000	19.996	101.055	19.589	32.429	0.486
442.000	299.374	79.999	19.995	101.055	19.590	32.369	0.495
442.500	299.594	80.000	19.996	101.055	19.584	32.824	0.505
443.000	299.871	79.999	19.997	101.055	19.583	32.916	0.496
443.500	300.119	79.997	19.996	101.055	19.582	32.924	0.511
444.000	300.396	79.999	19.995	101.055	19.579	33.171	0.525
444.500	300.611	79.998	19.995	101.056	19.578	33.234	0.508
445.000	300.857	79.998	19.995	101.056	19.576	33.365	0.476
445.500	301.113	79.998	19.995	101.058	19.573	33.559	0.481
446.000	301.361	79.998	19.995	101.061	19.570	33.814	0.504
446.500	301.633	79.999	19.995	101.061	19.566	34.055	0.512
447.000	301.870	79.998	19.996	101.060	19.568	33.940	0.514
447.500	302.136	79.999	19.995	101.061	19.563	34.253	0.506
448.000	302.349	80.000	19.996	101.060	19.558	34.590	0.491
448.500	302.618	80.000	19.995	101.061	19.556	34.763	0.480
449.000	302.895	79.999	19.997	101.065	19.556	34.778	0.514
449.500	303.150	79.999	19.994	101.065	19.557	34.689	0.539
450.000	303.417	80.000	19.996	101.064	19.552	35.033	0.527
450.500	303.664	80.000	19.995	101.064	19.552	35.048	0.518
451.000	303.898	80.001	19.995	101.062	19.545	35.507	0.498
451.500	304.167	80.000	19.996	101.062	19.543	35.687	0.492
452.000	304.392	80.000	19.995	101.067	19.544	35.571	0.498
452.500	304.652	80.000	19.995	101.072	19.546	35.438	0.489
453.001	304.891	80.001	19.996	101.078	19.537	36.045	0.492
453.500	305.152	80.001	19.997	101.082	19.535	36.184	0.500
454.000	305.409	80.001	19.996	101.084	19.530	36.534	0.510
454.500	305.651	80.000	19.995	101.084	19.529	36.660	0.508
455.000	305.905	80.000	19.996	101.085	19.532	36.407	0.497
455.500	306.138	80.001	19.996	101.083	19.528	36.708	0.491
456.000	306.412	80.000	19.996	101.082	19.521	37.159	0.497
456.500	306.635	80.001	19.994	101.081	19.516	37.543	0.502
457.000	306.916	80.001	19.996	101.080	19.520	37.253	0.500
457.500	307.142	80.001	19.995	101.080	19.519	37.312	0.505
458.000	307.415	80.000	19.995	101.082	19.514	37.653	0.503
458.500	307.675	80.002	19.995	101.083	19.509	38.033	0.516
459.000	307.911	80.002	19.995	101.084	19.508	38.058	0.515
459.500	308.187	80.001	19.995	101.086	19.503	38.402	0.504
460.000	308.423	80.001	19.996	101.086	19.508	38.084	0.512
460.500	308.667	80.002	19.996	101.087	19.497	38.829	0.496
461.000	308.914	80.001	19.996	101.087	19.497	38.862	0.485
461.500	309.153	80.001	19.995	101.087	19.492	39.160	0.488
462.000	309.392	80.000	19.995	101.087	19.493	39.093	0.482
462.500	309.674	80.001	19.995	101.087	19.492	39.217	0.499
463.000	309.934	80.001	19.995	101.087	19.484	39.744	0.531
463.500	310.169	80.000	19.996	101.087	19.486	39.618	0.519
464.000	310.442	80.001	19.995	101.089	19.477	40.235	0.501
464.500	310.706	79.999	19.995	101.089	19.481	39.961	0.523
465.000	310.952	80.002	19.994	101.089	19.475	40.363	0.524
465.500	311.125	79.998	19.995	101.089	19.471	40.622	0.464
466.000	311.470	80.001	19.994	101.089	19.473	40.490	0.469
466.500	311.652	80.002	19.996	101.088	19.465	41.101	0.523
467.000	311.963	80.002	19.995	101.088	19.465	41.083	0.510
467.500	312.214	80.000	19.995	101.088	19.469	40.822	0.527
468.000	312.494	80.001	19.996	101.089	19.462	41.289	0.546
468.500	312.754	79.999	19.995	101.090	19.460	41.438	0.535
469.000	312.952	79.998	19.996	101.091	19.463	41.203	0.499
469.500	313.197	79.998	19.996	101.091	19.465	41.086	0.451
470.000	313.531	79.999	19.998	101.091	19.463	41.239	0.511
470.500	313.704	79.998	19.997	101.091	19.449	42.202	0.543
471.000	313.986	80.000	19.997	101.092	19.449	42.194	0.481
471.500	314.208	79.997	19.997	101.092	19.442	42.670	0.480
472.000	314.512	79.999	19.995	101.093	19.439	42.875	0.515
472.500	314.752	80.000	19.996	101.095	19.431	43.402	0.535
473.000	315.023	80.000	19.995	101.095	19.426	43.777	0.528
473.500	315.231	80.001	19.996	101.095	19.426	43.789	0.495
474.000	315.524	79.999	19.996	101.097	19.431	43.431	0.490
474.500	315.765	79.999	19.997	101.096	19.428	43.670	0.517
475.000	316.013	79.999	19.996	101.095	19.421	44.144	0.511
475.500	316.251	79.998	19.995	101.097	19.417	44.411	0.488
476.000	316.550	80.000	19.996	101.102	19.415	44.527	0.512
476.500	316.818	79.998	19.996	101.101	19.416	44.481	0.552
477.001	316.999	79.999	19.995	101.104	19.409	44.929	0.508
477.500	317.243	79.998	19.995	101.105	19.413	44.682	0.437
478.000	317.528	79.999	19.995	101.102	19.406	45.184	0.477
478.500	317.779	79.999	19.996	101.101	19.402	45.478	0.533
479.000	318.035	79.998	19.995	101.102	19.400	45.606	0.522
479.500	318.289	80.000	19.996	101.101	19.401	45.507	0.508
480.000	318.521	80.000	19.996	101.107	19.399	45.676	0.498
480.500	318.781	79.999	19.996	101.114	19.395	45.900	0.489
481.000	319.012	79.999	19.996	101.118	19.392	46.114	0.491
481.500	319.325	80.000	19.996	101.118	19.399	45.690	0.517
482.000	319.524	79.998	19.996	101.120	19.394	45.979	0.528
482.500	319.775	79.999	19.996	101.121	19.389	46.342	0.481
483.000	319.972	79.998	19.996	101.118	19.387	46.477	0.449
483.500	320.207	79.998	19.997	101.119	19.389	46.374	0.440
484.000	320.511	79.998	19.996	101.120	19.381	46.884	0.486
484.500	320.791	79.998	19.996	101.122	19.384	46.721	0.561
485.000	320.973	79.997	19.997	101.122	19.387	46.459	0.523
485.500	321.313	79.998	19.996	101.125	19.378	47.137	0.493
486.000	321.493	79.999	19.995	101.125	19.384	46.697	0.521
486.500	321.742	79.999	19.997	101.126	19.372	47.503	0.474
487.000	322.011	79.999	19.997	101.127	19.364	48.080	0.474
487.500	322.266	79.999	19.997	101.125	19.375	47.334	0.521
488.000	322.550	80.001	19.997	101.125	19.374	47.370	0.531
488.500	322.797	79.999	19.996	101.125	19.373	47.479	0.535
489.000	323.012	79.999	19.996	101.127	19.361	48.299	0.497
489.500	323.272	79.998	19.996	101.128	19.350	49.023	0.468
490.000	323.553	79.998	19.996	101.131	19.346	49.328	0.508
490.500	323.768	79.999	19.995	101.131	19.347	49.297	0.519
491.000	324.047	79.998	19.995	101.131	19.343	49.553	0.496
491.500	324.297	80.000	19.996	101.131	19.337	49.980	0.512
492.000	324.546	79.998	19.996	101.131	19.346	49.313	0.514
492.500	324.784	79.998	19.997	101.130	19.334	50.166	0.493
493.000	325.030	79.998	19.997	101.130	19.336	50.049	0.486
493.500	325.318	80.000	19.997	101.130	19.334	50.198	0.509
494.000	325.566	79.999	19.996	101.130	19.334	50.183	0.535
494.500	325.840	79.999	19.996	101.131	19.342	49.637	0.529
495.000	326.070	80.002	19.996	101.132	19.337	49.953	0.513
495.500	326.346	79.998	19.997	101.132	19.324	50.860	0.505
496.000	326.574	79.996	19.996	101.132	19.330	50.425	0.504
496.500	326.872	79.998	19.995	101.132	19.328	50.611	0.515
497.000	327.125	79.999	19.995	101.132	19.319	51.179	0.539
497.500	327.306	79.996	19.995	101.132	19.320	51.142	0.493
498.000	327.553	80.001	19.996	101.133	19.315	51.466	0.431
498.500	327.849	79.999	19.996	101.132	19.313	51.624	0.485
499.000	328.107	79.998	19.996	101.133	19.307	52.039	0.548
499.500	328.335	79.997	19.996	101.133	19.311	51.743	0.520
500.000	328.614	80.000	19.996	101.133	19.307	52.066	0.497
500.500	328.832	79.998	19.997	101.133	19.307	52.028	0.502
501.000	329.172	79.999	19.996	101.133	19.301	52.485	0.528
501.500	329.374	79.998	19.996	101.135	19.301	52.474	0.550
502.000	329.611	79.999	19.996	101.137	19.300	52.537	0.490
502.500	329.877	79.997	19.997	101.140	19.298	52.673	0.471
503.000	330.123	79.996	19.996	101.141	19.294	52.925	0.508
503.500	330.357	79.997	19.996	101.141	19.294	52.955	0.496
504.000	330.656	79.998	19.996	101.139	19.292	53.075	0.506
504.500	330.928	79.997	19.996	101.137	19.287	53.453	0.552
505.000	331.167	79.999	19.997	101.135	19.283	53.724	0.541
505.500	331.401	79.998	19.995	101.136	19.284	53.605	0.492
506.001	331.635	79.994	19.996	101.138	19.284	53.619	0.470
506.500	331.927	79.998	19.996	101.140	19.280	53.939	0.497
507.000	332.210	79.998	19.996	101.139	19.279	53.974	0.551
507.500	332.450	79.997	19.997	101.140	19.276	54.219	0.549
508.000	332.717	79.996	19.996	101.140	19.274	54.353	0.515
508.500	332.963	80.000	19.997	101.138	19.270	54.617	0.510
509.000	333.235	79.999	19.996	101.137	19.269	54.658	0.515
509.500	333.502	79.999	19.996	101.138	19.273	54.399	0.529
510.000	333.751	80.000	19.999	101.136	19.269	54.667	0.528
510.500	334.031	79.996	19.997	101.133	19.264	55.034	0.523
511.000	334.276	79.999	19.997	101.134	19.261	55.247	0.527
511.500	334.538	79.997	19.996	101.133	19.258	55.417	0.516
512.000	334.812	79.998	19.997	101.137	19.275	54.259	0.522
512.500	335.091	80.001	19.999	101.141	19.276	54.194	0.545
513.000	335.306	79.999	19.997	101.143	19.259	55.376	0.523
513.500	335.578	80.000	19.997	101.144	19.259	55.384	0.491
514.000	335.808	80.001	19.997	101.144	19.256	55.581	0.495
514.500	336.046	80.000	19.997	101.139	19.250	55.995	0.485
515.000	336.352	79.999	19.998	101.135	19.255	55.673	0.506
515.500	336.597	80.000	19.998	101.132	19.255	55.664	0.547
516.000	336.844	80.001	19.997	101.130	19.250	55.967	0.521
516.500	337.132	79.999	19.998	101.129	19.255	55.641	0.513
517.000	337.377	79.998	19.997	101.130	19.242	56.535	0.534
517.500	337.617	80.003	19.997	101.129	19.249	56.027	0.509
518.000	337.900	80.000	19.996	101.129	19.248	56.096	0.504
518.500	338.168	80.000	19.995	101.129	19.241	56.621	0.537
519.000	338.383	80.000	19.997	101.129	19.250	56.013	0.517
519.500	338.622	80.002	19.996	101.129	19.246	56.258	0.468
520.000	338.861	79.999	19.996	101.129	19.247	56.195	0.466
520.500	339.125	79.999	19.996	101.129	19.243	56.449	0.491
521.000	339.345	80.000	19.996	101.128	19.247	56.174	0.494
521.500	339.610	80.002	19.997	101.127	19.246	56.233	0.485
522.000	339.863	80.001	19.996	101.126	19.239	56.759	0.502
522.500	340.140	80.001	19.996	101.126	19.244	56.422	0.524
523.000	340.393	80.000	19.997	101.126	19.240	56.644	0.530
523.500	340.629	80.003	19.996	101.127	19.240	56.643	0.509
524.000	340.882	79.998	19.996	101.127	19.233	57.162	0.489
524.500	341.117	80.000	19.996	101.127	19.245	56.336	0.489
525.000	341.351	80.001	19.996	101.128	19.239	56.717	0.479
525.500	341.581	79.999	19.996	101.128	19.240	56.663	0.466
526.000	341.806	80.001	19.996	101.127	19.247	56.199	0.459
526.500	342.060	80.002	19.996	101.128	19.239	56.733	0.467
527.000	342.330	80.001	19.997	101.128	19.240	56.640	0.502
527.500	342.574	79.999	19.996	101.128	19.240	56.640	0.519
528.000	342.843	80.000	19.995	101.128	19.240	56.647	0.513
528.500	343.117	79.998	19.996	101.129	19.238	56.804	0.527
529.000	343.340	80.001	19.995	101.128	19.244	56.396	0.520
529.500	343.611	80.000	19.995	101.128	19.243	56.472	0.496
530.000	343.848	80.000	19.994	101.127	19.240	56.641	0.501
530.500	344.095	80.002	19.997	101.126	19.237	56.896	0.495
531.000	344.343	80.000	19.996	101.127	19.247	56.148	0.489
531.500	344.624	80.002	19.996	101.126	19.247	56.170	0.513
532.000	344.869	80.001	19.994	101.123	19.244	56.387	0.528
532.500	345.124	80.001	19.994	101.120	19.250	55.954	0.513
533.000	345.498	80.003	19.995	101.121	19.248	56.132	0.564
533.500	345.696	79.999	19.998	101.120	19.249	56.031	0.600
534.000	345.969	80.001	19.996	101.118	19.248	56.089	0.522
534.500	346.219	80.001	19.996	101.121	19.249	56.015	0.497
535.000	346.395	80.002	19.996	101.123	19.249	56.001	0.474
535.501	346.655	80.003	19.996	101.120	19.252	55.812	0.432
536.001	346.914	80.001	19.995	101.119	19.255	55.622	0.478
536.500	347.147	80.000	19.996	101.119	19.252	55.827	0.505
537.000	347.411	80.000	19.996	101.114	19.257	55.455	0.494
537.500	347.689	80.001	19.997	101.114	19.259	55.338	0.520
538.000	347.900	80.000	19.994	101.112	19.262	55.144	0.516
538.500	348.166	80.001	19.995	101.105	19.258	55.410	0.483
539.000	348.450	80.003	19.996	101.100	19.263	55.041	0.514
539.500	348.676	80.000	19.995	101.097	19.266	54.824	0.530
540.000	348.922	80.002	19.996	101.091	19.266	54.808	0.491
540.500	349.153	80.002	19.996	101.089	19.264	54.986	0.474
541.000	349.442	80.001	19.994	101.090	19.267	54.765	0.499
541.500	349.698	80.002	19.995	101.090	19.268	54.677	0.532
542.000	349.938	80.003	19.996	101.090	19.273	54.341	0.520
542.500	350.182	80.001	19.994	101.089	19.275	54.196	0.490
543.000	350.435	80.004	19.997	101.088	19.281	53.831	0.491
543.500	350.699	80.002	19.996	101.087	19.279	53.968	0.507
544.000	350.950	80.002	19.996	101.088	19.287	53.353	0.516
544.500	351.206	79.999	19.995	101.088	19.286	53.450	0.511
545.000	351.469	80.002	19.996	101.087	19.288	53.298	0.513
545.500	351.692	80.001	19.996	101.087	19.291	53.061	0.503
546.000	351.941	80.001	19.995	101.084	19.289	53.220	0.479
546.500	352.209	80.001	19.996	101.081	19.299	52.506	0.494
547.000	352.463	80.002	19.996	101.080	19.300	52.492	0.520
547.500	352.734	80.002	19.995	101.079	19.304	52.177	0.524
548.000	352.988	80.001	19.995	101.076	19.308	51.933	0.525
548.500	353.242	80.001	19.996	101.073	19.308	51.876	0.516
549.000	353.542	80.001	19.995	101.072	19.314	51.509	0.531
549.500	353.786	80.000	19.996	101.069	19.314	51.525	0.549
550.000	354.035	80.000	19.996	101.065	19.319	51.136	0.518
550.500	354.281	79.999	19.995	101.062	19.321	50.988	0.494
551.000	354.535	80.000	19.996	101.059	19.325	50.726	0.497
551.500	354.743	79.999	19.995	101.056	19.331	50.310	0.481
552.000	355.009	80.000	19.996	101.053	19.336	49.976	0.468
552.500	355.270	79.998	19.995	101.052	19.339	49.764	0.501
553.000	355.506	79.999	19.996	101.052	19.345	49.358	0.512
553.500	355.784	79.999	19.995	101.053	19.341	49.593	0.506
554.000	356.031	79.999	19.995	101.053	19.346	49.284	0.520
554.500	356.262	79.999	19.996	101.051	19.348	49.133	0.501
555.000	356.556	79.999	19.996	101.045	19.357	48.497	0.501
555.500	356.765	79.998	19.994	101.041	19.363	48.052	0.514
556.000	357.044	79.999	19.995	101.037	19.361	48.202	0.496
556.500	357.343	79.999	19.996	101.032	19.377	47.131	0.533
557.000	357.529	80.000	19.996	101.028	19.375	47.227	0.531
557.500	357.829	79.997	19.994	101.026	19.378	47.043	0.485
558.000	358.055	80.000	19.996	101.024	19.386	46.480	0.506
558.500	358.256	80.000	19.995	101.020	19.384	46.622	0.476
559.000	358.521	80.000	19.996	101.018	19.391	46.118	0.447
559.500	358.796	79.999	19.996	101.016	19.395	45.858	0.503
560.000	359.045	79.998	19.996	101.016	19.408	44.932	0.532
560.500	359.324	79.999	19.997	101.014	19.403	45.301	0.526
561.000	359.542	79.999	19.996	101.014	19.412	44.683	0.512
561.500	359.804	80.000	19.996	101.014	19.419	44.184	0.489
562.000	360.029	80.000	19.997	101.014	19.427	43.628	0.483
562.500	360.235	79.999	19.996	101.014	19.429	43.535	0.459
563.000	360.523	80.001	19.996	101.014	19.432	43.318	0.463
563.500	360.740	79.999	19.996	101.013	19.445	42.428	0.500
564.000	360.980	79.999	19.997	101.010	19.439	42.790	0.481
564.500	361.305	79.999	19.996	101.005	19.449	42.147	0.511
565.001	361.532	79.999	19.995	101.000	19.460	41.330	0.558
565.500	361.791	80.001	19.997	100.993	19.464	41.053	0.519
566.000	362.035	80.000	19.996	100.986	19.464	41.055	0.495
566.500	362.310	79.999	19.995	100.982	19.474	40.360	0.511
567.000	362.606	79.999	19.996	100.981	19.480	39.974	0.545
567.500	362.848	79.999	19.995	100.978	19.481	39.924	0.554
568.000	363.050	80.000	19.997	100.978	19.491	39.185	0.491
568.500	363.246	79.999	19.997	100.978	19.487	39.459	0.421
569.000	363.525	79.998	19.996	100.977	19.500	38.572	0.436
569.500	363.788	80.000	19.995	100.977	19.502	38.441	0.508
570.000	364.047	80.001	19.996	100.976	19.510	37.887	0.532
570.500	364.281	79.999	19.996	100.976	19.517	37.412	0.508
571.000	364.549	79.999	19.996	100.976	19.520	37.191	0.498
571.500	364.844	79.999	19.995	100.976	19.525	36.839	0.533
572.000	365.080	79.999	19.996	100.976	19.535	36.135	0.547
572.500	365.320	79.999	19.994	100.976	19.536	36.108	0.503
573.000	365.576	80.001	19.997	100.975	19.541	35.716	0.486
573.500	365.805	80.000	19.996	100.971	19.552	34.999	0.490
574.000	366.062	79.996	19.997	100.968	19.555	34.787	0.485
574.500	366.326	80.001	19.996	100.965	19.559	34.511	0.504
575.000	366.615	79.999	19.996	100.963	19.562	34.267	0.538
575.500	366.840	80.000	19.996	100.959	19.573	33.511	0.533
576.000	367.084	79.999	19.996	100.959	19.579	33.069	0.491
576.500	367.346	80.000	19.996	100.955	19.582	32.885	0.488
577.000	367.570	79.998	19.997	100.950	19.585	32.657	0.496
577.500	367.777	80.000	19.996	100.944	19.592	32.179	0.458
578.000	368.071	79.999	19.997	100.941	19.597	31.875	0.466
578.500	368.318	80.000	19.996	100.937	19.604	31.384	0.521
579.000	368.610	79.999	19.996	100.936	19.612	30.786	0.540
579.500	368.856	80.002	19.997	100.934	19.616	30.555	0.538
580.000	369.094	79.996	19.996	100.934	19.614	30.669	0.511
580.500	369.365	80.001	19.997	100.932	19.627	29.810	0.496
581.000	369.603	80.000	19.997	100.931	19.634	29.258	0.509
581.500	369.841	80.000	19.997	100.930	19.636	29.133	0.493
582.000	370.093	80.000	19.997	100.930	19.638	29.045	0.483
582.500	370.341	79.997	19.996	100.929	19.645	28.516	0.495
583.000	370.558	79.999	19.998	100.927	19.651	28.144	0.482
583.500	370.804	79.998	19.997	100.923	19.660	27.481	0.464
584.000	371.088	79.999	19.996	100.921	19.661	27.421	0.496
584.500	371.356	79.998	19.996	100.918	19.659	27.566	0.541
585.000	371.569	79.999	19.998	100.915	19.677	26.301	0.517
585.500	371.867	79.999	19.996	100.913	19.679	26.179	0.496
586.000	372.079	79.999	19.998	100.914	19.689	25.486	0.510
586.500	372.319	80.000	19.997	100.912	19.688	25.555	0.481
587.000	372.611	80.000	19.997	100.910	19.694	25.124	0.492
587.500	372.893	79.999	19.997	100.909	19.702	24.614	0.553
588.000	373.118	80.000	19.997	100.907	19.702	24.599	0.540
588.500	373.376	80.001	19.998	100.903	19.712	23.885	0.495
589.000	373.628	79.998	19.996	100.899	19.720	23.325	0.497
589.500	373.910	80.000	19.996	100.897	19.721	23.250	0.522
590.000	374.084	79.999	19.996	100.895	19.725	23.002	0.495
590.500	374.361	79.999	19.997	100.895	19.732	22.521	0.454
591.000	374.617	80.000	19.997	100.894	19.733	22.476	0.492
591.500	374.887	79.998	19.997	100.895	19.742	21.826	0.530
592.000	375.141	79.998	19.998	100.895	19.740	21.969	0.525
592.500	375.363	79.997	19.996	100.895	19.749	21.334	0.500
593.000	375.650	80.001	19.997	100.895	19.756	20.882	0.492
593.500	375.897	80.004	19.996	100.895	19.760	20.593	0.521
594.000	376.161	80.000	19.996	100.895	19.762	20.447	0.522
594.500	376.434	80.000	19.996	100.895	19.763	20.370	0.524
595.000	376.650	80.002	19.996	100.895	19.769	19.944	0.513
595.500	376.872	80.000	19.998	100.894	19.772	19.723	0.463
596.000	377.170	79.997	19.995	100.894	19.774	19.591	0.479
596.500	377.414	80.001	19.997	100.893	19.781	19.107	0.531
597.000	377.652	80.002	19.996	100.892	19.780	19.221	0.512
597.500	377.901	80.001	19.996	100.891	19.787	18.686	0.484
598.000	378.117	80.000	19.997	100.890	19.793	18.281	0.476
598.500	378.431	80.000	19.995	100.890	19.799	17.855	0.498
599.000	378.646	80.002	19.998	100.890	19.803	17.587	0.530
599.500	378.955	80.001	19.998	100.891	19.805	17.479	0.527
600.000	379.172	80.002	19.997	100.892	19.809	17.178	0.525
600.500	379.427	79.999	19.995	100.892	19.811	17.016	0.499
601.000	379.708	80.001	19.996	100.892	19.813	16.941	0.504
601.500	379.975	79.999	19.996	100.893	19.811	17.014	0.542
602.000	380.223	80.002	19.997	100.893	19.818	16.585	0.531
602.500	380.459	80.003	19.997	100.892	19.818	16.525	0.500
603.000	380.722	80.001	19.998	100.890	19.830	15.735	0.492
603.500	381.030	80.000	19.996	100.890	19.828	15.871	0.535
604.000	381.274	80.001	19.997	100.890	19.830	15.761	0.561
604.500	381.501	80.001	19.998	100.889	19.832	15.595	0.512
605.000	381.759	79.998	19.997	100.887	19.832	15.582	0.478
605.500	382.019	80.001	19.997	100.886	19.836	15.302	0.501
606.000	382.285	80.000	19.996	100.885	19.841	14.953	0.522
606.500	382.529	79.999	19.996	100.884	19.841	14.968	0.518
607.000	382.797	80.000	19.997	100.884	19.843	14.800	0.510
607.500	383.016	80.000	19.999	100.885	19.845	14.699	0.499
608.000	383.253	79.996	19.997	100.885	19.849	14.409	0.472
608.500	383.516	80.000	19.999	100.885	19.852	14.208	0.478
609.000	383.837	80.000	19.997	100.886	19.855	13.970	0.542
609.500	384.007	80.001	19.996	100.885	19.852	14.179	0.537
610.000	384.305	79.999	19.998	100.885	19.857	13.864	0.479
610.500	384.552	80.002	19.997	100.887	19.859	13.742	0.506
611.000	384.787	80.001	19.996	100.886	19.860	13.644	0.514
611.500	385.088	80.000	19.997	100.886	19.862	13.496	0.510
612.000	385.330	80.000	19.997	100.887	19.864	13.390	0.540
612.500	385.559	80.000	19.998	100.887	19.865	13.336	0.507
613.000	385.819	80.002	19.998	100.883	19.862	13.525	0.480
613.500	386.091	79.998	19.996	100.884	19.872	12.812	0.510
614.000	386.319	79.998	19.997	100.883	19.869	13.001	0.516
614.500	386.610	79.999	19.997	100.884	19.875	12.621	0.509
615.000	386.842	80.001	19.996	100.885	19.873	12.761	0.521
615.500	387.142	80.000	19.996	100.888	19.872	12.800	0.528
616.000	387.351	80.001	19.996	100.887	19.879	12.327	0.521
616.500	387.626	80.001	19.997	100.888	19.875	12.605	0.497
617.000	387.877	80.002	19.997	100.889	19.877	12.479	0.505
617.500	388.119	80.000	19.997	100.890	19.881	12.203	0.509
618.000	388.376	80.001	19.997	100.890	19.885	11.904	0.496
618.500	388.658	80.000	19.997	100.891	19.884	12.024	0.519
619.000	388.907	80.003	19.997	100.890	19.877	12.492	0.535
619.500	389.147	80.000	19.996	100.887	19.885	11.894	0.510
620.000	389.417	80.002	19.996	100.882	19.883	12.030	0.500
620.500	389.650	80.001	19.997	100.878	19.889	11.653	0.507
621.000	389.894	80.000	19.995	100.880	19.886	11.877	0.490
621.500	390.174	80.001	19.997	100.881	19.889	11.618	0.500
622.000	390.427	80.002	19.995	100.885	19.893	11.399	0.529
622.500	390.650	80.002	19.995	100.888	19.887	11.795	0.505
623.000	390.913	80.004	19.997	100.891	19.885	11.950	0.480
623.500	391.186	80.004	19.997	100.890	19.895	11.222	0.511
624.000	391.441	80.005	19.996	100.889	19.894	11.314	0.532
624.500	391.716	80.001	19.994	100.885	19.898	11.035	0.529
625.000	391.954	80.003	19.995	100.886	19.897	11.066	0.522
625.500	392.212	80.002	19.994	100.885	19.895	11.235	0.505
626.000	392.461	80.001	19.995	100.883	19.900	10.920	0.501
626.500	392.704	80.001	19.994	100.880	19.898	11.049	0.499
627.000	392.972	80.001	19.995	100.877	19.900	10.916	0.502
627.500	393.255	80.001	19.995	100.871	19.897	11.109	0.531
628.000	393.463	80.002	19.995	100.868	19.897	11.109	0.521
628.500	393.712	80.001	19.997	100.872	19.901	10.796	0.474
629.000	393.997	80.002	19.994	100.873	19.901	10.783	0.495
629.500	394.247	79.999	19.996	100.876	19.899	10.953	0.534
630.000	394.512	80.001	19.996	100.878	19.895	11.214	0.525
630.501	394.755	79.999	19.995	100.881	19.899	10.981	0.512
631.000	395.028	80.000	19.995	100.882	19.899	10.962	0.512
631.500	395.246	80.000	19.995	100.883	19.899	10.957	0.504
632.000	395.540	80.000	19.997	100.884	19.898	11.020	0.502
632.500	395.792	79.999	19.995	100.888	19.900	10.891	0.529
633.000	396.012	79.998	19.995	100.887	19.902	10.774	0.509
633.500	396.269	79.998	19.997	100.883	19.900	10.865	0.475
634.000	396.570	79.997	19.995	100.880	19.909	10.237	0.518
634.500	396.784	80.002	19.997	100.877	19.897	11.076	0.536
635.000	397.044	79.999	19.996	100.873	19.905	10.543	0.495
635.500	397.263	79.999	19.996	100.870	19.906	10.491	0.477
636.000	397.531	80.001	19.997	100.868	19.908	10.351	0.483
636.500	397.798	80.000	19.996	100.870	19.903	10.689	0.511
637.000	398.069	79.998	19.995	100.877	19.905	10.560	0.536
637.500	398.316	79.997	19.995	100.879	19.908	10.336	0.527
638.000	398.578	79.999	19.998	100.882	19.913	9.979	0.514
638.500	398.830	79.999	19.996	100.885	19.908	10.321	0.512
639.000	399.088	80.001	19.996	100.882	19.908	10.317	0.512
639.500	399.345	80.001	19.996	100.877	19.909	10.279	0.513
640.000	399.614	80.000	19.995	100.875	19.912	10.035	0.520
640.500	399.851	79.999	19.996	100.872	19.912	10.038	0.516
641.000	400.104	80.000	19.996	100.871	19.911	10.141	0.498
641.500	400.324	80.000	19.995	100.873	19.905	10.545	0.481
642.000	400.611	79.999	19.995	100.874	19.911	10.132	0.490
642.500	400.831	80.000	19.997	100.874	19.917	9.715	0.507
643.000	401.084	79.999	19.995	100.873	19.909	10.243	0.490
643.500	401.334	79.999	19.995	100.873	19.911	10.092	0.488
644.000	401.600	79.998	19.994	100.875	19.907	10.404	0.510
644.500	401.833	79.999	19.996	100.875	19.915	9.854	0.507
645.000	402.088	79.999	19.998	100.872	19.906	10.482	0.493
645.500	402.366	79.999	19.996	100.872	19.909	10.241	0.511
646.000	402.598	80.000	19.996	100.870	19.915	9.872	0.522
646.500	402.868	80.000	19.996	100.867	19.912	10.053	0.506
647.000	403.110	80.000	19.997	100.868	19.914	9.901	0.507
647.500	403.367	79.998	19.996	100.870	19.909	10.248	0.505
648.000	403.636	79.999	19.996	100.870	19.915	9.882	0.512
648.500	403.859	80.000	19.996	100.873	19.914	9.923	0.509
649.000	404.140	80.000	19.999	100.874	19.914	9.890	0.498
649.500	404.388	80.003	19.997	100.872	19.910	10.168	0.517
650.000	404.612	80.004	19.997	100.872	19.917	9.689	0.501
650.500	404.873	80.000	19.997	100.875	19.916	9.747	0.478
651.000	405.112	80.001	19.996	100.873	19.918	9.656	0.492
651.501	405.382	80.001	19.995	100.877	19.918	9.672	0.504
652.000	405.655	80.002	19.997	100.880	19.917	9.712	0.526
652.500	405.884	80.000	19.996	100.884	19.919	9.594	0.523
653.000	406.148	79.999	19.995	100.885	19.914	9.905	0.498
653.500	406.415	80.002	19.996	100.884	19.914	9.915	0.512
654.000	406.628	80.000	19.996	100.879	19.920	9.496	0.505
654.500	406.870	80.003	19.997	100.877	19.921	9.408	0.467
655.000	407.122	80.001	19.995	100.876	19.912	10.056	0.474
655.500	407.391	80.000	19.995	100.871	19.917	9.719	0.508
656.000	407.648	80.001	19.997	100.871	19.917	9.715	0.524
656.500	407.918	80.001	19.997	100.873	19.916	9.745	0.527
657.000	408.153	80.001	19.996	100.869	19.917	9.712	0.516
657.500	408.383	80.002	19.996	100.867	19.918	9.649	0.486
658.000	408.652	79.999	19.996	100.872	19.918	9.662	0.482
658.500	408.862	80.000	19.995	100.873	19.918	9.632	0.489
659.000	409.134	80.003	19.995	100.871	19.919	9.540	0.480
659.500	409.396	79.999	19.996	100.876	19.917	9.684	0.507
660.000	409.668	80.001	19.997	100.874	19.919	9.555	0.534
660.500	409.901	80.000	19.995	100.873	19.919	9.555	0.520
661.000	410.159	80.000	19.994	100.869	19.924	9.252	0.498
661.500	410.404	79.999	19.995	100.870	19.922	9.340	0.497
662.000	410.671	79.999	19.996	100.868	19.921	9.457	0.508
662.500	410.923	80.001	19.996	100.868	19.918	9.621	0.515
663.000	411.158	80.001	19.996	100.868	19.918	9.649	0.503
663.500	411.419	80.000	19.995	100.873	19.927	9.016	0.491
664.000	411.652	79.998	19.996	100.876	19.917	9.676	0.495
664.501	411.947	79.997	19.996	100.880	19.920	9.508	0.511
665.001	412.152	80.001	19.996	100.879	19.925	9.134	0.514
665.500	412.419	80.000	19.996	100.876	19.924	9.239	0.486
666.000	412.672	79.999	19.996	100.871	19.923	9.289	0.495
666.500	412.927	80.002	19.996	100.866	19.924	9.218	0.514
667.000	413.198	79.998	19.996	100.863	19.925	9.147	0.517
667.500	413.411	79.998	19.995	100.867	19.924	9.224	0.505
668.000	413.692	79.998	19.997	100.868	19.927	9.015	0.489
668.500	413.911	79.999	19.997	100.874	19.927	9.050	0.498
669.000	414.184	79.999	19.996	100.876	19.925	9.159	0.496
669.500	414.415	80.000	19.998	100.874	19.926	9.092	0.498
670.000	414.652	80.000	19.995	100.871	19.926	9.067	0.486
670.500	414.905	80.000	19.996	100.876	19.927	9.037	0.479
671.000	415.178	80.004	19.997	100.871	19.930	8.820	0.508
671.500	415.425	79.999	19.996	100.868	19.926	9.083	0.523
672.000	415.652	80.001	19.996	100.868	19.927	9.036	0.497
672.500	415.945	80.002	19.997	100.866	19.925	9.162	0.498
673.000	416.180	80.000	19.996	100.861	19.926	9.115	0.524
673.500	416.414	80.000	19.995	100.861	19.927	9.030	0.498
674.000	416.698	80.002	19.996	100.863	19.929	8.901	0.493
674.500	416.935	80.001	19.995	100.863	19.929	8.890	0.519
675.000	417.193	79.999	19.997	100.863	19.929	8.896	0.508
675.500	417.482	79.999	19.997	100.864	19.932	8.700	0.521
676.000	417.710	80.000	19.996	100.863	19.931	8.773	0.532
676.500	417.958	79.998	19.997	100.868	19.929	8.879	0.496
677.000	418.224	80.001	19.996	100.869	19.931	8.769	0.495
677.500	418.490	80.001	19.996	100.868	19.930	8.778	0.523
678.000	418.728	80.002	19.997	100.869	19.930	8.820	0.518
678.500	418.984	79.999	19.996	100.870	19.931	8.751	0.499
679.000	419.237	80.000	19.995	100.868	19.929	8.878	0.501
679.500	419.506	79.997	19.996	100.870	19.930	8.815	0.515
680.000	419.729	80.000	19.997	100.875	19.924	9.215	0.507
680.500	419.997	80.000	19.997	100.874	19.932	8.665	0.492
681.000	420.269	80.001	19.996	100.873	19.928	8.977	0.516
681.500	420.530	80.001	19.997	100.871	19.933	8.583	0.537
682.000	420.793	80.000	19.996	100.868	19.933	8.635	0.529
682.500	421.026	80.002	19.996	100.863	19.934	8.536	0.510
683.000	421.279	80.000	19.996	100.863	19.934	8.510	0.491
683.500	421.498	80.001	19.996	100.863	19.932	8.648	0.479
684.000	421.766	80.003	19.996	100.864	19.936	8.392	0.479
684.500	422.012	80.002	19.995	100.869	19.937	8.351	0.501
685.000	422.268	80.002	19.996	100.872	19.935	8.455	0.508
685.500	422.510	80.002	19.995	100.878	19.937	8.349	0.500
686.000	422.773	80.001	19.996	100.882	19.937	8.327	0.502
686.500	423.041	80.000	19.995	100.883	19.933	8.614	0.518
687.000	423.263	80.000	19.996	100.878	19.936	8.371	0.511
687.500	423.541	80.000	19.995	100.879	19.936	8.381	0.495
688.000	423.779	79.999	19.995	100.878	19.936	8.424	0.508
688.500	424.020	79.998	19.996	100.873	19.931	8.768	0.497
689.000	424.278	80.000	19.996	100.869	19.938	8.261	0.489
689.500	424.595	80.001	19.995	100.872	19.937	8.343	0.537
690.000	424.813	80.001	19.997	100.872	19.932	8.695	0.555
690.500	425.045	79.998	19.995	100.869	19.933	8.573	0.492
691.000	425.293	80.000	19.996	100.868	19.935	8.448	0.465
691.500	425.577	80.001	19.996	100.870	19.939	8.196	0.506
692.000	425.801	80.000	19.998	100.868	19.937	8.329	0.520
692.500	426.041	80.001	19.996	100.866	19.938	8.227	0.486
693.000	426.318	80.000	19.995	100.865	19.941	8.027	0.490
693.500	426.563	79.999	19.997	100.865	19.939	8.184	0.520
694.000	426.817	79.998	19.996	100.865	19.943	7.924	0.511
694.500	427.032	79.999	19.996	100.864	19.944	7.821	0.484
695.000	427.314	80.001	19.995	100.863	19.941	8.023	0.483
695.500	427.565	79.999	19.997	100.863	19.940	8.114	0.515
696.000	427.834	80.000	19.998	100.862	19.945	7.774	0.526
696.500	428.062	79.999	19.996	100.864	19.941	8.084	0.508
697.000	428.313	79.999	19.997	100.865	19.942	8.011	0.488
697.500	428.575	80.000	19.996	100.865	19.942	7.960	0.496
698.000	428.822	80.001	19.996	100.864	19.946	7.677	0.511
698.500	429.096	80.000	19.997	100.864	19.949	7.494	0.515
699.000	429.331	79.999	19.997	100.863	19.951	7.367	0.515
699.500	429.606	79.999	19.996	100.864	19.945	7.745	0.509
700.000	429.858	80.000	19.996	100.866	19.948	7.592	0.518
700.500	430.095	80.002	19.995	100.865	19.949	7.489	0.508
701.000	430.345	79.998	19.996	100.867	19.948	7.532	0.488
701.500	430.587	80.001	19.995	100.867	19.949	7.508	0.490
702.000	430.851	80.001	19.996	100.867	19.955	7.091	0.499
702.500	431.121	80.001	19.997	100.868	19.944	7.812	0.520
703.000	431.377	80.003	19.997	100.872	19.945	7.782	0.530
703.500	431.598	80.001	19.997	100.876	19.948	7.541	0.501
704.000	431.842	80.001	19.996	100.878	19.953	7.228	0.471
704.500	432.125	79.998	19.997	100.875	19.948	7.568	0.496
705.001	432.359	80.001	19.997	100.874	19.949	7.526	0.522
705.501	432.622	80.001	19.997	100.873	19.944	7.846	0.507
706.001	432.917	80.001	19.996	100.872	19.949	7.474	0.528
706.501	433.152	80.000	19.998	100.871	19.949	7.517	0.544
707.000	433.393	80.002	19.997	100.869	19.953	7.203	0.503
707.500	433.662	80.002	19.996	100.867	19.953	7.188	0.493
708.000	433.953	80.001	19.996	100.863	19.950	7.405	0.534
708.500	434.193	80.002	19.997	100.858	19.950	7.414	0.546
709.000	434.478	80.002	19.997	100.854	19.951	7.377	0.529
709.500	434.699	80.002	19.996	100.854	19.952	7.321	0.516
710.000	434.973	80.001	19.995	100.855	19.956	7.001	0.500
710.500	435.211	80.002	19.997	100.855	19.953	7.205	0.503
711.000	435.474	80.001	19.997	100.857	19.952	7.265	0.506
711.500	435.743	80.001	19.997	100.858	19.951	7.341	0.517
712.000	435.978	80.002	19.996	100.858	19.954	7.158	0.518
712.500	436.264	80.002	19.996	100.857	19.956	7.029	0.512
713.000	436.499	80.000	19.995	100.858	19.956	7.037	0.521
713.500	436.742	79.999	19.996	100.859	19.956	7.003	0.500
714.000	437.005	80.001	19.996	100.859	19.956	7.022	0.492
714.500	437.275	80.001	19.996	100.860	19.952	7.270	0.520
715.000	437.532	79.999	19.996	100.860	19.958	6.850	0.530
715.500	437.770	80.000	19.995	100.859	19.960	6.715	0.510
716.000	438.015	79.998	19.996	100.857	19.957	6.949	0.489
716.500	438.275	79.999	19.995	100.856	19.958	6.887	0.494
717.000	438.540	79.999	19.995	100.855	19.960	6.762	0.515
717.500	438.759	79.997	19.996	100.856	19.956	7.031	0.504
718.000	439.025	80.002	19.995	100.856	19.958	6.882	0.484
718.500	439.245	79.999	19.995	100.856	19.955	7.085	0.486
719.000	439.545	80.000	19.997	100.857	19.956	6.979	0.503
719.500	439.774	80.000	19.995	100.858	19.960	6.702	0.524
720.000	440.013	79.999	19.994	100.859	19.963	6.510	0.498
720.500	440.270	80.001	19.995	100.859	19.963	6.512	0.483
721.000	440.570	80.000	19.995	100.859	19.958	6.893	0.527
721.500	440.795	80.000	19.997	100.859	19.962	6.600	0.540
722.000	441.004	80.001	19.996	100.858	19.959	6.820	0.479
722.500	441.273	80.000	19.995	100.857	19.959	6.798	0.456
723.000	441.542	79.998	19.996	100.856	19.963	6.538	0.508
723.500	441.780	80.000	19.996	100.856	19.964	6.474	0.523
724.000	442.072	79.998	19.996	100.856	19.961	6.646	0.519
724.500	442.274	80.000	19.996	100.855	19.960	6.728	0.512
725.000	442.531	79.999	19.996	100.855	19.961	6.695	0.476
725.500	442.778	79.998	19.995	100.857	19.961	6.648	0.481
726.000	443.055	79.999	19.996	100.857	19.963	6.517	0.514
726.500	443.278	80.000	19.996	100.857	19.963	6.523	0.512
727.000	443.524	80.001	19.995	100.857	19.962	6.599	0.484
727.500	443.822	80.001	19.995	100.857	19.968	6.207	0.506
728.000	444.044	79.999	19.996	100.856	19.965	6.392	0.532
728.500	444.291	79.999	19.996	100.856	19.956	7.018	0.494
729.000	444.536	79.999	19.996	100.855	19.964	6.482	0.480
729.500	444.840	79.999	19.995	100.855	19.965	6.387	0.521
730.000	445.042	80.000	19.996	100.856	19.962	6.581	0.528
730.500	445.304	79.998	19.995	100.855	19.964	6.469	0.485
731.000	445.584	79.998	19.995	100.855	19.959	6.822	0.503
731.500	445.829	80.001	19.996	100.856	19.961	6.648	0.533
732.000	446.067	80.000	19.997	100.858	19.966	6.353	0.504
732.501	446.329	80.000	19.996	100.858	19.966	6.297	0.492
733.000	446.582	80.001	19.996	100.858	19.965	6.374	0.508
733.500	446.844	80.000	19.996	100.857	19.965	6.379	0.515
734.000	447.082	80.000	19.996	100.857	19.966	6.297	0.507
734.500	447.328	79.999	19.995	100.855	19.962	6.603	0.491
735.000	447.583	80.000	19.996	100.855	19.965	6.403	0.492
735.500	447.836	80.001	19.996	100.856	19.966	6.332	0.505
736.000	448.080	79.999	19.996	100.856	19.968	6.168	0.502
736.500	448.304	80.000	19.995	100.856	19.967	6.248	0.482
737.000	448.572	80.001	19.996	100.856	19.968	6.181	0.480
737.500	448.819	79.999	19.997	100.856	19.963	6.514	0.504
738.000	449.089	80.000	19.996	100.856	19.967	6.219	0.517
738.500	449.332	79.999	19.995	100.857	19.968	6.183	0.516
739.000	449.613	80.000	19.995	100.857	19.969	6.138	0.518
739.500	449.829	80.000	19.994	100.858	19.966	6.290	0.510
740.000	450.118	79.999	19.996	100.859	19.966	6.349	0.501
740.500	450.333	79.999	19.995	100.859	19.968	6.187	0.505
741.000	450.602	80.000	19.995	100.860	19.966	6.353	0.494
741.500	450.845	79.999	19.996	100.861	19.968	6.149	0.497
742.001	451.104	79.999	19.995	100.860	19.965	6.362	0.507
742.500	451.356	80.000	19.996	100.860	19.969	6.093	0.506
743.000	451.611	79.999	19.994	100.860	19.969	6.108	0.509
743.500	451.837	79.999	19.996	100.860	19.968	6.202	0.494
744.000	452.070	80.000	19.997	100.859	19.969	6.114	0.470
744.500	452.338	79.999	19.994	100.859	19.974	5.738	0.480
745.000	452.603	79.999	19.996	100.859	19.970	6.046	0.517
745.500	452.831	79.998	19.994	100.860	19.969	6.088	0.513
746.000	453.108	79.999	19.994	100.860	19.969	6.108	0.499
746.500	453.376	79.999	19.995	100.860	19.972	5.933	0.525
747.000	453.594	79.997	19.995	100.860	19.972	5.880	0.515
747.500	453.876	79.999	19.995	100.860	19.971	5.970	0.493
748.000	454.139	80.000	19.995	100.860	19.973	5.862	0.522
748.500	454.367	79.999	19.995	100.862	19.973	5.828	0.518
749.000	454.632	79.998	19.996	100.862	19.972	5.923	0.492
749.500	454.884	79.999	19.995	100.863	19.972	5.916	0.505
750.000	455.144	79.999	19.995	100.862	19.973	5.852	0.515
750.500	455.409	80.000	19.994	100.862	19.973	5.869	0.518
751.000	455.659	80.000	19.996	100.860	19.974	5.742	0.520
751.500	455.911	79.999	19.996	100.859	19.972	5.903	0.509
752.000	456.173	80.001	19.994	100.858	19.970	6.024	0.508
752.500	456.394	79.999	19.995	100.858	19.972	5.876	0.499
753.000	456.680	80.000	19.995	100.858	19.972	5.901	0.495
753.500	456.904	79.998	19.994	100.858	19.973	5.854	0.508
754.000	457.143	80.001	19.995	100.858	19.974	5.783	0.487
754.500	457.376	80.000	19.996	100.858	19.974	5.746	0.468
755.000	457.694	79.998	19.995	100.858	19.975	5.676	0.512
755.500	457.935	79.999	19.995	100.858	19.978	5.480	0.555
756.000	458.160	80.000	19.995	100.858	19.983	5.166	0.512
756.500	458.428	80.000	19.996	100.858	19.977	5.557	0.479
757.000	458.687	79.999	19.995	100.858	19.974	5.732	0.510
757.500	458.959	79.999	19.996	100.858	19.976	5.662	0.529
758.000	459.156	80.001	19.996	100.860	19.978	5.520	0.500
758.500	459.471	79.999	19.995	100.859	19.979	5.398	0.491
759.000	459.703	80.001	19.996	100.859	19.976	5.637	0.529
759.500	459.931	80.000	19.995	100.860	19.978	5.492	0.503
760.000	460.172	80.000	19.996	100.860	19.980	5.320	0.464
760.500	460.478	80.000	19.996	100.858	19.973	5.850	0.508
761.000	460.754	79.999	19.996	100.859	19.978	5.493	0.565
761.500	460.941	80.002	19.995	100.859	19.981	5.290	0.523
762.000	461.234	79.999	19.996	100.859	19.979	5.413	0.471
762.500	461.472	80.001	19.995	100.859	19.981	5.293	0.505
763.000	461.762	80.001	19.995	100.859	19.975	5.663	0.529
763.500	461.963	80.001	19.995	100.858	19.981	5.282	0.509
764.000	462.244	80.000	19.995	100.857	19.979	5.448	0.487
764.500	462.534	80.003	19.996	100.857	19.978	5.491	0.527
765.000	462.751	80.001	19.997	100.856	19.979	5.435	0.539
765.500	462.982	80.001	19.995	100.857	19.982	5.222	0.477
766.000	463.236	80.000	19.994	100.856	19.983	5.155	0.466
766.500	463.488	80.001	19.994	100.856	19.977	5.555	0.495
767.000	463.759	80.000	19.995	100.856	19.980	5.361	0.514
767.500	464.018	80.000	19.996	100.857	19.976	5.628	0.527
768.000	464.270	79.999	19.994	100.857	19.981	5.316	0.521
768.500	464.533	79.999	19.995	100.857	19.978	5.475	0.513
769.000	464.756	80.001	19.997	100.858	19.980	5.344	0.500
769.500	465.034	80.000	19.996	100.861	19.980	5.383	0.493
770.000	465.279	80.001	19.996	100.861	19.980	5.327	0.512
770.501	465.539	79.998	19.997	100.862	19.980	5.348	0.514
771.000	465.752	80.000	19.996	100.861	19.981	5.286	0.489
771.500	466.042	80.001	19.996	100.861	19.979	5.422	0.488
772.000	466.273	80.000	19.997	100.858	19.984	5.090	0.512
772.500	466.530	80.002	19.996	100.857	19.982	5.187	0.504
773.000	466.827	80.000	19.998	100.856	19.985	5.026	0.521
773.500	467.037	80.000	19.997	100.856	19.981	5.295	0.531
774.000	467.280	80.000	19.996	100.856	19.977	5.560	0.480
774.500	467.574	80.001	19.996	100.856	19.979	5.400	0.494
775.000	467.859	80.000	19.997	100.855	19.979	5.407	0.557
775.500	468.104	80.000	19.995	100.856	19.981	5.286	0.554
776.000	468.356	80.001	19.996	100.856	19.978	5.510	0.514
776.500	468.620	80.001	19.994	100.857	19.983	5.159	0.507
777.000	468.866	80.000	19.996	100.857	19.985	5.002	0.514
777.500	469.119	80.000	19.996	100.856	19.984	5.090	0.505
778.000	469.349	79.999	19.995	100.856	19.980	5.327	0.491
778.500	469.636	80.001	19.996	100.855	19.984	5.097	0.500
779.000	469.872	80.001	19.997	100.854	19.984	5.063	0.520
779.500	470.140	80.000	19.995	100.855	19.985	5.034	0.514
780.000	470.394	80.000	19.996	100.855	19.987	4.862	0.513
780.500	470.618	80.001	19.995	100.857	19.982	5.202	0.499
781.000	470.913	80.001	19.996	100.857	19.990	4.671	0.498
781.500	471.141	80.000	19.994	100.857	19.990	4.686	0.521
782.000	471.364	80.002	19.996	100.856	19.991	4.579	0.487
782.500	471.667	80.001	19.996	100.855	19.987	4.882	0.489
783.000	471.914	80.001	19.996	100.854	19.990	4.658	0.538
783.500	472.147	80.001	19.996	100.853	19.988	4.821	0.515
784.000	472.429	80.002	19.997	100.854	19.990	4.656	0.497
784.500	472.706	80.001	19.995	100.854	19.990	4.690	0.537
785.000	472.917	80.002	19.995	100.855	19.985	5.020	0.524
785.500	473.202	80.003	19.996	100.856	19.988	4.822	0.492
786.000	473.460	80.002	19.996	100.858	19.991	4.600	0.520
786.500	473.678	80.002	19.995	100.859	19.985	4.972	0.510
787.000	474.006	80.002	19.996	100.859	19.987	4.854	0.511
787.500	474.204	80.001	19.994	100.860	19.983	5.121	0.536
788.000	474.490	80.002	19.996	100.857	19.993	4.438	0.506
788.500	474.764	80.002	19.996	100.857	19.987	4.847	0.522
789.000	474.996	80.003	19.997	100.856	19.987	4.867	0.532
789.500	475.271	80.003	19.995	100.854	19.988	4.770	0.506
790.000	475.529	80.002	19.996	100.853	19.993	4.456	0.520
790.500	475.787	80.001	19.996	100.853	19.985	4.985	0.525
791.000	476.052	80.002	19.995	100.853	19.984	5.103	0.520
791.500	476.304	80.002	19.995	100.853	19.984	5.086	0.521
792.000	476.528	80.001	19.996	100.853	19.989	4.725	0.497
792.500	476.792	80.001	19.996	100.852	19.989	4.746	0.482
793.000	477.056	80.002	19.996	100.853	19.984	5.106	0.507
793.500	477.302	80.001	19.997	100.854	19.990	4.677	0.519
794.000	477.567	79.999	19.996	100.854	19.990	4.656	0.511
794.500	477.876	80.000	19.997	100.855	19.991	4.568	0.543
795.000	478.127	80.002	19.997	100.855	19.989	4.746	0.568
795.500	478.367	80.000	19.996	100.855	19.990	4.679	0.526
796.000	478.664	80.000	19.997	100.854	19.992	4.535	0.514
796.500	478.871	80.000	19.997	100.854	19.992	4.538	0.520
797.000	479.129	79.999	19.996	100.855	19.993	4.475	0.484
797.500	479.401	80.000	19.998	100.856	19.990	4.634	0.498
798.000	479.660	79.999	19.996	100.856	19.989	4.707	0.530
798.500	479.912	80.000	19.997	100.855	19.993	4.454	0.521
799.000	480.168	80.000	19.997	100.856	19.997	4.210	0.510
799.500	480.435	79.999	19.995	100.854	19.990	4.671	0.515
800.000	480.670	80.000	19.996	100.853	19.992	4.509	0.513
800.500	480.954	79.999	19.996	100.852	19.987	4.881	0.511
801.000	481.175	80.000	19.997	100.852	19.991	4.619	0.512
801.500	481.422	80.000	19.997	100.852	19.993	4.466	0.487
802.000	481.720	79.999	19.995	100.853	19.993	4.447	0.507
802.500	481.953	80.000	19.996	100.854	19.989	4.735	0.538
803.000	482.242	80.001	19.996	100.854	19.995	4.296	0.527
803.500	482.462	79.999	19.996	100.854	19.993	4.479	0.516
804.000	482.747	79.999	19.995	100.853	19.994	4.410	0.507
804.501	482.963	79.999	19.997	100.853	19.993	4.481	0.503
805.000	483.203	79.999	19.996	100.854	19.995	4.303	0.478
805.500	483.482	79.999	19.995	100.855	19.996	4.253	0.487
806.000	483.749	80.000	19.996	100.855	19.998	4.087	0.533
806.500	483.991	80.001	19.996	100.855	19.997	4.199	0.528
807.000	484.220	79.999	19.995	100.855	19.995	4.307	0.490
807.500	484.503	80.000	19.996	100.854	19.992	4.529	0.491
808.000	484.757	79.999	19.995	100.855	19.995	4.311	0.524
808.500	485.052	80.000	19.996	100.855	19.995	4.299	0.543
809.000	485.289	80.000	19.996	100.856	19.997	4.200	0.540
809.500	485.575	79.999	19.996	100.856	19.993	4.430	0.527
810.000	485.804	79.998	19.995	100.857	19.989	4.701	0.519
810.500	486.074	79.999	19.996	100.858	19.992	4.501	0.507
811.000	486.315	80.000	19.995	100.857	19.996	4.251	0.505
811.500	486.584	79.999	19.995	100.861	19.992	4.537	0.510
812.000	486.793	80.000	19.995	100.862	19.994	4.380	0.494
812.500	487.103	79.999	19.995	100.864	20.000	3.993	0.498
813.000	487.383	79.999	19.996	100.866	19.998	4.140	0.554
813.500	487.631	80.000	19.996	100.868	19.992	4.544	0.559
814.000	487.884	80.000	19.996	100.866	20.000	3.991	0.515
814.500	488.139	80.001	19.995	100.865	19.997	4.152	0.505
815.000	488.379	79.999	19.995	100.865	19.999	4.060	0.501
815.500	488.661	80.001	19.995	100.862	19.995	4.300	0.508
816.000	488.926	80.000	19.995	100.860	19.994	4.396	0.535
816.500	489.125	80.000	19.995	100.861	19.996	4.231	0.506
817.000	489.415	80.000	19.996	100.861	19.996	4.279	0.476
817.500	489.681	79.999	19.996	100.860	19.994	4.406	0.522
818.000	489.930	80.000	19.994	100.860	19.999	4.060	0.536
818.500	490.177	79.999	19.996	100.860	19.997	4.198	0.506
819.000	490.426	79.999	19.996	100.859	19.996	4.262	0.496
819.500	490.708	79.999	19.995	100.859	19.992	4.496	0.513
820.000	490.968	80.000	19.995	100.859	19.995	4.300	0.537
820.500	491.225	79.999	19.994	100.860	19.996	4.227	0.530
821.000	491.469	79.999	19.996	100.860	19.995	4.286	0.509
821.500	491.694	80.000	19.995	100.859	19.996	4.238	0.485
822.000	491.995	80.000	19.996	100.859	19.996	4.236	0.498
822.500	492.211	79.999	19.994	100.858	19.998	4.100	0.522
823.000	492.480	80.000	19.996	100.858	19.999	4.070	0.501
823.500	492.762	80.001	19.996	100.858	19.999	4.060	0.518
824.000	493.012	79.998	19.995	100.852	19.995	4.322	0.542
824.500	493.268	79.998	19.997	100.848	19.999	4.017	0.519
825.000	493.517	79.998	19.995	100.849	19.996	4.271	0.506
825.500	493.820	80.000	19.995	100.855	19.999	4.066	0.529
826.000	494.029	79.997	19.996	100.861	19.995	4.316	0.531
826.500	494.323	80.000	19.995	100.868	19.998	4.133	0.507
827.000	494.542	80.000	19.995	100.882	20.000	3.974	0.508
827.500	494.843	79.998	19.996	100.874	19.997	4.184	0.517
828.000	495.087	79.997	19.995	100.865	20.000	3.957	0.532
828.500	495.288	79.999	19.995	100.860	20.003	3.733	0.495
829.000	495.592	79.998	19.994	100.858	19.998	4.081	0.475
829.500	495.832	79.999	19.995	100.851	19.998	4.126	0.525
830.000	496.100	79.998	19.998	100.859	19.996	4.245	0.526
830.500	496.359	79.997	19.996	100.862	19.997	4.169	0.517
831.000	496.585	79.999	19.997	100.862	19.998	4.090	0.506
831.500	496.842	79.999	19.995	100.861	19.996	4.238	0.484
832.000	497.121	79.998	19.995	100.860	19.997	4.167	0.509
832.500	497.357	79.998	19.995	100.859	19.998	4.103	0.525
833.000	497.634	79.998	19.994	100.860	19.997	4.167	0.514
833.500	497.904	80.000	19.996	100.861	19.997	4.206	0.530
834.000	498.132	79.998	19.996	100.862	19.999	4.006	0.522
834.500	498.406	79.999	19.995	100.862	20.000	3.997	0.500
835.000	498.657	80.000	19.997	100.863	19.995	4.299	0.514
835.500	498.919	80.000	19.996	100.861	19.998	4.120	0.519
836.000	499.150	80.000	19.995	100.860	19.998	4.131	0.503
836.500	499.437	80.000	19.995	100.859	19.995	4.318	0.505
837.000	499.651	79.999	19.995	100.859	19.998	4.124	0.510
837.500	499.927	79.999	19.995	100.858	20.003	3.733	0.496
838.000	500.191	80.001	19.995	100.859	20.000	3.969	0.515
838.500	500.439	80.000	19.995	100.858	19.998	4.129	0.526
839.000	500.694	80.001	19.997	100.858	19.998	4.139	0.508
839.500	500.972	80.001	19.996	100.858	19.998	4.073	0.518
840.000	501.231	80.001	19.995	100.858	19.995	4.309	0.535
840.500	501.480	80.001	19.995	100.856	20.001	3.894	0.522
841.001	501.703	80.002	19.996	100.856	19.996	4.268	0.490
841.500	502.009	80.001	19.994	100.856	19.997	4.183	0.501
842.000	502.243	80.000	19.995	100.855	19.998	4.090	0.535
842.500	502.508	80.000	19.996	100.855	19.997	4.165	0.520
843.000	502.749	80.002	19.994	100.855	20.000	3.939	0.502
843.500	503.012	80.002	19.995	100.855	19.994	4.355	0.505
844.000	503.246	80.002	19.995	100.855	19.996	4.255	0.501
844.500	503.502	80.002	19.995	100.855	19.997	4.150	0.494
845.000	503.754	80.002	19.996	100.854	19.997	4.178	0.499
845.500	504.035	80.002	19.996	100.854	19.999	4.015	0.520
846.000	504.242	80.000	19.995	100.855	19.996	4.228	0.511
846.500	504.528	80.004	19.995	100.858	19.997	4.167	0.491
847.000	504.737	80.001	19.995	100.858	19.992	4.514	0.494
847.500	505.016	80.001	19.996	100.858	19.993	4.430	0.491
848.000	505.298	80.001	19.994	100.858	19.995	4.337	0.524
848.500	505.508	80.002	19.995	100.858	20.002	3.832	0.527
849.000	505.802	80.002	19.995	100.855	19.997	4.185	0.498
849.500	506.070	80.001	19.995	100.855	20.001	3.899	0.533
850.000	506.328	80.002	19.995	100.855	19.999	4.008	0.544
850.500	506.538	80.001	19.995	100.855	19.999	4.058	0.497
851.001	506.837	80.001	19.996	100.854	19.998	4.086	0.489
851.501	507.099	80.001	19.994	100.855	19.999	4.021	0.535
852.000	507.324	80.001	19.995	100.855	20.000	3.983	0.524
852.500	507.584	80.001	19.997	100.855	19.997	4.165	0.486
853.001	507.850	80.001	19.995	100.856	19.997	4.144	0.505
853.500	508.066	80.001	19.996	100.856	19.997	4.142	0.504
854.000	508.325	80.001	19.996	100.856	19.999	4.066	0.478
854.500	508.602	80.000	19.996	100.856	19.996	4.245	0.505
855.000	508.872	80.000	19.995	100.856	20.004	3.726	0.541
855.500	509.107	80.001	19.996	100.856	19.999	4.036	0.526
856.000	509.369	80.000	19.997	100.856	20.001	3.886	0.501
856.500	509.659	80.001	19.997	100.856	20.000	3.942	0.524
857.000	509.884	79.999	19.996	100.856	20.003	3.780	0.533
857.500	510.140	80.000	19.996	100.855	20.002	3.821	0.498
858.000	510.437	80.000	19.995	100.856	20.001	3.886	0.517
858.500	510.637	80.000	19.995	100.856	20.001	3.924	0.525
859.000	510.921	80.000	19.997	100.856	19.999	4.032	0.491
859.500	511.146	80.001	19.996	100.857	20.001	3.892	0.497
860.000	511.412	80.002	19.995	100.856	20.001	3.894	0.500
860.500	511.627	80.001	19.996	100.855	19.997	4.150	0.486
861.000	511.914	80.001	19.996	100.855	20.000	3.961	0.492
861.500	512.147	80.001	19.996	100.854	19.999	4.006	0.511
862.000	512.369	80.001	19.997	100.854	19.994	4.413	0.487
862.500	512.678	80.002	19.996	100.854	20.001	3.868	0.493
863.000	512.933	80.002	19.997	100.853	20.001	3.914	0.548
863.500	513.210	80.001	19.996	100.853	20.001	3.886	0.548
864.000	513.458	80.002	19.996	100.853	20.002	3.823	0.528
864.500	513.698	80.001	19.996	100.853	20.004	3.701	0.506
865.000	513.973	80.001	19.996	100.853	20.004	3.705	0.501
865.500	514.243	80.003	19.997	100.854	20.003	3.787	0.530
866.000	514.489	80.001	19.996	100.856	20.008	3.445	0.531
866.500	514.721	80.003	19.995	100.856	20.002	3.860	0.497
867.000	514.979	80.002	19.995	100.856	20.004	3.672	0.484
867.500	515.263	80.002	19.996	100.856	20.004	3.685	0.516
868.000	515.510	80.002	19.995	100.856	19.998	4.107	0.537
868.500	515.774	80.003	19.996	100.853	19.997	4.202	0.521
869.000	516.045	80.003	19.996	100.853	20.003	3.774	0.523
869.501	516.345	80.003	19.995	100.853	20.003	3.756	0.553
870.000	516.555	80.002	19.996	100.853	19.999	4.051	0.541
870.500	516.815	80.002	19.996	100.853	20.002	3.812	0.491
871.000	517.083	80.003	19.995	100.853	20.007	3.505	0.499
871.500	517.344	80.003	19.996	100.853	20.005	3.627	0.528
872.000	517.627	80.003	19.995	100.853	20.004	3.720	0.536
872.500	517.830	80.002	19.996	100.854	20.000	3.942	0.515
873.000	518.124	80.003	19.995	100.856	20.003	3.744	0.492
873.501	518.371	80.002	19.995	100.857	20.001	3.899	0.519
874.000	518.599	80.001	19.995	100.857	20.004	3.726	0.508
874.500	518.888	80.002	19.996	100.858	20.001	3.903	0.496
875.000	519.131	80.003	19.994	100.858	20.003	3.744	0.524
875.500	519.391	80.002	19.995	100.857	20.007	3.462	0.517
876.000	519.602	80.000	19.995	100.856	20.001	3.877	0.487
876.500	519.878	80.002	19.995	100.856	20.004	3.685	0.479
877.000	520.152	80.001	19.997	100.856	20.003	3.765	0.518
877.500	520.423	80.001	19.995	100.855	20.003	3.750	0.547
878.000	520.684	80.001	19.996	100.856	20.002	3.821	0.538
878.500	520.948	80.000	19.996	100.856	20.003	3.795	0.529
879.000	521.201	80.000	19.996	100.856	20.004	3.716	0.521
879.500	521.499	79.999	19.997	100.856	20.001	3.870	0.534
880.000	521.730	80.000	19.995	100.857	20.002	3.825	0.540
880.500	521.932	80.000	19.995	100.857	20.003	3.787	0.481
881.000	522.240	80.000	19.996	100.856	20.004	3.672	0.471
881.500	522.472	79.999	19.996	100.856	20.001	3.901	0.525
882.000	522.712	79.999	19.996	100.856	20.000	3.952	0.506
882.500	522.953	79.998	19.996	100.855	20.005	3.646	0.477
883.000	523.258	79.998	19.996	100.855	19.999	4.058	0.514
883.500	523.517	80.000	19.997	100.855	20.004	3.717	0.555
884.000	523.786	79.998	19.997	100.856	20.000	3.961	0.546
884.500	524.031	79.998	19.996	100.856	20.001	3.900	0.521
885.000	524.265	79.999	19.996	100.857	20.001	3.918	0.496
885.500	524.518	79.999	19.997	100.857	20.004	3.675	0.483
886.001	524.789	79.999	19.997	100.857	20.001	3.881	0.505
886.500	525.053	79.998	19.997	100.858	20.002	3.862	0.529
887.000	525.287	80.000	19.997	100.858	20.001	3.890	0.517
887.500	525.569	79.999	19.997	100.857	19.999	4.030	0.508
888.000	525.745	79.999	19.997	100.857	19.999	4.017	0.487
888.500	526.013	79.998	19.996	100.857	20.001	3.901	0.451
889.000	526.298	79.999	19.997	100.856	20.000	3.984	0.498
889.500	526.572	79.999	19.997	100.857	20.004	3.675	0.556
890.000	526.831	79.999	19.997	100.857	20.000	3.946	0.546
890.500	527.032	79.999	19.997	100.857	20.000	3.967	0.497
891.000	527.316	79.998	19.997	100.858	20.004	3.659	0.472
891.500	527.573	79.998	19.998	100.859	20.003	3.733	0.513
892.000	527.842	79.998	19.996	100.859	20.007	3.509	0.534
892.500	528.124	79.999	19.996	100.859	20.002	3.832	0.538
893.000	528.369	79.999	19.996	100.861	20.004	3.726	0.538
893.500	528.624	79.999	19.996	100.862	20.008	3.417	0.513
894.000	528.835	79.999	19.995	100.860	20.005	3.615	0.483
894.500	529.124	79.999	19.997	100.860	20.005	3.621	0.483
895.001	529.343	80.000	19.996	100.860	20.002	3.802	0.504
895.501	529.607	80.001	19.997	100.858	20.004	3.666	0.496
896.000	529.898	79.999	19.997	100.858	20.011	3.188	0.519
896.500	530.111	80.000	19.996	100.858	20.008	3.386	0.529
897.000	530.378	80.000	19.996	100.857	20.003	3.744	0.492
897.500	530.634	79.999	19.996	100.857	20.003	3.750	0.502
898.000	530.897	80.001	19.996	100.858	20.003	3.771	0.521
898.500	531.137	79.999	19.996	100.858	20.004	3.711	0.511
899.000	531.430	80.001	19.996	100.859	20.006	3.530	0.518
899.500	531.671	80.000	19.995	100.859	20.004	3.722	0.533
900.000	531.928	79.999	19.997	100.859	20.003	3.746	0.516
900.500	532.175	80.000	19.996	100.858	20.005	3.627	0.501
901.000	532.423	80.001	19.995	100.857	20.003	3.759	0.500
901.500	532.676	80.001	19.994	100.858	20.003	3.752	0.498
902.000	532.925	80.000	19.995	100.857	20.005	3.623	0.501
902.500	533.195	79.999	19.995	100.857	20.004	3.677	0.511
903.001	533.462	80.000	19.995	100.856	20.005	3.619	0.528
903.500	533.689	80.001	19.995	100.856	20.002	3.797	0.515
904.000	533.948	80.000	19.996	100.855	20.003	3.784	0.490
904.500	534.210	80.000	19.996	100.855	20.004	3.713	0.503
905.001	534.463	79.999	19.996	100.855	20.004	3.668	0.517
905.500	534.714	80.000	19.995	100.856	20.005	3.604	0.509
906.000	535.002	80.000	19.995	100.855	20.003	3.731	0.521
906.500	535.257	80.001	19.995	100.855	20.001	3.890	0.541
907.000	535.551	80.001	19.995	100.855	20.003	3.795	0.546
907.500	535.811	80.000	19.996	100.855	20.005	3.595	0.552
908.000	536.058	80.000	19.995	100.855	20.001	3.905	0.531
908.500	536.290	79.999	19.996	100.855	20.006	3.563	0.493
909.000	536.570	80.000	19.996	100.855	20.002	3.832	0.496
909.500	536.802	80.001	19.996	100.855	20.001	3.913	0.512
910.000	537.090	80.001	19.996	100.855	20.004	3.679	0.516
910.500	537.298	80.001	19.997	100.855	20.000	3.937	0.508
911.000	537.532	79.998	19.996	100.855	20.001	3.927	0.469
911.500	537.809	79.999	19.995	100.854	20.003	3.739	0.476
912.000	538.070	80.000	19.996	100.854	20.005	3.630	0.524
912.500	538.308	79.997	19.996	100.854	20.005	3.614	0.519
913.000	538.591	79.999	19.996	100.855	20.004	3.685	0.511
913.500	538.827	80.000	19.996	100.855	20.006	3.539	0.520
914.000	539.113	79.999	19.996	100.855	20.005	3.604	0.520
914.500	539.345	79.999	19.996	100.855	20.003	3.746	0.520
915.000	539.596	80.000	19.996	100.855	20.006	3.563	0.501
915.500	539.854	79.999	19.996	100.855	20.003	3.733	0.496
916.000	540.104	79.999	19.996	100.855	20.002	3.817	0.508
916.500	540.358	79.999	19.996	100.855	20.004	3.675	0.506
917.000	540.640	80.000	19.997	100.856	20.003	3.750	0.520
917.500	540.864	80.000	19.996	100.856	19.998	4.099	0.521
918.000	541.102	79.999	19.996	100.856	20.002	3.830	0.484
918.500	541.373	79.999	19.995	100.856	20.002	3.802	0.486
919.000	541.653	79.999	19.996	100.856	20.002	3.813	0.530
919.500	541.873	80.000	19.996	100.855	20.003	3.733	0.525
920.000	542.127	80.000	19.996	100.855	20.003	3.763	0.487
920.500	542.377	79.999	19.995	100.855	20.002	3.802	0.489
921.000	542.671	80.001	19.997	100.855	20.002	3.842	0.524
921.500	542.917	80.000	19.995	100.855	20.002	3.832	0.542
922.000	543.151	80.001	19.997	100.855	20.004	3.666	0.510
922.500	543.422	79.999	19.995	100.855	20.004	3.696	0.493
923.000	543.627	80.001	19.997	100.855	20.004	3.711	0.491
923.500	543.908	80.002	19.996	100.854	20.007	3.453	0.481
924.000	544.196	80.001	19.996	100.854	20.002	3.827	0.527
924.500	544.408	80.001	19.995	100.853	20.002	3.847	0.534
925.000	544.684	80.001	19.995	100.853	20.002	3.817	0.494
925.500	544.941	80.002	19.996	100.853	20.002	3.799	0.510
926.000	545.214	80.001	19.995	100.855	20.003	3.782	0.532
926.500	545.497	80.001	19.996	100.855	20.002	3.829	0.543
927.000	545.717	80.001	19.996	100.855	20.003	3.756	0.530
927.500	545.967	80.000	19.995	100.855	19.997	4.191	0.486
928.000	546.209	80.002	19.995	100.855	20.001	3.890	0.481
928.500	546.470	80.002	19.995	100.854	20.002	3.849	0.497
929.000	546.774	80.002	19.996	100.853	19.999	4.068	0.534
929.500	546.981	80.002	19.995	100.852	19.999	4.030	0.538
930.000	547.229	80.001	19.995	100.852	19.996	4.273	0.483
930.500	547.487	80.002	19.995	100.852	20.000	3.967	0.481
931.000	547.746	80.002	19.995	100.853	19.998	4.127	0.512
931.500	547.996	80.001	19.995	100.855	20.003	3.778	0.513
932.000	548.266	80.001	19.995	100.856	20.000	3.997	0.514
932.500	548.538	80.001	19.995	100.856	19.999	4.069	0.531
933.000	548.736	80.002	19.994	100.857	19.999	4.056	0.506
933.500	549.026	80.001	19.996	100.858	20.002	3.830	0.479
934.000	549.287	80.000	19.996	100.856	20.001	3.929	0.520
934.500	549.546	80.001	19.995	100.857	20.002	3.857	0.536
935.000	549.823	80.001	19.996	100.857	20.002	3.853	0.528
935.500	550.026	80.002	19.996	100.856	20.000	3.942	0.508
936.000	550.317	80.001	19.996	100.856	20.002	3.855	0.487
936.500	550.586	80.001	19.996	100.857	20.004	3.718	0.527
937.000	550.817	80.001	19.996	100.857	20.002	3.812	0.530
937.500	551.100	80.000	19.994	100.858	20.003	3.769	0.507
938.000	551.354	79.999	19.995	100.859	20.003	3.737	0.526
938.500	551.573	80.000	19.996	100.860	20.002	3.797	0.505
939.000	551.820	80.001	19.995	100.859	20.001	3.884	0.470
939.500	552.081	80.001	19.995	100.858	20.003	3.757	0.487
940.000	552.342	80.000	19.995	100.857	20.000	3.952	0.515
940.500	552.581	80.001	19.996	100.857	20.006	3.526	0.511
941.000	552.851	80.001	19.995	100.857	20.005	3.627	0.504
941.500	553.081	80.001	19.995	100.856	20.003	3.780	0.505
942.000	553.348	80.001	19.995	100.856	20.006	3.576	0.499
942.500	553.643	80.001	19.995	100.855	20.006	3.563	0.530
943.000	553.874	79.999	19.995	100.855	20.003	3.748	0.543
943.500	554.153	80.000	19.995	100.855	20.006	3.567	0.518
944.000	554.383	80.000	19.996	100.856	20.007	3.503	0.510
944.500	554.680	80.002	19.996	100.856	20.006	3.558	0.518
945.000	554.923	80.001	19.995	100.856	20.003	3.744	0.533
945.500	555.135	80.001	19.994	100.856	20.005	3.589	0.497
946.000	555.410	80.001	19.997	100.856	20.006	3.543	0.471
946.500	555.654	80.000	19.995	100.856	20.003	3.748	0.503
947.000	555.925	80.001	19.996	100.855	20.004	3.707	0.517
947.500	556.207	80.002	19.995	100.855	20.006	3.588	0.534
948.000	556.444	80.000	19.995	100.855	20.005	3.629	0.536
948.501	556.681	80.002	19.996	100.854	20.006	3.528	0.496
949.000	556.960	80.001	19.997	100.853	20.007	3.503	0.495
949.500	557.245	80.001	19.996	100.853	20.007	3.479	0.541
950.000	557.459	80.002	19.996	100.853	20.005	3.612	0.532
950.500	557.748	80.001	19.997	100.853	20.006	3.587	0.501
951.000	558.003	80.003	19.995	100.854	20.002	3.855	0.523
951.500	558.296	80.000	19.996	100.856	20.004	3.715	0.546
952.000	558.545	80.001	19.997	100.856	20.004	3.666	0.545
952.500	558.750	80.003	19.995	100.857	20.006	3.552	0.498
953.000	559.047	80.001	19.995	100.858	20.003	3.786	0.478
953.500	559.280	80.002	19.996	100.858	20.003	3.731	0.516
954.000	559.555	80.002	19.995	100.857	20.008	3.438	0.520
954.500	559.773	80.002	19.996	100.856	20.004	3.716	0.501
955.000	560.055	80.002	19.996	100.856	20.008	3.438	0.496
955.500	560.314	80.001	19.996	100.855	20.008	3.414	0.520
956.000	560.580	80.001	19.995	100.855	20.006	3.559	0.533
956.500	560.869	80.002	19.996	100.855	20.004	3.688	0.540
957.000	561.095	79.999	19.996	100.856	20.003	3.737	0.535
957.500	561.359	80.002	19.996	100.856	20.005	3.619	0.502
958.000	561.612	79.999	19.995	100.857	20.005	3.589	0.503
958.500	561.851	80.001	19.996	100.857	20.006	3.574	0.505
959.000	562.131	80.000	19.997	100.857	20.006	3.585	0.506
959.500	562.398	80.000	19.995	100.857	20.007	3.477	0.533
960.000	562.625	80.001	19.995	100.857	20.005	3.627	0.521
960.501	562.884	79.999	19.995	100.857	20.007	3.468	0.491
961.000	563.131	80.001	19.997	100.856	20.001	3.903	0.496
961.500	563.419	80.000	19.996	100.856	20.007	3.503	0.520
962.000	563.634	80.001	19.995	100.856	20.005	3.640	0.519
962.500	563.883	80.000	19.995	100.856	20.003	3.780	0.484
963.000	564.147	79.999	19.997	100.857	20.001	3.909	0.488
963.500	564.422	79.998	19.996	100.858	20.002	3.832	0.526
964.000	564.640	80.000	19.995	100.858	20.003	3.731	0.516
964.500	564.896	80.001	19.996	100.858	20.001	3.909	0.484
965.000	565.151	80.001	19.997	100.858	20.005	3.608	0.492
965.500	565.420	80.001	19.995	100.858	20.004	3.709	0.518
966.000	565.651	80.000	19.996	100.857	20.005	3.653	0.512
966.500	565.923	80.002	19.996	100.857	20.006	3.578	0.501
967.000	566.154	80.000	19.996	100.858	20.006	3.569	0.503
967.500	566.422	79.999	19.996	100.858	20.005	3.598	0.501
968.000	566.682	80.000	19.996	100.858	20.004	3.698	0.514
968.500	566.931	79.999	19.996	100.857	20.008	3.440	0.518
969.000	567.204	79.999	19.996	100.856	20.006	3.556	0.515
969.500	567.460	79.999	19.996	100.854	20.005	3.600	0.526
970.000	567.723	80.001	19.997	100.854	20.007	3.516	0.524
970.500	567.931	79.997	19.996	100.853	20.006	3.576	0.495
971.000	568.193	79.999	19.996	100.853	20.007	3.496	0.471
971.500	568.404	80.000	19.996	100.853	20.006	3.531	0.471
972.000	568.714	79.999	19.996	100.853	20.005	3.606	0.497
972.500	568.942	80.000	19.996	100.854	20.005	3.627	0.530
973.000	569.246	80.001	19.996	100.854	20.010	3.294	0.535
973.500	569.479	79.999	19.997	100.854	20.004	3.686	0.534
974.000	569.702	79.999	19.996	100.854	20.008	3.440	0.497
974.500	569.970	79.999	19.996	100.854	20.004	3.684	0.474
975.000	570.203	80.000	19.996	100.854	20.008	3.404	0.496
975.500	570.471	80.000	19.996	100.854	20.008	3.438	0.501
976.000	570.752	79.999	19.996	100.854	20.009	3.320	0.525
976.500	570.984	80.000	19.996	100.852	20.007	3.509	0.531
977.000	571.209	79.998	19.997	100.851	20.008	3.389	0.485
977.500	571.459	80.000	19.996	100.851	20.007	3.507	0.466
978.000	571.699	79.999	19.997	100.850	20.007	3.492	0.482
978.500	571.936	80.000	19.997	100.850	20.006	3.556	0.484
979.000	572.236	79.999	19.997	100.851	20.006	3.526	0.507
979.500	572.478	79.999	19.997	100.852	20.007	3.514	0.539
980.000	572.730	79.999	19.997	100.852	20.005	3.597	0.518
980.500	572.999	80.000	19.996	100.852	20.008	3.402	0.508
981.000	573.232	79.999	19.998	100.852	20.004	3.664	0.512
981.500	573.532	80.000	19.997	100.853	20.004	3.700	0.517
982.000	573.809	79.999	19.997	100.853	20.007	3.492	0.555
982.500	574.072	79.999	19.997	100.853	20.009	3.367	0.558
983.001	574.298	79.998	19.997	100.854	20.003	3.752	0.514
983.501	574.576	80.000	19.996	100.854	20.008	3.393	0.496
984.000	574.843	80.001	19.997	100.853	20.007	3.496	0.524
984.500	575.074	79.999	19.997	100.853	20.008	3.404	0.522
985.000	575.356	80.001	19.998	100.853	20.012	3.126	0.506
985.500	575.585	80.000	19.997	100.853	20.007	3.459	0.512
986.000	575.814	79.999	19.997	100.852	20.009	3.348	0.485
986.500	576.103	80.000	19.997	100.853	20.009	3.352	0.488
987.000	576.373	80.000	19.997	100.853	20.009	3.318	0.538
987.500	576.594	80.000	19.997	100.853	20.009	3.354	0.525
988.000	576.857	79.999	19.996	100.853	20.007	3.505	0.488
988.500	577.104	79.999	19.996	100.854	20.006	3.535	0.497
989.000	577.381	80.001	19.996	100.854	20.008	3.438	0.517
989.500	577.646	80.000	19.996	100.854	20.006	3.563	0.533
990.000	577.890	80.000	19.996	100.853	20.008	3.389	0.525
990.500	578.126	79.999	19.996	100.853	20.007	3.507	0.494
991.000	578.392	79.999	19.996	100.853	20.010	3.244	0.491
991.500	578.619	80.001	19.995	100.854	20.008	3.391	0.498
992.000	578.866	80.000	19.996	100.857	20.008	3.406	0.483
992.500	579.092	80.000	19.996	100.860	20.008	3.419	0.474
993.000	579.372	80.000	19.997	100.861	20.010	3.287	0.489
993.500	579.619	80.000	19.996	100.861	20.009	3.317	0.516
994.000	579.885	79.999	19.996	100.861	20.011	3.193	0.520
994.500	580.136	79.999	19.996	100.859	20.004	3.673	0.515
995.000	580.392	79.999	19.996	100.856	20.008	3.434	0.512
995.500	580.618	79.999	19.995	100.856	20.006	3.574	0.495
996.000	580.916	80.000	19.996	100.856	20.009	3.374	0.503
996.500	581.149	80.000	19.996	100.856	20.005	3.651	0.528
997.000	581.400	79.999	19.996	100.855	20.006	3.580	0.508
997.501	581.650	80.000	19.996	100.854	20.007	3.462	0.492
998.000	581.915	80.000	19.995	100.855	20.009	3.362	0.508
998.500	582.204	79.999	19.996	100.855	20.007	3.513	0.534
999.000	582.435	80.001	19.996	100.855	20.008	3.399	0.537
999.500	582.703	79.999	19.996	100.854	20.005	3.634	0.510
1000.000	582.925	80.000	19.996	100.855	20.004	3.666	0.495
1000.500	583.177	79.999	19.995	100.854	20.006	3.545	0.482
1001.000	583.397	80.000	19.996	100.855	20.007	3.487	0.473
1001.500	583.657	80.001	19.995	100.855	20.005	3.597	0.476
1002.000	583.892	80.001	19.995	100.856	20.002	3.862	0.487
1002.500	584.187	80.000	19.996	100.856	20.008	3.442	0.512
1003.000	584.416	80.001	19.995	100.857	20.005	3.599	0.527
1003.500	584.686	80.000	19.995	100.857	20.006	3.546	0.512
1004.000	584.906	80.001	19.995	100.857	20.006	3.582	0.495
1004.500	585.166	80.001	19.996	100.857	20.006	3.543	0.485
1005.000	585.432	80.001	19.995	100.857	20.007	3.490	0.503
1005.500	585.700	80.002	19.995	100.857	20.005	3.636	0.530
1006.000	585.970	80.000	19.995	100.856	20.007	3.490	0.535
1006.500	586.205	80.002	19.995	100.856	20.004	3.673	0.522
1007.000	586.460	79.999	19.994	100.856	20.006	3.578	0.498
1007.500	586.699	80.002	19.995	100.857	20.007	3.507	0.492
1008.000	586.955	80.001	19.996	100.857	20.009	3.337	0.494
1008.500	587.173	80.001	19.998	100.860	20.008	3.436	0.484
1009.000	587.460	80.001	19.996	100.861	20.008	3.425	0.490
1009.500	587.672	80.000	19.996	100.862	20.007	3.505	0.502
1010.000	587.953	80.002	19.997	100.861	20.007	3.513	0.496
1010.500	588.189	80.002	19.997	100.864	20.006	3.535	0.505
1011.000	588.402	80.000	19.996	100.865	20.007	3.494	0.483
1011.500	588.682	80.000	19.997	100.867	20.008	3.410	0.471
1012.000	588.962	80.002	19.997	100.866	20.007	3.460	0.526
1012.500	589.216	80.001	19.996	100.866	20.007	3.479	0.547
1013.000	589.458	80.001	19.996	100.863	20.007	3.470	0.515
1013.500	589.712	80.001	19.997	100.860	20.005	3.614	0.496
1014.000	589.948	80.001	19.997	100.858	20.010	3.259	0.493
1014.500	590.198	80.001	19.997	100.858	20.009	3.337	0.488
1015.000	590.465	79.999	19.996	100.859	20.004	3.672	0.501
1015.500	590.708	80.002	19.996	100.859	20.006	3.530	0.514
1016.000	590.980	80.001	19.996	100.858	20.006	3.535	0.512
1016.500	591.228	80.002	19.996	100.859	20.007	3.500	0.517
1017.000	591.487	80.001	19.996	100.859	20.008	3.388	0.513
1017.500	591.758	80.001	19.996	100.858	20.005	3.640	0.519
1018.000	591.963	80.001	19.996	100.858	20.011	3.225	0.503
1018.500	592.249	80.000	19.996	100.859	20.009	3.380	0.483
1019.000	592.494	80.001	19.996	100.858	20.008	3.431	0.511
1019.500	592.752	80.000	19.996	100.858	20.006	3.530	0.517
1020.000	593.002	80.001	19.995	100.858	20.008	3.406	0.505
1020.500	593.271	80.000	19.996	100.858	20.007	3.502	0.513
1021.000	593.508	80.000	19.995	100.858	20.007	3.476	0.513
1021.500	593.759	80.001	19.995	100.858	20.009	3.337	0.497
1022.000	594.008	80.001	19.995	100.858	20.011	3.192	0.494
1022.500	594.279	80.001	19.994	100.858	20.005	3.657	0.510
1023.000	594.539	80.000	19.996	100.858	20.007	3.462	0.526
1023.500	594.817	80.000	19.995	100.859	20.008	3.406	0.534
1024.000	595.096	80.000	19.995	100.859	20.006	3.558	0.547
1024.500	595.339	80.001	19.995	100.859	20.009	3.333	0.540
1025.000	595.576	80.001	19.995	100.860	20.008	3.440	0.501
1025.500	595.835	80.000	19.995	100.860	20.007	3.474	0.487
1026.000	596.099	80.001	19.995	100.860	20.006	3.563	0.510
1026.501	596.310	80.000	19.995	100.861	20.007	3.451	0.499
1027.001	596.590	80.001	19.995	100.862	20.011	3.178	0.483
1027.500	596.858	80.001	19.994	100.863	20.008	3.431	0.520
1028.000	597.100	80.001	19.994	100.862	20.009	3.324	0.529
1028.500	597.362	80.002	19.996	100.862	20.008	3.432	0.506
1029.000	597.600	80.002	19.994	100.863	20.009	3.315	0.502
1029.501	597.856	80.001	19.995	100.861	20.011	3.201	0.497
1030.001	598.104	80.002	19.994	100.859	20.010	3.305	0.499
1030.500	598.356	80.002	19.995	100.859	20.006	3.520	0.502
1031.000	598.634	80.002	19.994	100.859	20.008	3.440	0.515
1031.500	598.911	80.002	19.995	100.861	20.011	3.238	0.542
1032.000	599.173	80.003	19.995	100.864	20.009	3.335	0.547
1032.500	599.431	80.003	19.995	100.866	20.007	3.485	0.530
1033.000	599.657	80.003	19.996	100.866	20.006	3.522	0.502
1033.501	599.912	80.002	19.995	100.866	20.009	3.343	0.482
1034.001	600.236	80.004	19.995	100.861	20.010	3.257	0.530
1034.500	600.478	80.002	19.996	100.858	20.007	3.485	0.573
1035.000	600.725	80.001	19.995	100.856	20.008	3.445	0.527
1035.500	600.958	80.002	19.994	100.855	20.009	3.320	0.484
1036.000	601.223	80.003	19.995	100.857	20.006	3.522	0.489
1036.500	601.534	80.002	19.995	100.861	20.003	3.750	0.537
1037.000	601.749	80.001	19.996	100.861	20.004	3.705	0.551
1037.500	602.024	80.002	19.995	100.861	20.007	3.494	0.508
1038.000	602.271	80.001	19.995	100.861	20.004	3.707	0.506
1038.500	602.522	80.001	19.995	100.858	20.008	3.443	0.511
1039.000	602.779	80.001	19.996	100.854	20.004	3.696	0.503
1039.500	603.022	80.001	19.996	100.854	20.006	3.524	0.503
1040.000	603.278	80.000	19.996	100.854	20.009	3.378	0.499
1040.500	603.561	80.001	19.996	100.855	20.003	3.748	0.519
1041.001	603.780	80.001	19.997	100.854	20.010	3.309	0.520
1041.501	604.088	80.001	19.997	100.854	20.007	3.509	0.515
1042.000	604.322	80.000	19.997	100.854	20.008	3.386	0.535
1042.500	604.564	80.001	19.996	100.854	20.007	3.503	0.509
1043.000	604.846	80.000	19.997	100.853	20.006	3.571	0.500
1043.500	605.063	80.000	19.996	100.854	20.008	3.417	0.512
1044.001	605.369	80.000	19.997	100.854	20.010	3.268	0.511
1044.501	605.616	80.000	19.996	100.855	20.008	3.382	0.537
1045.000	605.849	79.999	19.996	100.855	20.005	3.630	0.516
1045.501	606.086	79.999	19.996	100.854	20.006	3.535	0.475
1046.001	606.380	79.999	19.996	100.855	20.009	3.333	0.501
1046.500	606.601	79.999	19.997	100.855	20.004	3.722	0.524
1047.000	606.815	79.999	19.997	100.855	20.007	3.468	0.475
1047.500	607.110	80.000	19.996	100.855	20.004	3.692	0.472
1048.000	607.361	79.999	19.995	100.855	20.009	3.350	0.527
1048.500	607.589	80.000	19.996	100.854	20.008	3.432	0.513
1049.000	607.857	80.000	19.997	100.853	20.007	3.453	0.488
1049.500	608.091	79.999	19.998	100.853	20.006	3.569	0.499
1050.000	608.387	80.000	19.996	100.853	20.004	3.685	0.516
1050.500	608.638	80.001	19.997	100.854	20.002	3.834	0.538
1051.000	608.856	80.000	19.998	100.853	20.005	3.642	0.508
1051.500	609.137	80.001	19.997	100.854	20.005	3.593	0.484
1052.000	609.355	80.001	19.997	100.854	20.005	3.599	0.499
1052.500	609.608	80.000	19.996	100.854	20.007	3.492	0.485
1053.000	609.862	80.001	19.996	100.855	20.009	3.326	0.489
1053.500	610.113	79.999	19.996	100.855	20.009	3.343	0.506
1054.000	610.405	80.000	19.996	100.855	20.007	3.460	0.524
1054.501	610.650	80.000	19.996	100.855	20.010	3.292	0.540
1055.001	610.921	80.000	19.997	100.856	20.007	3.464	0.526
1055.500	611.139	80.000	19.997	100.855	20.011	3.236	0.502
1056.000	611.358	80.001	19.996	100.856	20.010	3.305	0.463
1056.500	611.672	80.000	19.997	100.856	20.012	3.154	0.485
1057.000	611.913	80.000	19.998	100.856	20.005	3.608	0.544
1057.500	612.159	80.000	19.997	100.855	20.012	3.165	0.521
1058.000	612.451	80.000	19.996	100.855	20.009	3.343	0.513
1058.500	612.684	79.999	19.996	100.854	20.007	3.468	0.532
1059.001	612.961	80.000	19.997	100.853	20.006	3.545	0.517
1059.501	613.206	80.000	19.996	100.854	20.008	3.449	0.516
1060.001	613.418	79.999	19.996	100.854	20.007	3.483	0.490
1060.501	613.689	79.999	19.996	100.854	20.008	3.384	0.470
1061.000	613.932	79.999	19.996	100.856	20.007	3.517	0.498
1061.501	614.194	80.001	19.996	100.858	20.007	3.500	0.509
1062.001	614.446	79.999	19.996	100.858	20.006	3.560	0.510
1062.500	614.712	80.000	19.996	100.858	20.004	3.705	0.516
1063.000	614.930	80.000	19.995	100.858	20.007	3.459	0.501
1063.500	615.198	79.998	19.996	100.858	20.003	3.737	0.485
1064.001	615.461	80.001	19.996	100.857	20.005	3.619	0.508
1064.501	615.738	79.998	19.996	100.857	20.007	3.519	0.535
1065.001	615.953	80.001	19.996	100.857	20.004	3.661	0.516
1065.501	616.270	80.000	19.997	100.856	20.003	3.746	0.512
1066.001	616.479	80.000	19.997	100.855	20.004	3.670	0.529
1066.501	616.756	79.999	19.996	100.855	20.004	3.672	0.506
1067.000	617.003	79.999	19.996	100.856	20.002	3.842	0.505
1067.500	617.256	80.000	19.997	100.861	20.004	3.670	0.512
1068.000	617.531	79.999	19.997	100.862	20.005	3.640	0.514
1068.500	617.764	79.998	19.997	100.863	20.003	3.750	0.518
1069.000	618.024	79.999	19.997	100.863	20.004	3.722	0.500
1069.500	618.308	79.997	19.997	100.866	20.002	3.836	0.519
1070.000	618.534	79.999	19.998	100.862	20.002	3.832	0.528
1070.501	618.785	79.998	19.997	100.864	20.002	3.851	0.494
1071.001	619.037	79.999	19.997	100.864	20.005	3.642	0.490
1071.500	619.309	79.999	19.998	100.864	20.005	3.640	0.513
1072.000	619.570	79.999	19.998	100.860	20.002	3.804	0.529
1072.500	619.805	79.998	19.997	100.860	20.004	3.668	0.514
1073.000	620.071	79.999	19.997	100.858	20.002	3.802	0.498
1073.500	620.352	79.999	19.997	100.860	20.002	3.847	0.524
1074.000	620.569	79.999	19.996	100.859	20.004	3.724	0.522
1074.500	620.846	79.998	19.997	100.860	20.001	3.873	0.496
1075.000	621.117	79.998	19.998	100.861	20.004	3.690	0.521
1075.500	621.331	79.998	19.997	100.862	20.003	3.789	0.517
1076.001	621.604	79.998	19.998	100.862	20.005	3.651	0.486
1076.501	621.828	79.999	19.998	100.861	20.004	3.711	0.491
1077.001	622.085	79.998	19.997	100.861	20.002	3.834	0.489
1077.501	622.351	79.998	19.997	100.862	20.003	3.761	0.502
1078.000	622.596	79.999	19.997	100.859	20.001	3.930	0.517
1078.500	622.825	79.997	19.997	100.858	20.001	3.868	0.492
1079.000	623.096	79.999	19.997	100.859	20.001	3.872	0.487
1079.501	623.367	79.996	19.996	100.859	20.004	3.675	0.521
1080.001	623.629	79.999	19.996	100.856	20.002	3.819	0.538
1080.500	623.842	79.997	19.997	100.860	20.001	3.918	0.504
1081.000	624.121	79.997	19.996	100.863	20.005	3.625	0.484
1081.500	624.365	79.998	19.997	100.865	20.003	3.759	0.508
1082.000	624.634	79.999	19.996	100.866	20.001	3.913	0.518
1082.500	624.842	79.998	19.996	100.867	20.003	3.748	0.495
1083.000	625.141	79.999	19.995	100.864	20.003	3.767	0.492
1083.500	625.374	79.999	19.997	100.860	20.004	3.660	0.519
1084.000	625.645	80.000	19.997	100.858	20.001	3.868	0.518
1084.500	625.875	79.999	19.995	100.858	20.000	3.954	0.503
1085.000	626.136	79.998	19.995	100.859	20.000	3.937	0.496
1085.500	626.403	80.000	19.995	100.859	20.003	3.748	0.509
1086.000	626.663	80.001	19.996	100.858	20.002	3.845	0.527
1086.500	626.956	80.001	19.996	100.858	20.000	3.935	0.540
1087.000	627.153	80.000	19.996	100.858	20.003	3.758	0.522
1087.500	627.424	80.000	19.996	100.858	20.006	3.543	0.479
1088.000	627.701	80.000	19.996	100.859	20.005	3.621	0.508
1088.500	627.889	80.000	19.996	100.861	20.001	3.890	0.507
1089.000	628.155	80.002	19.996	100.863	20.002	3.847	0.460
1089.500	628.427	80.001	19.996	100.863	19.999	4.015	0.496
1090.000	628.719	80.000	19.996	100.862	20.001	3.898	0.551
1090.501	628.951	80.001	19.996	100.861	20.003	3.791	0.544
1091.001	629.228	80.002	19.996	100.859	19.999	4.058	0.517
1091.500	629.448	80.002	19.996	100.857	20.002	3.819	0.503
1092.001	629.716	80.000	19.994	100.858	20.002	3.857	0.492
1092.501	629.932	80.002	19.995	100.858	20.005	3.612	0.486
1093.001	630.242	80.002	19.996	100.859	20.005	3.645	0.505
1093.501	630.472	80.001	19.996	100.859	20.006	3.548	0.533
1094.000	630.728	80.001	19.996	100.859	20.005	3.619	0.513
1094.500	631.004	80.001	19.996	100.858	20.004	3.726	0.509
1095.000	631.271	80.001	19.996	100.858	20.004	3.683	0.537
1095.500	631.510	80.001	19.996	100.857	20.001	3.894	0.524
1096.000	631.756	80.002	19.995	100.857	20.003	3.789	0.496
1096.500	631.975	80.002	19.996	100.857	20.004	3.670	0.475
1097.000	632.282	80.002	19.996	100.857	20.005	3.636	0.495
1097.501	632.546	80.002	19.995	100.857	20.004	3.679	0.548
1098.001	632.770	80.001	19.995	100.857	20.008	3.410	0.530
1098.500	633.018	80.001	19.995	100.856	20.005	3.651	0.480
1099.000	633.267	80.001	19.996	100.857	20.005	3.591	0.484
1099.500	633.555	80.001	19.995	100.856	20.005	3.600	0.517
1100.000	633.778	80.000	19.996	100.856	20.007	3.487	0.524
1100.500	634.046	80.002	19.995	100.857	20.005	3.657	0.501
1101.000	634.336	80.001	19.996	100.857	20.003	3.793	0.525
1101.500	634.575	80.002	19.995	100.857	20.004	3.705	0.544
1102.000	634.873	80.002	19.996	100.859	20.001	3.914	0.533
1102.501	635.088	80.000	19.997	100.859	20.002	3.830	0.525
1103.001	635.351	80.000	19.996	100.859	19.999	4.015	0.495
1103.500	635.567	80.000	19.996	100.858	20.003	3.759	0.479
1104.000	635.901	79.999	19.995	100.857	20.003	3.750	0.515
1104.500	636.145	80.001	19.997	100.856	20.003	3.784	0.564
1105.000	636.354	80.001	19.995	100.855	20.000	3.948	0.515
1105.500	636.653	80.000	19.996	100.854	20.005	3.640	0.480
1106.000	636.851	80.001	19.996	100.853	20.000	3.989	0.502
1106.500	637.138	80.001	19.995	100.854	20.006	3.535	0.491
1107.000	637.416	80.000	19.996	100.854	20.003	3.752	0.526
1107.500	637.666	80.001	19.996	100.858	20.005	3.615	0.547
1108.000	637.947	80.001	19.995	100.860	20.006	3.548	0.529
1108.500	638.197	80.002	19.995	100.860	20.001	3.892	0.530
1109.000	638.456	80.000	19.995	100.859	20.005	3.656	0.520
1109.500	638.695	80.001	19.996	100.859	20.006	3.571	0.504
1110.000	638.962	80.001	19.995	100.856	20.006	3.587	0.502
1110.500	639.209	80.001	19.996	100.855	20.008	3.393	0.510
1111.001	639.464	80.002	19.995	100.855	20.004	3.720	0.508
1111.501	639.752	80.001	19.995	100.855	20.002	3.800	0.522
1112.000	639.978	80.004	19.996	100.854	20.005	3.651	0.529
1112.500	640.241	80.003	19.996	100.854	20.002	3.802	0.501
1113.000	640.493	80.004	19.996	100.855	20.002	3.812	0.502
1113.500	640.733	80.003	19.995	100.856	20.005	3.636	0.504
1114.000	641.035	80.004	19.997	100.856	20.006	3.586	0.517
1114.500	641.289	80.004	19.994	100.856	20.004	3.724	0.549
1115.000	641.534	80.002	19.995	100.856	20.003	3.791	0.527
1115.500	641.801	80.002	19.996	100.855	20.005	3.610	0.506
1116.000	642.020	80.004	19.996	100.854	20.002	3.819	0.499
1116.500	642.285	80.003	19.995	100.854	20.002	3.812	0.485
1117.000	642.552	80.002	19.995	100.853	20.006	3.556	0.508
1117.500	642.777	80.004	19.994	100.853	20.002	3.836	0.512
1118.000	643.033	80.003	19.995	100.853	20.005	3.629	0.486
1118.500	643.314	80.003	19.996	100.853	20.005	3.655	0.509
1119.000	643.594	80.002	19.995	100.852	20.002	3.849	0.549
1119.500	643.840	80.003	19.995	100.853	20.002	3.814	0.543
1120.000	644.065	80.003	19.995	100.853	20.001	3.915	0.499
1120.500	644.334	80.002	19.994	100.854	20.002	3.823	0.483
1121.001	644.601	80.002	19.995	100.854	20.003	3.732	0.515
1121.501	644.822	80.001	19.994	100.854	20.003	3.737	0.512
1122.001	645.105	80.002	19.994	100.854	20.000	3.978	0.495
1122.501	645.348	80.002	19.995	100.855	20.003	3.752	0.515
1123.000	645.571	80.002	19.995	100.855	20.002	3.847	0.496
1123.500	645.878	80.001	19.995	100.855	20.004	3.713	0.499
1124.000	646.104	80.002	19.996	100.855	20.004	3.724	0.532
1124.500	646.397	80.001	19.995	100.855	20.004	3.658	0.526
1125.000	646.635	80.001	19.996	100.855	20.002	3.812	0.525
1125.500	646.909	80.001	19.995	100.854	20.003	3.758	0.522
1126.000	647.143	80.001	19.995	100.854	20.004	3.673	0.510
1126.500	647.424	80.000	19.996	100.854	20.003	3.728	0.512
1127.000	647.664	80.001	19.995	100.854	20.006	3.520	0.518
1127.500	647.937	80.000	19.996	100.854	20.006	3.543	0.517
1128.000	648.152	80.000	19.995	100.854	20.006	3.559	0.500
1128.500	648.459	80.001	19.995	100.855	20.006	3.554	0.505
1129.000	648.655	80.000	19.996	100.855	20.008	3.438	0.513
1129.500	648.923	80.000	19.996	100.855	20.006	3.533	0.484
1130.000	649.186	80.000	19.995	100.856	20.004	3.701	0.498
1130.500	649.437	80.000	19.996	100.859	20.008	3.438	0.523
1131.000	649.675	79.999	19.995	100.861	20.007	3.477	0.501
1131.501	649.929	80.001	19.996	100.861	20.007	3.462	0.490
1132.001	650.213	80.000	19.996	100.862	20.007	3.481	0.515
1132.500	650.493	80.001	19.995	100.862	20.006	3.574	0.551
1133.000	650.684	80.000	19.995	100.859	20.005	3.651	0.517
1133.500	650.971	80.000	19.996	100.857	20.003	3.784	0.474
1134.000	651.244	80.000	19.997	100.857	20.004	3.703	0.519
1134.500	651.499	79.999	19.996	100.857	20.004	3.679	0.545
1135.000	651.736	80.000	19.997	100.857	20.006	3.530	0.510
1135.501	652.001	80.000	19.996	100.857	20.003	3.737	0.497
1136.001	652.258	80.000	19.996	100.857	20.008	3.442	0.512
1136.500	652.517	80.000	19.996	100.857	20.006	3.526	0.519
1137.000	652.767	79.999	19.996	100.857	20.007	3.483	0.513
1137.500	653.019	80.002	19.996	100.857	20.006	3.556	0.506
1138.000	653.279	80.000	19.996	100.857	20.005	3.593	0.507
1138.500	653.559	80.001	19.996	100.857	20.007	3.515	0.526
1139.000	653.803	79.999	19.996	100.857	20.007	3.515	0.532
1139.500	654.053	80.001	19.996	100.857	20.007	3.472	0.509
1140.001	654.352	80.000	19.996	100.858	20.007	3.460	0.522
1140.501	654.572	80.001	19.996	100.858	20.002	3.819	0.534
1141.000	654.875	80.001	19.995	100.858	20.005	3.623	0.521
1141.500	655.143	80.000	19.996	100.857	20.007	3.496	0.547
1142.000	655.390	80.001	19.996	100.858	20.005	3.621	0.543
1142.500	655.650	80.002	19.996	100.858	20.007	3.516	0.511
1143.001	655.896	80.000	19.996	100.858	20.008	3.427	0.507
1143.501	656.170	80.001	19.995	100.858	20.006	3.582	0.513
1144.000	656.380	79.999	19.997	100.858	20.004	3.688	0.502
1144.501	656.689	80.000	19.996	100.857	20.006	3.560	0.501
1145.001	656.953	80.000	19.996	100.857	20.006	3.588	0.546
1145.501	657.180	80.000	19.998	100.857	20.005	3.653	0.532
1146.001	657.416	80.000	19.996	100.858	20.007	3.475	0.477
1146.501	657.682	79.999	19.996	100.858	20.006	3.574	0.483
1147.001	657.918	80.000	19.996	100.859	20.007	3.490	0.502
1147.500	658.162	80.000	19.996	100.859	20.007	3.513	0.491
1148.000	658.452	79.999	19.997	100.859	20.007	3.457	0.507
1148.500	658.714	79.999	19.995	100.858	20.004	3.713	0.543
1149.000	658.965	80.001	19.996	100.858	20.008	3.423	0.533
1149.500	659.232	79.999	19.996	100.857	20.006	3.522	0.516
1150.000	659.448	80.000	19.994	100.858	20.006	3.571	0.500
1150.500	659.732	79.999	19.996	100.858	20.008	3.436	0.491
1151.000	659.967	80.000	19.995	100.858	20.005	3.638	0.510
1151.501	660.252	80.000	19.996	100.857	20.002	3.842	0.519
1152.001	660.495	80.001	19.995	100.857	20.004	3.694	0.524
1152.501	660.757	79.999	19.996	100.857	20.003	3.780	0.517
1153.000	660.988	79.999	19.995	100.857	20.002	3.797	0.499
1153.501	661.253	80.000	19.996	100.857	20.000	3.955	0.495
1154.001	661.526	79.999	19.997	100.857	20.005	3.657	0.517
1154.500	661.765	79.998	19.995	100.858	20.002	3.842	0.525
1155.000	662.032	79.999	19.996	100.858	20.002	3.859	0.509
1155.500	662.278	79.999	19.995	100.859	20.001	3.889	0.509
1156.000	662.560	79.999	19.996	100.859	20.003	3.795	0.521
1156.501	662.774	79.999	19.995	100.859	20.001	3.881	0.513
1157.001	663.044	79.999	19.995	100.858	19.999	4.021	0.490
1157.500	663.323	79.998	19.996	100.858	20.002	3.853	0.516
1158.000	663.576	79.999	19.996	100.859	20.000	4.000	0.540
1158.500	663.825	79.999	19.996	100.859	20.002	3.836	0.517
1159.000	664.081	79.999	19.995	100.859	20.001	3.869	0.504
1159.500	664.299	79.999	19.996	100.858	20.000	4.002	0.490
1160.000	664.586	79.998	19.996	100.859	20.002	3.827	0.489
1160.500	664.820	79.999	19.996	100.859	20.004	3.696	0.513
1161.000	665.075	80.000	19.996	100.859	20.003	3.739	0.506
1161.500	665.342	79.999	19.996	100.858	20.003	3.742	0.505
1162.000	665.602	79.999	19.996	100.858	20.001	3.868	0.524
1162.500	665.856	79.999	19.996	100.857	20.000	3.952	0.521
1163.000	666.094	80.000	19.996	100.856	20.002	3.840	0.503
1163.500	666.380	79.999	19.996	100.855	20.003	3.763	0.508
1164.000	666.625	80.000	19.997	100.855	20.002	3.840	0.527
1164.500	666.852	80.001	19.996	100.854	20.005	3.602	0.501
1165.000	667.098	79.999	19.996	100.857	20.001	3.886	0.473
1165.500	667.359	79.999	19.996	100.857	20.003	3.786	0.490
1166.000	667.601	80.001	19.997	100.860	20.002	3.847	0.505
1166.500	667.848	80.000	19.998	100.865	20.003	3.756	0.496
1167.000	668.121	80.001	19.997	100.867	20.006	3.587	0.505
1167.500	668.333	79.999	19.997	100.863	20.002	3.797	0.502
1168.000	668.616	80.000	19.997	100.863	20.005	3.645	0.490
1168.500	668.865	80.001	19.996	100.860	20.005	3.655	0.514
1169.000	669.108	80.001	19.998	100.854	20.002	3.823	0.512
1169.500	669.385	80.000	19.997	100.853	20.003	3.746	0.506
1170.000	669.627	80.001	19.996	100.853	20.004	3.660	0.520
1170.501	669.885	80.001	19.998	100.852	20.004	3.720	0.509
1171.001	670.148	80.002	19.996	100.853	20.005	3.628	0.511
1171.500	670.368	80.000	19.997	100.853	20.004	3.707	0.502
1172.001	670.668	80.002	19.997	100.853	20.004	3.675	0.501
1172.501	670.903	80.002	19.997	100.851	20.002	3.830	0.527
1173.000	671.165	80.002	19.997	100.851	20.007	3.515	0.516
1173.500	671.376	80.000	19.996	100.851	20.001	3.885	0.485
1174.001	671.658	80.002	19.997	100.852	20.004	3.726	0.483
1174.501	671.905	80.003	19.997	100.855	20.000	3.985	0.511
1175.000	672.196	80.003	19.996	100.856	20.001	3.894	0.533
1175.500	672.508	80.003	19.997	100.857	19.999	4.010	0.570
1176.000	672.704	80.003	19.997	100.858	20.000	4.002	0.556
1176.500	672.942	80.003	19.997	100.858	20.000	3.976	0.471
1177.000	673.212	80.002	19.995	100.855	19.999	4.023	0.471
1177.500	673.472	80.002	19.996	100.855	20.000	3.974	0.519
1178.000	673.743	80.003	19.996	100.855	19.999	4.012	0.531
1178.500	674.014	80.002	19.996	100.854	20.000	3.955	0.537
1179.000	674.267	80.002	19.995	100.852	19.999	4.036	0.533
1179.500	674.510	80.002	19.996	100.852	19.999	4.036	0.510
1180.001	674.777	80.002	19.996	100.852	20.000	3.971	0.503
1180.501	675.042	80.001	19.995	100.852	19.997	4.154	0.521
1181.000	675.316	80.003	19.996	100.852	19.999	4.070	0.536
1181.501	675.567	80.002	19.995	100.852	20.000	3.987	0.532
1182.001	675.835	80.002	19.995	100.853	19.998	4.118	0.522
1182.500	676.069	80.003	19.996	100.854	19.999	4.034	0.510
1183.000	676.328	80.002	19.996	100.854	20.002	3.836	0.497
1183.500	676.568	80.003	19.996	100.855	19.996	4.217	0.496
1184.000	676.824	80.002	19.996	100.856	19.997	4.200	0.498
1184.500	677.097	80.002	19.995	100.855	20.000	3.942	0.513
1185.000	677.351	80.002	19.996	100.855	20.002	3.842	0.528
1185.500	677.599	80.001	19.996	100.855	20.001	3.885	0.514
1186.000	677.830	80.001	19.996	100.854	20.002	3.799	0.490
1186.500	678.055	80.002	19.996	100.855	20.002	3.842	0.468
1187.000	678.411	80.002	19.996	100.857	20.003	3.767	0.518
1187.500	678.540	80.001	19.995	100.857	20.002	3.829	0.533
1188.000	678.907	80.001	19.994	100.857	20.002	3.855	0.491
1188.501	679.128	80.002	19.996	100.857	20.000	3.948	0.542
1189.001	679.341	80.001	19.996	100.856	20.001	3.902	0.511
1189.500	679.576	80.001	19.996	100.854	20.000	3.988	0.441
1190.000	679.824	80.002	19.995	100.855	20.001	3.933	0.466
1190.500	680.047	80.003	19.996	100.857	19.999	4.008	0.477
1191.001	680.319	80.002	19.996	100.857	19.999	4.064	0.483
1191.501	680.561	80.002	19.996	100.858	20.001	3.870	0.504
1192.000	680.794	80.003	19.996	100.857	19.999	4.012	0.494
1192.500	681.087	80.003	19.997	100.856	20.001	3.892	0.500
1193.001	681.319	80.002	19.998	100.855	20.001	3.924	0.525
1193.501	681.602	80.002	19.995	100.855	20.002	3.808	0.520
1194.000	681.816	80.001	19.996	100.855	20.002	3.819	0.507
1194.500	682.087	80.002	19.997	100.856	20.001	3.888	0.491
1195.000	682.357	80.002	19.995	100.856	19.999	4.040	0.513
1195.500	682.583	80.003	19.995	100.856	20.001	3.892	0.518
1196.000	682.811	80.003	19.996	100.856	20.002	3.844	0.475
1196.500	683.072	80.002	19.996	100.856	20.001	3.926	0.472
1197.000	683.337	80.002	19.995	100.856	20.002	3.849	0.508
1197.500	683.596	80.003	19.995	100.856	20.000	3.954	0.525
1198.000	683.841	80.003	19.996	100.857	20.001	3.931	0.514
1198.500	684.108	80.003	19.995	100.858	20.005	3.614	0.508
1199.000	684.345	80.002	19.996	100.861	20.005	3.632	0.507
1199.500	684.632	80.003	19.995	100.865	20.002	3.819	0.514
1200.000	684.860	80.002	19.995	100.866	20.000	3.954	0.520
1200.500	685.114	80.002	19.996	100.866	20.003	3.733	0.498
1201.000	685.383	80.003	19.995	100.866	19.999	4.017	0.502
1201.500	685.619	80.002	19.995	100.862	20.003	3.774	0.514
1202.001	685.853	80.002	19.995	100.859	20.001	3.903	0.487
1202.501	686.102	80.003	19.996	100.857	20.002	3.846	0.477
1203.000	686.344	80.003	19.996	100.857	20.003	3.759	0.487
1203.501	686.618	80.002	19.995	100.857	20.006	3.539	0.503
1204.001	686.855	80.001	19.995	100.857	20.007	3.509	0.514
1204.500	687.136	80.002	19.994	100.857	20.002	3.806	0.515
1205.000	687.375	80.002	19.995	100.857	20.005	3.589	0.519
1205.500	687.614	80.001	19.996	100.858	20.004	3.660	0.499
1206.000	687.857	80.003	19.995	100.860	20.005	3.603	0.479
1206.500	688.141	80.001	19.996	100.862	20.001	3.866	0.504
1207.000	688.372	80.001	19.996	100.864	20.004	3.711	0.521
1207.500	688.641	80.000	19.995	100.864	20.002	3.864	0.507
1208.000	688.921	80.000	19.996	100.863	20.001	3.900	0.524
1208.501	689.130	80.000	19.996	100.860	20.003	3.765	0.519
1209.001	689.382	80.000	19.996	100.858	20.002	3.849	0.475
1209.501	689.657	79.999	19.994	100.857	20.005	3.657	0.494
1210.001	689.922	80.000	19.995	100.858	20.004	3.704	0.534
1210.500	690.176	79.999	19.995	100.857	20.000	3.967	0.529
1211.000	690.436	80.000	19.995	100.858	19.998	4.130	0.516
1211.500	690.711	80.000	19.995	100.860	20.004	3.668	0.525
1212.000	690.955	80.002	19.996	100.860	20.003	3.779	0.527
1212.500	691.184	80.002	19.995	100.860	19.999	4.010	0.496
1213.000	691.432	80.000	19.995	100.860	20.000	3.949	0.475
1213.500	691.720	80.000	19.996	100.862	20.004	3.685	0.507
1214.000	691.940	80.001	19.996	100.860	20.000	3.967	0.521
1214.500	692.187	80.001	19.996	100.860	20.001	3.866	0.487
1215.000	692.448	80.000	19.995	100.860	20.000	3.944	0.488
1215.501	692.685	80.002	19.996	100.860	19.999	4.049	0.503
1216.001	692.940	80.001	19.996	100.859	20.001	3.918	0.495
1216.501	693.228	80.000	19.995	100.859	20.001	3.905	0.517
1217.001	693.505	80.000	19.995	100.860	20.000	3.991	0.554
1217.501	693.726	79.999	19.996	100.859	20.003	3.789	0.531
1218.001	693.973	80.001	19.996	100.860	19.998	4.088	0.483
1218.501	694.206	80.002	19.994	100.860	20.000	3.948	0.475
1219.001	694.464	80.001	19.994	100.861	20.001	3.931	0.486
1219.501	694.798	80.002	19.995	100.861	19.997	4.180	0.541
1220.000	694.958	80.001	19.995	100.862	20.001	3.868	0.543
1220.500	695.238	80.001	19.995	100.863	20.002	3.823	0.467
1221.000	695.474	80.000	19.995	100.864	20.002	3.862	0.478
1221.500	695.738	80.001	19.996	100.865	20.001	3.901	0.509
1222.000	696.013	80.001	19.995	100.865	19.998	4.101	0.520
1222.500	696.269	80.002	19.996	100.867	20.001	3.931	0.535
1223.000	696.474	80.001	19.995	100.870	19.998	4.137	0.496
1223.500	696.710	80.000	19.996	100.869	20.000	3.999	0.451
1224.000	696.967	80.002	19.995	100.868	19.999	4.058	0.467
1224.500	697.259	80.000	19.995	100.868	20.000	3.939	0.521
1225.001	697.514	80.001	19.996	100.865	20.001	3.868	0.548
1225.501	697.770	80.001	19.996	100.860	20.000	3.959	0.529
1226.001	697.984	80.000	19.996	100.860	20.003	3.787	0.490
1226.500	698.247	80.001	19.996	100.862	19.996	4.236	0.473
1227.000	698.494	80.001	19.996	100.863	19.997	4.182	0.493
1227.500	698.742	80.001	19.996	100.863	19.998	4.135	0.502
1228.000	698.955	80.001	19.996	100.862	19.999	4.013	0.478
1228.500	699.268	80.002	19.996	100.860	19.995	4.292	0.494
1229.000	699.487	80.001	19.996	100.856	19.998	4.139	0.529
1229.500	699.770	80.001	19.996	100.855	20.001	3.905	0.517
1230.000	700.030	80.003	19.997	100.855	19.999	4.053	0.522
1230.500	700.257	80.001	19.998	100.854	20.000	3.999	0.514
1231.000	700.488	80.001	19.996	100.854	20.000	3.957	0.472
1231.500	700.778	80.000	19.996	100.855	19.998	4.075	0.490
1232.000	701.017	80.001	19.996	100.854	20.000	3.991	0.525
1232.500	701.276	80.001	19.996	100.855	19.996	4.232	0.514
1233.000	701.506	80.000	19.997	100.856	19.996	4.251	0.494
1233.501	701.771	80.000	19.996	100.857	19.998	4.073	0.492
1234.001	701.997	80.001	19.996	100.858	19.999	4.044	0.493
1234.501	702.260	80.001	19.996	100.859	20.001	3.892	0.490
1235.000	702.501	80.002	19.996	100.858	20.000	3.971	0.497
1235.500	702.742	80.001	19.996	100.857	19.997	4.200	0.493
1236.000	703.017	80.000	19.995	100.857	19.999	4.047	0.499
1236.500	703.229	79.999	19.996	100.856	20.000	3.982	0.502
1237.000	703.549	80.000	19.996	100.854	19.999	4.068	0.510
1237.500	703.773	79.999	19.996	100.854	19.998	4.107	0.538
1238.000	704.009	80.000	19.996	100.855	20.001	3.929	0.502
1238.500	704.290	80.000	19.996	100.855	20.000	3.956	0.489
1239.000	704.541	80.002	19.997	100.855	19.998	4.109	0.525
1239.500	704.791	80.000	19.996	100.855	20.000	3.950	0.516
1240.000	705.015	80.001	19.996	100.855	19.998	4.081	0.487
1240.500	705.278	80.000	19.996	100.855	20.002	3.855	0.480
1241.000	705.513	80.000	19.997	100.855	20.000	3.935	0.493
1241.500	705.775	79.999	19.996	100.857	19.999	4.045	0.498
1242.000	706.012	80.001	19.996	100.857	19.999	4.051	0.498
1242.500	706.253	80.000	19.996	100.859	19.999	4.047	0.488
1243.001	706.500	80.000	19.995	100.860	20.002	3.836	0.483
1243.501	706.774	80.000	19.996	100.861	20.001	3.892	0.505
1244.000	707.001	80.000	19.995	100.863	19.999	4.008	0.511
1244.500	707.248	80.000	19.996	100.862	20.001	3.887	0.487
1245.000	707.539	80.000	19.996	100.860	20.001	3.913	0.506
1245.501	707.772	80.000	19.996	100.859	20.000	3.999	0.531
1246.001	708.023	80.000	19.997	100.859	19.999	4.036	0.504
1246.501	708.278	80.002	19.996	100.856	19.999	4.004	0.495
1247.001	708.538	80.000	19.996	100.855	20.005	3.601	0.510
1247.500	708.744	80.001	19.997	100.856	20.000	3.954	0.490
1248.000	709.029	80.003	19.996	100.856	19.997	4.142	0.478
1248.500	709.279	80.002	19.995	100.855	20.001	3.931	0.513
1249.000	709.519	80.002	19.995	100.855	20.000	3.996	0.513
1249.500	709.772	80.002	19.996	100.856	20.000	3.939	0.492
1250.000	710.072	80.001	19.996	100.856	20.002	3.812	0.522
1250.500	710.336	80.002	19.997	100.858	19.999	4.051	0.559
1251.000	710.566	80.002	19.997	100.858	20.000	3.982	0.530
1251.500	710.842	80.002	19.997	100.857	20.001	3.926	0.500
1252.000	711.055	80.002	19.997	100.857	19.999	4.010	0.497
1252.500	711.304	80.001	19.996	100.856	19.999	4.045	0.475
1253.000	711.587	80.003	19.997	100.853	19.998	4.077	0.497
1253.500	711.848	80.003	19.997	100.853	20.001	3.931	0.538
1254.000	712.052	80.002	19.997	100.856	20.001	3.883	0.504
1254.501	712.326	80.001	19.996	100.859	20.002	3.860	0.471
1255.001	712.624	80.002	19.996	100.861	19.997	4.142	0.525
1255.500	712.872	80.002	19.996	100.862	19.999	4.055	0.559
1256.000	713.069	80.002	19.997	100.862	20.000	3.991	0.496
1256.500	713.395	80.003	19.997	100.862	19.999	4.053	0.484
1257.000	713.626	80.001	19.997	100.860	20.002	3.864	0.539
1257.500	713.880	80.002	19.997	100.858	19.998	4.094	0.521
1258.001	714.138	80.001	19.996	100.857	19.999	4.051	0.499
1258.501	714.413	80.002	19.997	100.857	19.998	4.077	0.523
1259.000	714.655	80.002	19.997	100.854	20.003	3.793	0.525
1259.500	714.928	80.002	19.997	100.851	19.997	4.206	0.516
1260.000	715.145	80.001	19.997	100.852	19.997	4.180	0.503
1260.500	715.431	80.001	19.996	100.854	19.997	4.169	0.497
1261.000	715.675	80.000	19.997	100.855	19.998	4.090	0.517
1261.500	715.936	80.000	19.997	100.855	19.998	4.137	0.518
1262.001	716.191	79.999	19.996	100.855	19.997	4.155	0.510
1262.501	716.450	80.001	19.997	100.855	20.001	3.933	0.515
1263.000	716.712	80.000	19.996	100.854	19.998	4.103	0.518
1263.500	716.973	80.001	19.996	100.853	19.999	4.004	0.522
1264.000	717.224	80.001	19.997	100.853	20.001	3.913	0.517
1264.500	717.449	80.000	19.997	100.853	19.999	4.036	0.494
1265.000	717.679	80.000	19.996	100.854	20.000	3.939	0.466
1265.500	717.933	80.002	19.997	100.855	20.000	3.948	0.470
1266.000	718.210	80.000	19.996	100.857	20.000	3.956	0.507
1266.500	718.479	80.001	19.996	100.858	19.995	4.330	0.538
1267.000	718.729	80.001	19.996	100.858	19.999	4.014	0.532
1267.500	718.987	80.002	19.996	100.859	19.999	4.006	0.514
1268.000	719.234	80.001	19.996	100.858	19.998	4.079	0.506
1268.501	719.461	80.001	19.996	100.857	19.999	4.038	0.489
1269.001	719.750	80.000	19.996	100.857	20.002	3.814	0.495
1269.501	719.961	80.001	19.997	100.857	20.002	3.799	0.508
1270.000	720.223	80.000	19.996	100.857	19.998	4.114	0.486
1270.500	720.508	80.001	19.995	100.856	20.000	3.976	0.510
1271.000	720.775	80.001	19.995	100.856	20.000	3.954	0.549
1271.500	720.997	80.001	19.996	100.855	19.998	4.139	0.521
1272.000	721.252	80.002	19.995	100.856	19.997	4.167	0.483
1272.500	721.510	80.001	19.995	100.855	19.999	4.034	0.495
1273.000	721.802	80.001	19.995	100.856	19.997	4.184	0.532
1273.501	721.999	80.002	19.996	100.857	19.995	4.311	0.520
1274.001	722.277	80.003	19.995	100.857	20.000	3.999	0.482
1274.500	722.487	80.002	19.994	100.856	20.000	3.954	0.481
1275.001	722.754	80.001	19.996	100.858	19.998	4.105	0.483
1275.501	722.996	80.002	19.995	100.858	19.999	4.012	0.493
1276.000	723.273	80.001	19.995	100.861	19.999	4.029	0.514
1276.500	723.534	80.002	19.995	100.864	20.000	3.973	0.528
1277.000	723.768	80.002	19.994	100.867	19.995	4.281	0.517
1277.500	724.057	80.002	19.995	100.867	20.000	3.975	0.509
1278.000	724.302	80.003	19.996	100.868	19.998	4.109	0.529
1278.500	724.561	80.001	19.995	100.868	19.998	4.074	0.519
1279.000	724.785	80.003	19.995	100.865	19.999	4.038	0.493
1279.500	725.058	80.002	19.995	100.862	19.998	4.131	0.490
1280.000	725.285	80.002	19.995	100.861	19.998	4.115	0.499
1280.500	725.529	80.002	19.995	100.860	19.996	4.215	0.485
1281.001	725.793	80.002	19.994	100.858	19.997	4.202	0.489
1281.501	726.018	80.000	19.994	100.858	19.999	4.066	0.499
1282.001	726.331	80.003	19.994	100.859	19.997	4.182	0.514
1282.501	726.559	80.003	19.995	100.859	19.997	4.184	0.540
1283.000	726.854	80.002	19.995	100.857	19.998	4.101	0.532
1283.500	727.107	80.002	19.995	100.857	20.001	3.873	0.536
1284.000	727.339	80.002	19.995	100.857	19.999	4.056	0.517
1284.500	727.600	80.001	19.994	100.857	19.994	4.376	0.489
1285.000	727.838	80.002	19.994	100.857	19.999	4.021	0.496
1285.500	728.096	80.001	19.996	100.858	19.998	4.090	0.497
1286.000	728.359	80.001	19.994	100.858	19.998	4.135	0.509
1286.500	728.600	80.000	19.996	100.862	20.000	3.970	0.513
1287.000	728.819	80.002	19.996	100.862	20.000	3.937	0.482
1287.500	729.097	80.001	19.996	100.862	19.996	4.269	0.478
1288.000	729.377	80.000	19.996	100.864	19.998	4.077	0.527
1288.500	729.618	80.000	19.996	100.866	20.000	3.970	0.540
1289.000	729.859	80.001	19.996	100.863	19.998	4.129	0.502
1289.500	730.126	80.000	19.996	100.863	19.996	4.253	0.495
1290.000	730.360	80.001	19.996	100.864	19.997	4.198	0.504
1290.500	730.656	80.000	19.995	100.862	19.997	4.150	0.515
1291.000	730.885	80.001	19.995	100.861	19.996	4.225	0.527
1291.501	731.159	80.000	19.996	100.860	19.997	4.197	0.514
1292.001	731.389	80.001	19.996	100.861	19.998	4.085	0.504
1292.500	731.650	80.001	19.996	100.863	19.996	4.244	0.497
1293.000	731.916	79.999	19.996	100.863	19.996	4.272	0.509
1293.500	732.149	80.000	19.995	100.861	19.996	4.244	0.513
1294.000	732.396	80.001	19.996	100.861	19.994	4.406	0.489
1294.500	732.657	80.001	19.996	100.859	19.996	4.214	0.494
1295.000	732.889	80.000	19.996	100.854	19.996	4.221	0.501
1295.501	733.147	80.000	19.997	100.854	19.999	4.023	0.492
1296.001	733.395	80.001	19.995	100.855	20.001	3.903	0.498
1296.500	733.693	80.001	19.996	100.855	20.001	3.931	0.526
1297.001	733.940	80.002	19.996	100.855	20.002	3.842	0.545
1297.501	734.179	80.002	19.995	100.856	19.998	4.109	0.515
1298.000	734.426	80.001	19.996	100.855	20.001	3.875	0.486
1298.500	734.671	80.002	19.996	100.854	19.998	4.092	0.489
1299.000	734.926	80.002	19.996	100.854	19.999	4.060	0.496
1299.500	735.200	80.002	19.995	100.855	19.998	4.103	0.514
1300.001	735.422	80.001	19.996	100.855	20.000	3.961	0.513
1300.501	735.691	80.000	19.995	100.856	20.001	3.915	0.494
1301.000	735.915	80.002	19.995	100.856	19.999	4.070	0.492
1301.500	736.159	80.001	19.995	100.855	19.999	4.043	0.481
1302.000	736.414	80.001	19.995	100.858	19.996	4.223	0.484
1302.500	736.673	80.002	19.996	100.862	19.997	4.210	0.506
1303.000	736.899	80.001	19.996	100.864	19.998	4.141	0.500
1303.500	737.156	80.001	19.995	100.866	19.999	4.012	0.484
1304.001	737.430	80.002	19.995	100.870	19.998	4.075	0.507
1304.501	737.680	80.002	19.996	100.868	19.998	4.101	0.527
1305.000	737.919	80.000	19.996	100.865	19.998	4.088	0.506
1305.500	738.124	80.002	19.995	100.866	19.997	4.143	0.466
1306.000	738.413	80.001	19.994	100.863	19.998	4.087	0.469
1306.500	738.650	80.000	19.995	100.859	19.998	4.115	0.510
1307.000	738.893	80.001	19.995	100.858	19.999	4.040	0.503
1307.501	739.164	80.002	19.995	100.857	19.998	4.133	0.497
1308.001	739.407	80.002	19.994	100.855	19.997	4.172	0.514
1308.500	739.667	80.001	19.995	100.855	19.999	4.064	0.508
1309.000	739.935	80.001	19.995	100.857	19.999	4.025	0.515
1309.501	740.198	80.002	19.996	100.857	19.997	4.195	0.530
1310.001	740.447	80.003	19.995	100.859	20.000	3.980	0.522
1310.501	740.714	80.003	19.996	100.861	19.999	4.038	0.514
1311.000	740.947	80.003	19.996	100.862	20.000	3.995	0.508
1311.500	741.226	80.003	19.996	100.861	19.999	4.006	0.506
1312.000	741.511	80.002	19.995	100.861	19.998	4.103	0.538
1312.500	741.755	80.001	19.995	100.859	19.999	4.060	0.547
1313.000	741.991	80.002	19.996	100.858	19.997	4.148	0.505
1313.500	742.248	80.001	19.995	100.857	19.998	4.118	0.487
1314.000	742.481	80.001	19.995	100.856	19.997	4.186	0.491
1314.500	742.712	80.001	19.995	100.856	19.997	4.167	0.477
1315.000	742.985	80.002	19.995	100.857	20.001	3.892	0.484
1315.500	743.232	80.003	19.994	100.861	19.999	4.012	0.512
1316.000	743.517	80.001	19.997	100.861	19.997	4.163	0.526
