Sample ID:	C:\MCC\MCC Cal\Test\Cotton_Felt\Cotton_Felt_MCC_30K_min_21_07_09_R3.txt
Sample Weight (mg):	4.15
Heating Rate (C/s):	1
Combustor Temp (C):	900
N2 Flow Rate (cc/min):	80
O2 Flow Rate (cc/min):	20
Calibration File:	C:\MCC\MCC Cal\Coeff1 JN10440_30_210304.txt.txt
T Correction Coefficients:	0	1.024463	0
Time Shift (s):	14
*
Time (s)	Temperature (C)	N2 flow rate (cc/min)	O2 flow rate (cc/min)	Flow Rate (cc/min)	Oxygen (%)	HRR (W/g)	Heating rate (C/s)
0.000	105.454	79.996	19.996	99.951	20.071	0.417	-0.034
0.500	105.445	79.997	19.996	99.951	20.068	0.644	-0.012
1.000	105.456	79.996	19.996	99.949	20.072	0.376	0.006
1.500	105.429	79.997	19.995	99.945	20.068	0.663	-0.007
2.000	105.411	79.997	19.996	99.948	20.069	0.556	-0.031
2.500	105.449	79.997	19.995	99.950	20.069	0.593	-0.013
3.000	105.428	79.997	19.996	99.957	20.070	0.510	0.019
3.500	105.402	79.997	19.994	99.964	20.067	0.707	-0.015
4.000	105.449	79.998	19.996	99.965	20.071	0.436	-0.013
4.500	105.453	79.998	19.995	99.961	20.070	0.473	0.036
5.000	105.421	79.998	19.997	99.956	20.071	0.457	0.012
5.500	105.434	79.997	19.996	99.952	20.074	0.182	-0.023
6.000	105.445	79.997	19.995	99.946	20.069	0.592	0.002
6.500	105.461	79.996	19.995	99.946	20.071	0.428	0.025
7.000	105.415	79.998	19.996	99.950	20.068	0.664	-0.001
7.500	105.451	79.998	19.996	99.954	20.069	0.615	-0.020
8.000	105.402	79.997	19.996	99.958	20.071	0.397	-0.012
8.500	105.404	79.998	19.996	99.966	20.069	0.575	-0.030
9.000	105.436	79.998	19.996	99.972	20.068	0.625	-0.007
9.500	105.397	79.998	19.995	99.974	20.067	0.760	0.014
10.001	105.410	79.997	19.996	99.974	20.066	0.776	-0.016
10.501	105.423	79.998	19.997	99.976	20.065	0.909	-0.000
11.000	105.420	79.998	19.996	99.979	20.066	0.811	0.018
11.500	105.417	79.998	19.997	99.982	20.064	0.944	0.002
12.000	105.382	79.997	19.996	99.990	20.061	1.217	-0.021
12.500	105.398	79.997	19.996	99.997	20.064	0.942	-0.029
13.000	105.412	79.997	19.996	100.006	20.060	1.265	0.005
13.501	105.441	79.997	19.997	100.020	20.059	1.370	0.036
14.001	105.448	79.997	19.995	100.036	20.059	1.315	0.040
14.500	105.429	79.996	19.996	100.052	20.055	1.662	0.012
15.000	105.442	79.996	19.996	100.068	20.051	1.961	-0.009
15.500	105.480	79.996	19.996	100.088	20.053	1.810	0.023
16.000	105.461	79.996	19.999	100.100	20.053	1.773	0.035
16.500	105.489	79.997	19.997	100.114	20.050	2.040	0.014
17.000	105.520	79.996	19.996	100.131	20.043	2.506	0.034
17.500	105.552	79.996	19.997	100.146	20.044	2.504	0.061
18.000	105.577	79.996	19.996	100.156	20.043	2.547	0.060
18.500	105.626	79.995	19.996	100.167	20.044	2.433	0.065
19.000	105.635	79.997	19.997	100.174	20.040	2.742	0.067
19.500	105.692	79.997	19.997	100.176	20.036	3.047	0.062
20.000	105.725	79.998	19.997	100.180	20.039	2.871	0.078
20.500	105.760	79.995	19.996	100.187	20.038	2.902	0.079
21.000	105.799	79.996	19.996	100.188	20.035	3.149	0.071
21.500	105.868	79.997	19.996	100.194	20.032	3.358	0.091
22.000	105.954	79.996	19.996	100.200	20.033	3.321	0.132
22.500	105.953	79.996	19.996	100.204	20.031	3.418	0.120
23.000	106.033	79.997	19.997	100.205	20.031	3.474	0.082
23.500	106.101	79.997	19.995	100.212	20.028	3.651	0.114
24.000	106.153	79.997	19.996	100.213	20.029	3.570	0.134
24.500	106.246	79.996	19.996	100.213	20.027	3.779	0.132
25.000	106.316	79.998	19.996	100.213	20.025	3.918	0.154
25.500	106.400	79.997	19.998	100.219	20.024	3.976	0.159
26.000	106.465	79.997	19.996	100.225	20.023	4.074	0.152
26.500	106.528	79.996	19.997	100.234	20.023	4.087	0.139
27.000	106.633	79.998	19.997	100.243	20.019	4.327	0.148
27.500	106.729	79.999	19.996	100.251	20.020	4.304	0.184
28.000	106.812	79.998	19.996	100.253	20.020	4.263	0.190
28.500	106.863	79.998	19.996	100.253	20.019	4.356	0.156
29.000	106.987	79.999	19.996	100.252	20.018	4.458	0.154
29.500	107.099	79.998	19.997	100.251	20.016	4.609	0.206
30.000	107.225	79.998	19.996	100.255	20.014	4.736	0.237
30.500	107.283	79.998	19.996	100.258	20.014	4.748	0.211
31.000	107.388	79.998	19.996	100.264	20.012	4.912	0.174
31.500	107.503	79.997	19.996	100.271	20.012	4.883	0.191
32.000	107.581	79.997	19.995	100.279	20.012	4.888	0.206
32.500	107.725	79.998	19.996	100.282	20.010	5.041	0.207
33.000	107.850	79.997	19.995	100.287	20.012	4.909	0.246
33.500	107.988	79.998	19.995	100.290	20.008	5.214	0.266
34.001	108.110	79.997	19.995	100.292	20.008	5.162	0.261
34.501	108.234	79.997	19.996	100.292	20.009	5.075	0.253
35.001	108.371	79.997	19.996	100.292	20.006	5.347	0.254
35.501	108.497	79.997	19.996	100.295	20.009	5.121	0.262
36.000	108.627	79.997	19.997	100.301	20.004	5.506	0.259
36.500	108.767	79.997	19.996	100.305	20.004	5.480	0.263
37.000	108.911	79.996	19.996	100.312	20.006	5.310	0.277
37.500	109.058	79.996	19.996	100.314	20.004	5.469	0.287
38.000	109.229	79.996	19.996	100.315	20.004	5.501	0.304
38.500	109.375	79.996	19.997	100.311	20.005	5.411	0.317
39.000	109.528	79.996	19.996	100.311	20.001	5.698	0.308
39.501	109.687	79.995	19.995	100.312	20.002	5.640	0.306
40.001	109.852	79.994	19.996	100.318	20.004	5.467	0.318
40.500	110.024	79.995	19.996	100.323	20.000	5.781	0.331
41.000	110.184	79.996	19.996	100.328	19.999	5.831	0.335
41.500	110.352	79.994	19.997	100.331	20.000	5.820	0.330
42.000	110.539	79.995	19.997	100.336	19.997	5.999	0.342
42.500	110.698	79.993	19.998	100.337	19.999	5.835	0.351
43.000	110.895	79.994	19.996	100.340	20.000	5.802	0.351
43.500	111.086	79.994	19.998	100.344	19.996	6.059	0.371
44.000	111.231	79.995	19.999	100.347	19.995	6.163	0.362
44.500	111.455	79.995	19.998	100.348	19.997	6.006	0.353
45.000	111.630	79.996	19.997	100.351	19.997	6.027	0.384
45.500	111.835	79.995	19.997	100.353	19.998	5.946	0.390
46.000	112.039	79.993	19.998	100.356	19.994	6.251	0.395
46.500	112.232	79.995	19.997	100.358	19.993	6.289	0.403
47.000	112.394	79.994	19.998	100.360	19.995	6.197	0.376
47.500	112.650	79.995	19.997	100.363	19.996	6.085	0.386
48.000	112.848	79.994	19.998	100.365	19.993	6.289	0.436
48.500	113.100	79.995	19.997	100.366	19.990	6.556	0.452
49.000	113.279	79.994	19.997	100.366	19.991	6.438	0.441
49.500	113.532	79.994	19.997	100.367	19.990	6.523	0.432
50.000	113.689	79.995	19.997	100.367	19.988	6.700	0.421
50.501	113.957	79.994	19.998	100.367	19.990	6.571	0.417
51.001	114.147	79.994	19.998	100.367	19.993	6.297	0.441
51.501	114.443	79.995	19.997	100.372	19.991	6.492	0.472
52.000	114.642	79.993	19.997	100.371	19.992	6.378	0.490
52.500	114.911	79.994	19.997	100.370	19.990	6.577	0.482
53.000	115.150	79.994	19.997	100.373	19.990	6.554	0.488
53.500	115.363	79.995	19.999	100.375	19.989	6.586	0.480
54.000	115.639	79.995	19.997	100.373	19.988	6.706	0.471
54.500	115.864	79.995	19.997	100.379	19.985	6.901	0.496
55.000	116.144	79.993	19.997	100.386	19.985	6.895	0.503
55.500	116.366	79.994	19.996	100.390	19.987	6.777	0.503
56.000	116.598	79.995	19.997	100.395	19.987	6.789	0.478
56.500	116.862	79.996	19.996	100.400	19.984	7.001	0.475
57.000	117.127	79.994	19.996	100.401	19.985	6.934	0.512
57.500	117.406	79.995	19.997	100.403	19.986	6.868	0.537
58.000	117.681	79.995	19.997	100.404	19.984	7.018	0.549
58.500	117.939	79.995	19.995	100.404	19.983	7.059	0.543
59.000	118.221	79.996	19.995	100.405	19.982	7.152	0.536
59.500	118.485	79.996	19.996	100.405	19.982	7.119	0.543
60.000	118.776	79.995	19.996	100.406	19.980	7.310	0.551
60.500	119.081	79.994	19.997	100.406	19.983	7.100	0.575
61.000	119.339	79.995	19.996	100.406	19.984	7.001	0.580
61.500	119.650	79.996	19.995	100.405	19.982	7.170	0.566
62.000	119.916	79.995	19.996	100.405	19.980	7.301	0.573
62.500	120.227	79.996	19.996	100.406	19.977	7.552	0.577
63.000	120.497	79.996	19.997	100.405	19.983	7.048	0.579
63.500	120.807	79.997	19.996	100.405	19.981	7.220	0.580
64.000	121.094	79.997	19.996	100.407	19.982	7.187	0.589
64.500	121.435	79.997	19.996	100.408	19.984	7.029	0.612
65.000	121.737	79.996	19.997	100.413	19.981	7.233	0.635
65.500	122.036	79.996	19.995	100.416	19.981	7.216	0.622
66.000	122.372	79.995	19.996	100.417	19.979	7.347	0.618
66.500	122.682	79.995	19.996	100.416	19.980	7.276	0.641
67.000	123.004	79.995	19.997	100.416	19.980	7.270	0.639
67.500	123.315	79.995	19.996	100.412	19.978	7.442	0.632
68.000	123.651	79.995	19.997	100.411	19.978	7.455	0.640
68.501	123.963	79.994	19.997	100.414	19.978	7.451	0.648
69.001	124.289	79.994	19.996	100.414	19.976	7.588	0.643
69.502	124.608	79.995	19.996	100.414	19.978	7.447	0.642
70.001	124.928	79.994	19.997	100.412	19.976	7.600	0.642
70.500	125.266	79.995	19.996	100.411	19.980	7.339	0.648
71.000	125.609	79.994	19.996	100.413	19.978	7.486	0.670
71.500	125.979	79.995	19.996	100.414	19.978	7.453	0.697
72.000	126.304	79.994	19.996	100.419	19.978	7.447	0.704
72.501	126.628	79.995	19.995	100.424	19.976	7.636	0.672
73.001	126.995	79.995	19.997	100.429	19.979	7.362	0.670
73.500	127.305	79.994	19.996	100.427	19.979	7.407	0.684
74.000	127.643	79.994	19.996	100.429	19.978	7.422	0.663
74.500	127.999	79.995	19.997	100.431	19.979	7.401	0.671
75.000	128.379	79.994	19.996	100.434	19.976	7.609	0.715
75.500	128.737	79.993	19.996	100.436	19.977	7.538	0.737
76.000	129.068	79.994	19.997	100.437	19.973	7.819	0.714
76.500	129.461	79.993	19.997	100.438	19.975	7.669	0.707
77.000	129.849	79.993	19.996	100.439	19.975	7.652	0.753
77.500	130.225	79.993	19.996	100.437	19.976	7.613	0.772
78.000	130.555	79.995	19.996	100.437	19.977	7.528	0.735
78.500	130.934	79.993	19.997	100.435	19.975	7.677	0.708
79.000	131.262	79.994	19.996	100.438	19.974	7.778	0.708
79.500	131.659	79.994	19.996	100.439	19.977	7.535	0.716
80.000	132.014	79.995	19.996	100.438	19.976	7.612	0.739
80.500	132.429	79.995	19.996	100.438	19.978	7.473	0.761
81.000	132.771	79.995	19.996	100.442	19.977	7.510	0.763
81.501	133.177	79.995	19.996	100.443	19.978	7.479	0.752
82.001	133.580	79.996	19.996	100.443	19.979	7.409	0.778
82.500	133.955	79.996	19.996	100.445	19.978	7.438	0.793
83.000	134.352	79.995	19.996	100.446	19.977	7.529	0.775
83.500	134.732	79.996	19.996	100.445	19.976	7.577	0.775
84.000	135.138	79.996	19.997	100.442	19.978	7.463	0.781
84.500	135.542	79.996	19.996	100.440	19.980	7.312	0.798
85.000	135.932	79.996	19.996	100.440	19.978	7.453	0.802
85.500	136.319	79.996	19.996	100.440	19.979	7.395	0.786
86.001	136.743	79.995	19.996	100.442	19.978	7.492	0.794
86.501	137.138	79.996	19.995	100.445	19.978	7.447	0.815
87.000	137.557	79.996	19.996	100.445	19.979	7.401	0.817
87.500	137.962	79.997	19.995	100.444	19.980	7.320	0.820
88.000	138.357	79.997	19.996	100.444	19.980	7.286	0.812
88.501	138.787	79.996	19.996	100.444	19.980	7.303	0.812
89.002	139.162	79.997	19.996	100.443	19.977	7.496	0.815
89.501	139.573	79.995	19.996	100.441	19.979	7.396	0.796
90.000	139.951	79.996	19.996	100.436	19.976	7.568	0.787
90.501	140.421	79.996	19.996	100.430	19.981	7.200	0.819
91.001	140.827	79.996	19.996	100.430	19.978	7.424	0.862
91.500	141.261	79.996	19.995	100.430	19.979	7.387	0.858
92.000	141.680	79.996	19.995	100.431	19.980	7.318	0.846
92.500	142.104	79.996	19.996	100.433	19.977	7.538	0.848
93.000	142.523	79.995	19.996	100.436	19.980	7.322	0.843
93.500	142.946	79.995	19.997	100.432	19.977	7.561	0.843
94.001	143.397	79.995	19.997	100.429	19.980	7.297	0.858
94.501	143.858	79.995	19.995	100.431	19.978	7.422	0.893
95.000	144.285	79.996	19.996	100.433	19.978	7.490	0.900
95.500	144.723	79.994	19.995	100.436	19.978	7.459	0.877
96.001	145.144	79.997	19.996	100.441	19.974	7.727	0.862
96.501	145.639	79.995	19.997	100.443	19.976	7.569	0.887
97.000	146.039	79.996	19.995	100.438	19.976	7.611	0.905
97.500	146.481	79.996	19.995	100.437	19.979	7.383	0.868
98.000	146.927	79.995	19.997	100.437	19.977	7.518	0.865
98.500	147.334	79.995	19.995	100.434	19.978	7.424	0.871
99.000	147.813	79.996	19.995	100.432	19.978	7.424	0.869
99.500	148.283	79.996	19.996	100.432	19.979	7.363	0.917
100.000	148.692	79.996	19.997	100.428	19.978	7.450	0.914
100.500	149.179	79.995	19.996	100.422	19.979	7.394	0.888
101.000	149.644	79.995	19.997	100.418	19.980	7.330	0.924
101.500	150.096	79.996	19.996	100.415	19.977	7.548	0.934
102.000	150.544	79.996	19.996	100.413	19.975	7.645	0.909
102.500	150.978	79.996	19.996	100.414	19.980	7.318	0.891
103.000	151.461	79.995	19.996	100.415	19.976	7.618	0.899
103.500	151.898	79.995	19.996	100.416	19.977	7.539	0.919
104.000	152.349	79.996	19.996	100.415	19.978	7.477	0.904
104.500	152.833	79.997	19.996	100.414	19.976	7.579	0.912
105.000	153.293	79.996	19.996	100.413	19.978	7.421	0.939
105.501	153.711	79.996	19.996	100.412	19.980	7.331	0.911
106.001	154.155	79.997	19.996	100.409	19.980	7.306	0.870
106.501	154.626	79.997	19.996	100.410	19.979	7.387	0.889
107.001	155.054	79.997	19.996	100.412	19.981	7.201	0.907
107.501	155.513	79.997	19.997	100.413	19.981	7.263	0.893
108.001	156.001	79.997	19.995	100.413	19.980	7.301	0.917
108.501	156.459	79.997	19.996	100.416	19.976	7.568	0.946
109.000	156.947	79.997	19.996	100.417	19.978	7.485	0.946
109.500	157.396	79.998	19.996	100.414	19.981	7.250	0.942
110.000	157.858	79.998	19.997	100.410	19.986	6.865	0.924
110.500	158.350	79.997	19.996	100.407	19.982	7.146	0.932
111.000	158.810	79.998	19.996	100.403	19.982	7.159	0.953
111.500	159.281	79.998	19.998	100.400	19.978	7.476	0.942
112.000	159.733	79.998	19.996	100.400	19.982	7.128	0.927
112.500	160.241	79.998	19.996	100.401	19.978	7.439	0.942
113.001	160.685	79.998	19.995	100.404	19.978	7.462	0.956
113.501	161.173	79.997	19.997	100.404	19.981	7.215	0.942
114.000	161.655	79.998	19.996	100.403	19.981	7.234	0.951
114.500	162.147	79.997	19.996	100.403	19.982	7.127	0.972
115.001	162.596	79.998	19.996	100.403	19.981	7.193	0.957
115.501	163.075	79.997	19.995	100.401	19.980	7.272	0.934
116.001	163.517	79.998	19.995	100.396	19.980	7.276	0.924
116.501	164.035	79.997	19.996	100.395	19.982	7.114	0.940
117.000	164.498	79.997	19.996	100.395	19.982	7.160	0.971
117.500	164.995	79.998	19.997	100.393	19.983	7.106	0.970
118.000	165.477	79.997	19.996	100.395	19.986	6.840	0.969
118.500	165.949	79.997	19.996	100.400	19.981	7.228	0.967
119.000	166.503	79.997	19.996	100.401	19.983	7.075	0.990
119.500	166.957	79.997	19.997	100.399	19.985	6.954	1.017
120.000	167.439	79.996	19.996	100.396	19.983	7.045	0.972
120.501	167.916	79.996	19.996	100.393	19.981	7.234	0.948
121.001	168.409	79.996	19.996	100.394	19.985	6.946	0.965
121.500	168.918	79.995	19.996	100.389	19.986	6.848	0.986
122.000	169.425	79.995	19.995	100.387	19.984	7.001	1.009
122.500	169.884	79.996	19.996	100.391	19.984	6.978	0.991
123.000	170.354	79.997	19.997	100.392	19.985	6.903	0.948
123.500	170.870	79.996	19.996	100.390	19.983	7.083	0.957
124.000	171.394	79.997	19.996	100.395	19.985	6.938	1.012
124.500	171.877	79.995	19.996	100.398	19.985	6.923	1.023
125.000	172.364	79.997	19.997	100.400	19.984	6.977	0.989
125.500	172.850	79.995	19.997	100.401	19.987	6.778	0.972
126.001	173.356	79.995	19.996	100.403	19.986	6.821	0.983
126.501	173.841	79.995	19.996	100.403	19.986	6.815	0.991
127.001	174.342	79.996	19.996	100.402	19.987	6.803	0.988
127.501	174.851	79.996	19.996	100.402	19.986	6.865	0.998
128.000	175.322	79.995	19.996	100.402	19.986	6.840	0.995
128.500	175.789	79.994	19.997	100.402	19.988	6.728	0.959
129.000	176.316	79.995	19.997	100.402	19.989	6.639	0.966
129.500	176.838	79.994	19.996	100.404	19.983	7.045	1.022
130.000	177.337	79.994	19.996	100.402	19.988	6.699	1.035
130.500	177.843	79.994	19.997	100.400	19.988	6.691	1.013
131.000	178.322	79.994	19.997	100.399	19.986	6.823	0.995
131.500	178.858	79.996	19.996	100.397	19.985	6.931	1.000
132.000	179.376	79.994	19.997	100.397	19.986	6.834	1.034
132.500	179.857	79.994	19.997	100.392	19.986	6.884	1.027
133.000	180.340	79.994	19.997	100.387	19.985	6.954	0.982
133.500	180.849	79.995	19.997	100.383	19.988	6.732	0.978
134.000	181.348	79.996	19.997	100.378	19.987	6.736	1.000
134.500	181.868	79.996	19.997	100.372	19.986	6.832	1.014
135.000	182.419	79.995	19.998	100.370	19.985	6.952	1.046
135.500	182.931	79.994	19.997	100.369	19.989	6.656	1.067
136.000	183.407	79.994	19.997	100.370	19.985	6.923	1.025
136.500	183.876	79.995	19.998	100.370	19.986	6.811	0.966
137.000	184.410	79.995	19.997	100.368	19.985	6.954	0.974
137.500	184.912	79.996	19.998	100.368	19.983	7.053	1.019
138.000	185.462	79.995	19.997	100.367	19.988	6.705	1.043
138.500	185.977	79.994	19.997	100.364	19.986	6.833	1.058
139.000	186.513	79.995	19.997	100.364	19.987	6.771	1.058
139.500	187.048	79.996	19.997	100.365	19.986	6.826	1.061
140.000	187.524	79.995	19.997	100.365	19.987	6.788	1.041
140.500	188.063	79.994	19.998	100.365	19.986	6.821	1.013
141.000	188.558	79.995	19.996	100.366	19.990	6.564	1.025
141.500	189.106	79.996	19.998	100.365	19.985	6.937	1.038
142.000	189.621	79.996	19.996	100.365	19.988	6.665	1.053
142.500	190.125	79.995	19.996	100.365	19.987	6.750	1.041
143.000	190.671	79.995	19.997	100.366	19.987	6.791	1.035
143.500	191.114	79.995	19.996	100.367	19.987	6.752	1.020
144.000	191.643	79.994	19.997	100.368	19.990	6.549	0.980
144.500	192.167	79.995	19.996	100.368	19.989	6.655	1.012
145.000	192.683	79.994	19.996	100.368	19.989	6.626	1.047
145.500	193.173	79.995	19.997	100.368	19.987	6.755	1.023
146.000	193.698	79.995	19.996	100.367	19.990	6.508	1.010
146.500	194.253	79.995	19.996	100.367	19.988	6.670	1.048
147.000	194.747	79.995	19.997	100.366	19.988	6.662	1.064
147.500	195.288	79.995	19.996	100.364	19.991	6.495	1.042
148.000	195.767	79.995	19.996	100.361	19.991	6.493	1.027
148.500	196.287	79.995	19.996	100.360	19.991	6.503	1.010
149.000	196.789	79.994	19.996	100.360	19.988	6.666	1.011
149.500	197.299	79.997	19.996	100.361	19.991	6.457	1.017
150.000	197.823	79.995	19.995	100.364	19.991	6.463	1.023
150.500	198.363	79.994	19.996	100.367	19.991	6.444	1.049
151.000	198.824	79.993	19.995	100.367	19.991	6.494	1.032
151.500	199.385	79.995	19.996	100.364	19.990	6.519	1.011
152.000	199.874	79.996	19.997	100.363	19.991	6.440	1.036
152.500	200.406	79.996	19.995	100.357	19.992	6.359	1.036
153.000	200.946	79.994	19.996	100.350	19.995	6.147	1.047
153.500	201.475	79.994	19.995	100.348	19.993	6.317	1.070
154.000	201.997	79.994	19.996	100.350	19.992	6.371	1.060
154.500	202.487	79.994	19.997	100.351	19.992	6.409	1.031
155.000	203.020	79.994	19.997	100.356	19.993	6.305	1.017
155.500	203.549	79.994	19.996	100.363	19.991	6.434	1.042
156.000	204.073	79.995	19.996	100.366	19.991	6.502	1.058
156.500	204.572	79.994	19.996	100.366	19.994	6.239	1.038
157.000	205.100	79.995	19.997	100.367	19.989	6.606	1.025
157.500	205.621	79.995	19.996	100.366	19.994	6.245	1.038
158.000	206.141	79.995	19.997	100.365	19.995	6.149	1.045
158.500	206.669	79.994	19.997	100.359	19.993	6.319	1.044
159.000	207.229	79.994	19.996	100.353	19.997	5.979	1.068
159.500	207.706	79.995	19.996	100.349	19.992	6.377	1.063
160.000	208.279	79.996	19.996	100.342	19.995	6.182	1.044
160.500	208.766	79.995	19.996	100.337	19.995	6.141	1.055
161.000	209.240	79.994	19.997	100.337	19.997	6.050	1.010
161.500	209.832	79.994	19.996	100.336	19.996	6.118	1.014
162.000	210.355	79.995	19.996	100.333	19.994	6.222	1.091
162.500	210.859	79.995	19.996	100.334	19.994	6.245	1.071
163.000	211.360	79.996	19.995	100.333	19.996	6.093	1.016
163.500	211.882	79.995	19.996	100.332	19.993	6.323	1.014
164.000	212.390	79.996	19.995	100.332	19.996	6.070	1.027
164.500	212.930	79.996	19.996	100.331	19.996	6.087	1.039
165.000	213.442	79.996	19.995	100.331	19.994	6.230	1.050
165.500	213.948	79.996	19.996	100.331	19.993	6.298	1.035
166.000	214.468	79.996	19.995	100.332	19.995	6.180	1.022
166.500	215.026	79.996	19.996	100.332	19.992	6.354	1.052
167.000	215.522	79.996	19.996	100.333	19.995	6.143	1.066
167.500	216.030	79.996	19.996	100.332	19.991	6.475	1.029
168.000	216.509	79.995	19.996	100.332	19.996	6.118	0.996
168.500	217.056	79.997	19.996	100.332	19.994	6.207	1.007
169.001	217.563	79.997	19.996	100.330	19.993	6.292	1.040
169.501	218.084	79.997	19.996	100.329	19.993	6.346	1.041
170.000	218.587	79.997	19.996	100.329	19.994	6.255	1.026
170.500	219.128	79.996	19.996	100.328	19.994	6.269	1.034
171.000	219.632	79.997	19.996	100.328	19.996	6.058	1.044
171.501	220.101	79.998	19.997	100.327	19.993	6.294	1.009
172.001	220.662	79.997	19.995	100.328	19.994	6.215	1.001
172.500	221.179	79.997	19.996	100.328	19.993	6.317	1.054
173.000	221.719	79.998	19.997	100.328	19.990	6.516	1.068
173.500	222.213	79.998	19.997	100.328	19.992	6.401	1.045
174.000	222.700	79.998	19.996	100.328	19.993	6.329	1.007
174.500	223.220	79.996	19.996	100.326	19.991	6.476	0.994
175.000	223.747	79.997	19.996	100.325	19.993	6.342	1.027
175.500	224.297	79.997	19.996	100.325	19.987	6.773	1.062
176.000	224.745	79.997	19.996	100.325	19.989	6.615	1.038
176.500	225.271	80.000	19.996	100.325	19.988	6.686	0.986
177.000	225.867	79.997	19.997	100.326	19.989	6.640	1.048
177.500	226.326	79.997	19.996	100.327	19.988	6.676	1.088
178.000	226.817	79.996	19.996	100.327	19.985	6.920	1.003
178.500	227.328	79.996	19.996	100.327	19.987	6.748	0.976
179.000	227.856	79.997	19.995	100.327	19.982	7.165	1.021
179.500	228.372	79.996	19.996	100.327	19.986	6.881	1.042
180.000	228.890	79.997	19.996	100.326	19.983	7.095	1.039
180.500	229.419	79.997	19.996	100.325	19.982	7.143	1.040
181.000	229.937	79.997	19.997	100.325	19.984	7.008	1.047
181.500	230.446	79.997	19.997	100.325	19.982	7.149	1.037
182.000	230.961	79.996	19.995	100.325	19.980	7.300	1.025
182.500	231.464	79.996	19.995	100.325	19.981	7.207	1.021
183.000	231.964	79.998	19.995	100.326	19.981	7.196	1.011
183.500	232.472	79.997	19.995	100.323	19.978	7.418	1.005
184.000	232.965	79.997	19.996	100.319	19.977	7.535	1.004
184.500	233.496	79.996	19.996	100.317	19.975	7.659	1.013
185.000	233.985	79.998	19.997	100.317	19.975	7.688	1.022
185.500	234.526	79.998	19.996	100.317	19.975	7.669	1.025
186.000	235.020	79.997	19.996	100.321	19.976	7.601	1.032
186.500	235.561	79.997	19.995	100.323	19.974	7.758	1.036
187.000	236.037	79.997	19.995	100.325	19.975	7.678	1.026
187.500	236.539	79.998	19.995	100.325	19.974	7.771	0.997
188.000	237.062	79.997	19.996	100.325	19.971	8.006	1.001
188.500	237.557	79.997	19.996	100.325	19.971	7.942	1.021
189.000	238.067	79.999	19.995	100.326	19.970	8.058	1.012
189.500	238.570	79.999	19.996	100.326	19.971	7.967	1.009
190.000	239.066	79.998	19.996	100.328	19.972	7.911	1.006
190.500	239.570	79.999	19.996	100.333	19.963	8.563	1.000
191.000	240.014	80.000	19.997	100.334	19.966	8.337	0.974
191.500	240.543	79.998	19.996	100.334	19.964	8.522	0.960
192.000	241.058	79.999	19.996	100.335	19.962	8.680	1.009
192.500	241.577	79.998	19.996	100.333	19.963	8.618	1.039
193.000	242.070	79.997	19.996	100.330	19.963	8.612	1.023
193.500	242.558	79.999	19.996	100.332	19.959	8.898	0.996
194.000	243.054	79.998	19.996	100.335	19.960	8.830	0.982
194.500	243.579	79.999	19.996	100.336	19.963	8.577	1.003
195.000	244.056	79.998	19.997	100.342	19.956	9.112	1.012
195.500	244.546	79.998	19.997	100.343	19.961	8.718	0.985
196.000	245.051	79.998	19.996	100.338	19.959	8.878	0.981
196.501	245.574	79.998	19.997	100.338	19.955	9.181	1.011
197.001	246.059	79.998	19.997	100.339	19.953	9.307	1.018
197.500	246.551	79.998	19.996	100.339	19.953	9.347	0.992
198.000	247.053	79.998	19.996	100.340	19.950	9.560	0.986
198.500	247.556	79.998	19.997	100.343	19.948	9.693	0.999
199.000	248.036	79.997	19.996	100.349	19.945	9.973	0.994
199.500	248.538	79.998	19.996	100.353	19.947	9.798	0.983
200.000	249.062	79.997	19.996	100.354	19.947	9.761	1.004
200.500	249.568	79.997	19.997	100.352	19.944	9.979	1.028
201.000	250.049	79.997	19.997	100.353	19.941	10.251	1.008
201.500	250.578	79.996	19.996	100.348	19.938	10.506	0.998
202.000	251.059	79.996	19.997	100.347	19.939	10.419	1.010
202.500	251.545	79.996	19.996	100.346	19.939	10.396	0.989
203.000	252.050	79.995	19.996	100.349	19.935	10.661	0.980
203.500	252.574	79.996	19.997	100.353	19.937	10.510	1.010
204.000	253.055	79.995	19.997	100.358	19.934	10.759	1.017
204.500	253.541	79.997	19.997	100.356	19.931	11.012	0.986
205.000	253.989	79.994	19.998	100.358	19.931	11.029	0.950
205.500	254.534	79.996	19.996	100.360	19.928	11.197	0.964
206.000	255.036	79.995	19.996	100.358	19.928	11.232	1.020
206.500	255.498	79.996	19.996	100.359	19.923	11.570	1.005
207.000	256.022	79.995	19.997	100.363	19.922	11.676	0.974
207.500	256.491	79.997	19.996	100.365	19.926	11.402	0.990
208.000	257.021	79.996	19.997	100.364	19.920	11.831	0.997
208.500	257.488	79.995	19.996	100.367	19.916	12.134	0.998
209.000	257.973	79.996	19.996	100.367	19.917	12.062	0.974
209.500	258.500	79.995	19.996	100.364	19.916	12.159	0.982
210.000	259.010	79.997	19.997	100.364	19.913	12.360	1.025
210.500	259.506	79.996	19.996	100.363	19.912	12.404	1.021
211.000	259.999	79.997	19.997	100.364	19.910	12.594	0.998
211.500	260.441	79.996	19.996	100.365	19.907	12.788	0.962
212.000	260.922	79.996	19.997	100.368	19.905	12.939	0.929
212.500	261.450	79.995	19.997	100.368	19.907	12.844	0.966
213.000	261.921	79.995	19.996	100.369	19.901	13.253	1.004
213.500	262.384	79.995	19.996	100.369	19.899	13.428	0.967
214.000	262.947	79.996	19.997	100.369	19.896	13.630	0.981
214.500	263.409	79.995	19.997	100.369	19.895	13.753	1.025
215.000	263.894	79.995	19.997	100.370	19.895	13.683	0.985
215.500	264.367	79.995	19.997	100.369	19.891	14.007	0.953
216.000	264.884	79.995	19.996	100.370	19.888	14.244	0.974
216.500	265.369	79.995	19.997	100.371	19.886	14.405	0.996
217.000	265.856	79.994	19.998	100.370	19.884	14.576	0.987
217.500	266.357	79.996	19.997	100.370	19.882	14.706	0.980
218.000	266.825	79.996	19.996	100.372	19.880	14.860	0.979
218.500	267.332	79.995	19.997	100.373	19.877	15.101	0.972
219.000	267.830	79.996	19.997	100.374	19.877	15.088	0.990
219.500	268.315	79.995	19.998	100.375	19.873	15.385	0.994
220.000	268.790	79.994	19.997	100.375	19.870	15.636	0.972
220.500	269.248	79.996	19.997	100.374	19.870	15.629	0.946
221.000	269.782	79.994	19.996	100.372	19.869	15.679	0.963
221.500	270.268	79.995	19.998	100.372	19.867	15.839	1.006
222.000	270.779	79.996	19.997	100.372	19.861	16.287	1.008
222.500	271.273	79.995	19.997	100.378	19.859	16.430	1.001
223.000	271.766	79.996	19.998	100.380	19.862	16.244	0.996
223.500	272.276	79.995	19.997	100.380	19.859	16.444	0.995
224.000	272.755	79.996	19.997	100.383	19.854	16.792	0.996
224.500	273.246	79.995	19.997	100.389	19.852	16.948	0.980
225.000	273.764	79.996	19.997	100.392	19.850	17.111	0.990
225.500	274.202	79.996	19.997	100.397	19.841	17.763	0.982
226.000	274.690	79.995	19.998	100.405	19.843	17.675	0.941
226.500	275.227	79.995	19.997	100.409	19.837	18.086	0.976
227.000	275.676	79.994	19.997	100.409	19.836	18.204	1.006
227.500	276.156	79.994	19.998	100.408	19.835	18.279	0.957
228.000	276.653	79.995	19.997	100.409	19.830	18.602	0.953
228.500	277.119	79.994	19.997	100.410	19.826	18.907	0.970
229.000	277.628	79.994	19.997	100.410	19.825	18.995	0.969
229.500	278.107	79.995	19.997	100.410	19.819	19.478	0.981
230.000	278.584	79.995	19.997	100.410	19.819	19.439	0.972
230.500	279.114	79.993	19.998	100.409	19.813	19.882	0.982
231.001	279.610	79.994	19.998	100.409	19.811	20.079	1.017
231.501	280.083	79.994	19.997	100.409	19.808	20.296	0.998
232.000	280.573	79.995	19.997	100.409	19.804	20.607	0.966
232.500	281.022	79.995	19.997	100.408	19.801	20.815	0.950
233.000	281.516	79.996	19.998	100.410	19.797	21.139	0.941
233.500	282.022	79.995	19.996	100.411	19.795	21.295	0.972
234.000	282.544	79.995	19.998	100.415	19.790	21.698	1.014
234.500	282.996	79.995	19.997	100.420	19.784	22.131	1.001
235.000	283.526	79.994	19.997	100.427	19.776	22.698	0.978
235.500	284.006	79.995	19.997	100.433	19.773	22.979	0.996
236.000	284.484	79.995	19.997	100.439	19.771	23.099	0.984
236.500	284.980	79.995	19.997	100.442	19.768	23.348	0.966
237.000	285.465	79.996	19.997	100.446	19.762	23.790	0.978
237.500	285.934	79.995	19.997	100.446	19.758	24.084	0.968
238.000	286.463	79.994	19.997	100.447	19.751	24.613	0.976
238.500	286.933	79.994	19.997	100.447	19.746	24.966	0.999
239.000	287.490	79.995	19.997	100.447	19.743	25.198	1.013
239.500	287.914	79.996	19.997	100.447	19.734	25.889	1.004
240.000	288.435	79.996	19.996	100.450	19.732	26.031	0.963
240.500	288.906	79.996	19.997	100.455	19.729	26.274	0.969
241.000	289.418	79.995	19.997	100.461	19.724	26.705	0.988
241.500	289.886	79.996	19.997	100.466	19.715	27.329	0.982
242.000	290.405	79.997	19.997	100.473	19.711	27.654	0.983
242.500	290.888	79.997	19.996	100.477	19.705	28.125	0.995
243.000	291.388	79.996	19.996	100.478	19.700	28.472	0.992
243.500	291.882	79.995	19.996	100.481	19.693	29.004	0.988
244.000	292.395	79.997	19.996	100.488	19.691	29.183	1.001
244.500	292.884	79.996	19.995	100.493	19.682	29.830	1.005
245.000	293.412	79.998	19.996	100.501	19.673	30.498	1.010
245.500	293.884	79.997	19.997	100.508	19.667	30.988	1.008
246.000	294.358	79.997	19.997	100.510	19.662	31.366	0.973
246.500	294.869	79.996	19.997	100.511	19.654	31.956	0.966
247.000	295.371	79.997	19.997	100.517	19.645	32.655	0.999
247.500	295.873	79.997	19.997	100.517	19.638	33.217	1.008
248.000	296.343	79.997	19.996	100.519	19.633	33.587	0.988
248.500	296.838	79.998	19.996	100.532	19.627	34.024	0.969
249.000	297.319	79.998	19.997	100.539	19.615	34.918	0.971
249.500	297.830	79.997	19.996	100.544	19.607	35.516	0.984
250.000	298.324	79.999	19.997	100.549	19.599	36.111	0.998
250.500	298.802	79.998	19.996	100.557	19.591	36.774	0.988
251.000	299.284	79.998	19.996	100.558	19.584	37.319	0.966
251.501	299.778	80.000	19.996	100.560	19.575	37.980	0.968
252.001	300.289	79.999	19.997	100.563	19.565	38.692	0.991
252.500	300.786	79.997	19.996	100.566	19.558	39.221	1.007
253.000	301.266	79.997	19.996	100.569	19.552	39.726	0.992
253.500	301.729	79.996	19.996	100.574	19.541	40.514	0.960
254.000	302.273	79.997	19.996	100.580	19.533	41.117	0.975
254.500	302.807	79.997	19.996	100.582	19.524	41.839	1.042
255.000	303.286	79.997	19.997	100.584	19.515	42.527	1.045
255.500	303.754	79.996	19.996	100.587	19.503	43.438	0.980
256.000	304.267	79.997	19.997	100.590	19.494	44.139	0.964
256.500	304.734	79.997	19.996	100.593	19.480	45.145	0.981
257.000	305.235	79.998	19.997	100.600	19.471	45.879	0.974
257.500	305.763	79.995	19.996	100.606	19.463	46.470	0.998
258.000	306.254	79.997	19.996	100.607	19.451	47.376	1.024
258.500	306.765	79.997	19.996	100.611	19.441	48.158	1.011
259.000	307.309	79.998	19.998	100.610	19.428	49.141	1.028
259.500	307.762	79.997	19.996	100.613	19.422	49.580	1.025
260.000	308.255	79.996	19.997	100.620	19.409	50.571	0.972
260.500	308.751	79.998	19.998	100.628	19.398	51.390	0.968
261.000	309.220	79.996	19.997	100.635	19.382	52.590	0.977
261.500	309.698	79.998	19.996	100.646	19.372	53.356	0.956
262.000	310.223	79.999	19.997	100.655	19.365	53.944	0.974
262.500	310.746	79.998	19.996	100.658	19.351	54.964	1.025
263.000	311.227	79.996	19.996	100.661	19.336	56.103	1.026
263.500	311.771	79.997	19.997	100.663	19.329	56.675	1.015
264.000	312.249	79.998	19.997	100.666	19.313	57.891	1.024
264.500	312.772	79.997	19.997	100.667	19.304	58.574	1.012
265.000	313.252	79.996	19.996	100.672	19.290	59.642	1.002
265.500	313.735	79.997	19.996	100.678	19.279	60.479	0.983
266.000	314.271	79.998	19.996	100.681	19.266	61.456	0.991
266.500	314.740	79.996	19.996	100.685	19.253	62.418	1.012
267.000	315.273	79.998	19.996	100.691	19.243	63.215	1.004
267.500	315.766	79.997	19.996	100.694	19.228	64.356	1.014
268.000	316.236	79.999	19.995	100.698	19.216	65.255	0.994
268.500	316.755	79.999	19.997	100.702	19.206	65.986	0.976
269.000	317.263	79.998	19.996	100.706	19.192	67.097	1.008
269.500	317.753	79.997	19.996	100.709	19.178	68.101	1.013
270.000	318.270	79.996	19.996	100.715	19.165	69.095	1.002
270.500	318.757	79.998	19.996	100.719	19.152	70.123	1.005
271.000	319.244	79.998	19.996	100.725	19.137	71.280	0.989
271.500	319.695	79.999	19.996	100.731	19.122	72.357	0.956
272.000	320.213	79.998	19.996	100.739	19.109	73.359	0.953
272.500	320.738	79.998	19.995	100.746	19.097	74.260	1.006
273.000	321.221	79.998	19.995	100.753	19.081	75.526	1.025
273.500	321.740	79.997	19.995	100.758	19.064	76.782	1.005
274.000	322.247	80.000	19.996	100.761	19.052	77.732	1.014
274.500	322.738	79.999	19.997	100.768	19.037	78.837	1.012
275.000	323.204	80.000	19.995	100.775	19.023	79.911	0.977
275.500	323.725	79.997	19.995	100.779	19.010	80.870	0.972
276.000	324.258	79.997	19.996	100.783	18.998	81.819	1.021
276.500	324.762	79.998	19.997	100.787	18.984	82.907	1.046
277.000	325.241	79.998	19.996	100.788	18.966	84.223	1.010
277.500	325.723	79.998	19.995	100.788	18.952	85.310	0.972
278.000	326.229	79.998	19.995	100.794	18.938	86.344	0.975
278.500	326.757	79.997	19.995	100.803	18.923	87.490	1.011
279.000	327.230	79.998	19.995	100.811	18.903	89.059	1.017
279.500	327.751	79.997	19.997	100.815	18.892	89.844	0.998
280.000	328.269	79.997	19.996	100.823	18.874	91.266	1.016
280.500	328.717	79.997	19.996	100.830	18.857	92.540	1.002
281.000	329.251	79.996	19.996	100.833	18.846	93.405	0.975
281.500	329.759	79.996	19.997	100.835	18.831	94.554	1.012
282.000	330.227	79.995	19.996	100.839	18.815	95.724	1.009
282.500	330.808	79.995	19.996	100.842	18.798	97.032	1.012
283.000	331.311	79.995	19.996	100.850	18.782	98.289	1.066
283.500	331.822	79.995	19.996	100.857	18.769	99.239	1.049
284.000	332.296	79.996	19.997	100.865	18.742	101.333	0.999
284.500	332.816	79.995	19.997	100.872	18.735	101.802	0.989
285.000	333.315	79.995	19.996	100.877	18.715	103.369	1.006
285.500	333.842	79.996	19.998	100.878	18.694	104.910	1.022
286.000	334.346	79.995	19.997	100.880	18.673	106.498	1.028
286.500	334.844	79.997	19.997	100.880	18.664	107.184	1.017
287.000	335.341	79.996	19.997	100.881	18.645	108.654	0.999
287.500	335.857	79.996	19.996	100.883	18.630	109.795	1.004
288.000	336.358	79.996	19.996	100.888	18.609	111.393	1.015
288.501	336.865	79.994	19.998	100.893	18.594	112.541	1.013
289.001	337.358	79.997	19.997	100.898	18.574	114.067	1.005
289.500	337.879	79.996	19.998	100.905	18.555	115.456	1.007
290.000	338.385	79.996	19.996	100.911	18.538	116.775	1.020
290.500	338.891	79.995	19.997	100.913	18.517	118.323	1.019
291.000	339.401	79.997	19.997	100.916	18.506	119.203	1.014
291.500	339.896	79.994	19.997	100.922	18.488	120.538	1.011
292.000	340.411	79.995	19.995	100.926	18.471	121.796	1.007
292.500	340.965	79.996	19.998	100.929	18.453	123.190	1.040
293.000	341.392	79.997	19.996	100.934	18.438	124.295	1.025
293.500	341.948	79.995	19.997	100.937	18.422	125.535	0.982
294.000	342.405	79.996	19.997	100.939	18.408	126.528	0.998
294.500	342.987	79.995	19.996	100.942	18.388	128.045	1.026
295.000	343.434	79.996	19.996	100.947	18.370	129.393	1.034
295.500	343.961	79.998	19.997	100.944	18.355	130.554	1.001
296.000	344.529	79.997	19.997	100.946	18.341	131.566	1.034
296.500	345.008	79.995	19.997	100.947	18.324	132.817	1.071
297.000	345.438	79.995	19.995	100.948	18.307	134.119	0.978
297.500	345.929	79.996	19.996	100.948	18.296	134.918	0.916
298.000	346.415	79.995	19.997	100.952	18.279	136.213	0.949
298.500	346.971	79.996	19.997	100.948	18.264	137.316	1.009
299.000	347.603	79.995	19.997	100.943	18.251	138.274	1.114
299.500	347.878	79.997	19.996	100.937	18.237	139.336	1.047
300.000	348.427	79.998	19.996	100.935	18.226	140.132	0.866
300.500	348.846	79.995	19.996	100.933	18.216	140.863	0.896
301.000	349.593	79.996	19.996	100.932	18.204	141.713	1.067
301.500	350.143	79.997	19.997	100.930	18.191	142.659	1.231
302.000	350.563	79.996	19.997	100.928	18.180	143.474	1.133
302.500	351.011	79.995	19.996	100.918	18.172	144.038	0.919
303.000	351.620	79.995	19.996	100.907	18.163	144.655	0.963
303.500	352.022	79.997	19.997	100.898	18.155	145.197	1.034
304.000	352.647	79.998	19.997	100.889	18.149	145.610	1.019
304.500	353.107	79.995	19.996	100.881	18.141	146.193	1.056
305.000	353.582	79.994	19.997	100.872	18.133	146.780	1.010
305.500	354.177	79.995	19.996	100.862	18.132	146.754	1.003
306.000	354.677	79.995	19.997	100.854	18.128	147.005	1.083
306.500	355.102	79.995	19.996	100.843	18.128	147.023	1.010
307.000	355.715	79.995	19.997	100.830	18.130	146.807	0.981
307.500	356.179	79.993	19.997	100.818	18.133	146.561	1.058
308.000	356.714	79.995	19.996	100.809	18.132	146.558	1.038
308.500	357.218	79.998	19.997	100.794	18.138	146.113	1.019
309.000	357.722	79.996	19.997	100.777	18.147	145.370	1.023
309.500	358.251	79.996	19.998	100.759	18.153	144.887	1.021
310.000	358.740	79.995	19.997	100.741	18.163	144.153	1.026
310.500	359.204	79.995	19.998	100.719	18.175	143.217	0.986
311.000	359.717	79.996	19.997	100.698	18.190	142.042	0.964
311.500	360.267	79.995	19.998	100.674	18.205	140.880	1.020
312.000	360.766	79.996	19.997	100.652	18.227	139.244	1.056
312.500	361.246	79.994	19.997	100.628	18.246	137.783	1.014
313.000	361.795	79.994	19.997	100.600	18.264	136.490	1.004
313.500	362.296	79.994	19.998	100.574	18.286	134.785	1.039
314.000	362.798	79.994	19.997	100.547	18.318	132.403	1.027
314.500	363.307	79.995	19.998	100.519	18.344	130.427	1.008
315.000	363.816	79.992	19.997	100.487	18.379	127.770	1.015
315.500	364.317	79.995	19.998	100.457	18.409	125.544	1.014
316.000	364.825	79.994	19.997	100.424	18.438	123.381	1.009
316.500	365.301	79.994	19.997	100.392	18.476	120.545	0.996
317.000	365.823	79.994	19.998	100.365	18.514	117.657	0.991
317.500	366.327	79.995	19.997	100.337	18.553	114.796	1.012
318.001	366.833	79.995	19.998	100.310	18.594	111.675	1.018
318.501	367.292	79.996	19.998	100.287	18.634	108.693	0.987
319.000	367.840	79.995	19.997	100.264	18.681	105.184	0.986
319.500	368.358	79.994	19.997	100.239	18.722	102.059	1.036
320.000	368.845	79.997	19.998	100.216	18.770	98.470	1.035
320.500	369.355	79.995	19.997	100.198	18.816	95.047	1.001
321.000	369.886	79.995	19.998	100.178	18.860	91.734	1.019
321.500	370.338	79.995	19.998	100.163	18.905	88.291	1.012
322.000	370.873	79.996	19.997	100.149	18.951	84.881	0.985
322.500	371.407	79.995	19.998	100.141	18.997	81.376	1.029
323.000	371.860	79.995	19.997	100.134	19.041	78.057	1.028
323.500	372.390	79.996	19.997	100.132	19.084	74.859	0.985
324.000	372.862	79.995	19.998	100.132	19.129	71.492	0.993
324.500	373.375	79.997	19.997	100.133	19.166	68.701	0.993
325.000	373.905	79.997	19.997	100.134	19.209	65.434	1.014
325.500	374.454	79.997	19.997	100.133	19.250	62.316	1.061
326.000	374.935	79.998	19.996	100.133	19.291	59.261	1.055
326.500	375.442	79.996	19.996	100.140	19.325	56.665	1.009
327.000	375.936	79.999	19.996	100.147	19.359	54.137	0.994
327.500	376.460	79.998	19.997	100.158	19.393	51.538	1.009
328.000	376.957	79.998	19.997	100.172	19.428	48.883	1.019
328.500	377.495	79.996	19.996	100.188	19.462	46.341	1.028
329.000	377.974	79.997	19.996	100.201	19.490	44.239	1.026
329.500	378.487	79.997	19.996	100.215	19.521	41.864	1.004
330.000	378.972	79.999	19.995	100.227	19.543	40.196	0.995
330.500	379.473	79.997	19.997	100.236	19.571	38.081	0.992
331.000	379.997	79.996	19.996	100.244	19.595	36.298	1.006
331.500	380.493	79.996	19.996	100.249	19.616	34.726	1.022
332.000	380.973	79.998	19.996	100.258	19.638	33.055	0.998
332.500	381.477	79.996	19.996	100.266	19.654	31.838	0.980
333.000	382.010	79.997	19.997	100.274	19.673	30.449	1.010
333.500	382.461	79.997	19.996	100.281	19.690	29.138	1.010
334.000	383.011	79.995	19.996	100.289	19.712	27.523	0.993
334.500	383.492	79.996	19.996	100.289	19.721	26.788	1.016
335.000	384.005	79.996	19.996	100.289	19.740	25.346	1.012
335.500	384.490	79.996	19.996	100.289	19.746	24.889	0.996
336.000	384.999	79.995	19.996	100.289	19.762	23.733	0.996
336.500	385.494	79.995	19.997	100.289	19.772	22.949	0.999
337.000	386.035	79.998	19.996	100.286	19.780	22.371	1.020
337.500	386.499	79.997	19.996	100.282	19.789	21.696	1.021
338.000	387.001	79.996	19.997	100.281	19.803	20.645	0.985
338.500	387.488	79.996	19.996	100.275	19.811	19.998	0.977
339.000	388.020	79.996	19.996	100.267	19.816	19.627	1.004
339.500	388.496	79.995	19.997	100.262	19.828	18.732	1.014
340.000	389.003	79.994	19.996	100.259	19.838	18.004	0.995
340.500	389.504	79.995	19.996	100.251	19.839	17.947	0.995
341.000	390.008	79.995	19.995	100.247	19.846	17.375	1.006
341.500	390.517	79.995	19.995	100.247	19.853	16.824	1.009
342.000	391.046	79.996	19.996	100.245	19.860	16.301	1.026
342.500	391.508	79.996	19.996	100.244	19.863	16.098	1.015
343.000	392.030	79.996	19.996	100.246	19.869	15.646	0.987
343.500	392.544	79.996	19.996	100.247	19.870	15.541	1.010
344.000	393.019	79.996	19.996	100.244	19.876	15.143	1.013
344.500	393.582	79.997	19.996	100.241	19.879	14.860	1.013
345.000	394.039	79.996	19.996	100.237	19.883	14.587	1.029
345.500	394.527	79.997	19.996	100.230	19.889	14.160	0.983
346.000	395.063	79.997	19.996	100.223	19.887	14.278	0.984
346.501	395.552	79.996	19.996	100.219	19.894	13.790	1.024
347.001	396.039	79.996	19.996	100.217	19.896	13.614	1.001
347.500	396.553	79.996	19.996	100.216	19.898	13.450	0.989
348.000	397.078	79.998	19.996	100.216	19.901	13.208	1.019
348.500	397.570	79.996	19.996	100.217	19.902	13.170	1.027
349.000	398.078	79.996	19.996	100.219	19.905	12.945	1.009
349.500	398.550	79.996	19.996	100.221	19.907	12.789	0.990
350.000	399.047	79.997	19.995	100.221	19.907	12.775	0.975
350.500	399.567	79.996	19.995	100.221	19.911	12.522	0.993
351.000	400.050	79.997	19.995	100.220	19.912	12.435	1.010
351.500	400.498	79.996	19.995	100.218	19.912	12.443	0.967
352.000	401.061	79.999	19.995	100.214	19.916	12.080	0.971
352.500	401.541	79.996	19.997	100.213	19.917	12.039	1.027
353.000	402.044	79.996	19.995	100.213	19.915	12.165	1.013
353.500	402.571	79.997	19.996	100.213	19.919	11.848	1.007
354.000	403.105	79.998	19.995	100.213	19.921	11.739	1.045
354.500	403.590	79.999	19.996	100.213	19.923	11.589	1.040
355.000	404.056	79.999	19.995	100.213	19.925	11.435	0.985
355.500	404.554	79.998	19.996	100.214	19.927	11.291	0.958
356.000	405.061	79.997	19.997	100.214	19.927	11.261	0.985
356.500	405.583	80.000	19.995	100.214	19.927	11.311	1.017
357.000	406.065	79.999	19.997	100.214	19.927	11.291	1.016
357.500	406.549	79.997	19.995	100.214	19.935	10.704	0.984
358.000	407.065	79.998	19.996	100.213	19.930	11.020	0.983
358.500	407.561	79.998	19.995	100.212	19.931	10.969	1.006
359.000	408.040	79.998	19.996	100.212	19.929	11.142	0.993
359.500	408.548	79.998	19.996	100.212	19.935	10.700	0.981
360.000	409.092	79.998	19.996	100.212	19.934	10.741	1.020
360.500	409.537	79.996	19.995	100.212	19.933	10.816	1.021
361.000	410.038	79.998	19.996	100.212	19.934	10.770	0.967
361.500	410.541	79.996	19.996	100.212	19.935	10.713	0.975
362.000	411.052	79.996	19.995	100.211	19.938	10.485	1.009
362.500	411.552	79.997	19.995	100.208	19.936	10.591	1.013
363.000	412.070	79.996	19.995	100.203	19.937	10.518	1.015
363.500	412.555	79.997	19.995	100.201	19.934	10.729	1.010
364.000	413.041	79.997	19.996	100.201	19.934	10.783	0.987
364.500	413.555	79.996	19.997	100.202	19.937	10.510	0.986
365.000	414.026	79.995	19.996	100.206	19.936	10.605	0.993
365.500	414.534	79.996	19.995	100.210	19.937	10.547	0.982
366.000	415.044	79.996	19.996	100.211	19.939	10.389	0.999
366.500	415.528	79.995	19.997	100.210	19.933	10.790	1.006
367.000	415.987	79.997	19.996	100.210	19.934	10.761	0.969
367.500	416.543	79.995	19.996	100.209	19.935	10.678	0.979
368.000	417.039	79.995	19.995	100.215	19.937	10.540	1.033
368.500	417.522	79.998	19.996	100.220	19.937	10.494	1.015
369.000	418.008	79.996	19.997	100.221	19.935	10.693	0.974
369.500	418.558	79.996	19.996	100.219	19.936	10.602	1.003
370.000	419.067	79.997	19.996	100.216	19.933	10.832	1.047
370.501	419.533	79.996	19.997	100.209	19.939	10.408	1.017
371.000	420.060	79.996	19.995	100.204	19.935	10.671	0.984
371.500	420.564	79.997	19.997	100.204	19.936	10.573	1.012
372.000	421.050	79.997	19.996	100.204	19.935	10.645	1.011
372.500	421.550	79.997	19.996	100.206	19.934	10.755	0.988
373.000	422.031	79.996	19.996	100.208	19.935	10.703	0.983
373.500	422.521	79.996	19.997	100.208	19.933	10.821	0.976
374.000	423.040	79.997	19.996	100.208	19.938	10.472	0.990
374.500	423.577	79.997	19.998	100.210	19.941	10.256	1.033
375.000	424.024	79.998	19.997	100.210	19.939	10.350	1.020
375.501	424.557	79.994	19.996	100.210	19.940	10.333	0.982
376.000	425.055	79.993	19.997	100.207	19.934	10.786	1.006
376.500	425.557	79.995	19.995	100.207	19.935	10.646	1.016
377.001	426.084	79.995	19.996	100.204	19.935	10.687	1.015
377.501	426.570	79.995	19.996	100.200	19.934	10.775	1.021
378.001	427.086	79.992	19.995	100.199	19.935	10.677	1.007
378.501	427.565	79.996	19.997	100.198	19.935	10.646	0.999
379.000	428.057	79.993	19.996	100.196	19.933	10.811	0.984
379.500	428.564	79.992	19.997	100.198	19.935	10.653	0.985
380.000	429.072	79.997	19.997	100.201	19.934	10.719	1.007
380.500	429.562	79.994	19.997	100.203	19.934	10.726	1.007
381.000	430.076	79.995	19.996	100.205	19.937	10.550	1.001
381.501	430.586	79.994	19.997	100.207	19.939	10.395	1.014
382.000	431.081	79.994	19.996	100.205	19.933	10.819	1.015
382.500	431.603	79.994	19.996	100.201	19.936	10.581	1.011
383.000	432.078	79.997	19.996	100.199	19.934	10.786	1.007
383.500	432.609	79.996	19.997	100.195	19.937	10.556	1.002
384.000	433.101	79.995	19.997	100.195	19.938	10.463	1.015
384.500	433.632	79.996	19.997	100.197	19.936	10.590	1.023
385.000	434.132	79.995	19.997	100.201	19.938	10.455	1.027
385.500	434.634	80.000	19.997	100.200	19.938	10.424	1.017
386.000	435.132	79.994	19.996	100.200	19.935	10.661	1.001
386.500	435.624	79.994	19.996	100.200	19.934	10.751	0.995
387.000	436.148	79.995	19.997	100.201	19.938	10.485	1.003
387.500	436.667	79.994	19.996	100.201	19.937	10.517	1.030
388.000	437.191	79.996	19.996	100.204	19.934	10.761	1.043
388.500	437.724	79.998	19.998	100.206	19.941	10.191	1.049
389.000	438.207	79.997	19.996	100.204	19.937	10.522	1.036
389.500	438.708	79.995	19.997	100.201	19.935	10.708	1.000
390.001	439.191	79.993	19.998	100.198	19.939	10.373	0.984
390.501	439.701	79.993	19.996	100.193	19.940	10.292	0.988
391.000	440.196	79.994	19.997	100.192	19.937	10.522	0.999
391.500	440.712	79.996	19.995	100.195	19.940	10.274	1.008
392.000	441.217	79.995	19.998	100.197	19.940	10.283	1.016
392.500	441.755	79.994	19.997	100.199	19.937	10.546	1.032
393.000	442.237	79.995	19.996	100.198	19.944	9.985	1.032
393.500	442.755	79.997	19.996	100.195	19.939	10.392	1.010
394.000	443.268	79.994	19.997	100.194	19.935	10.681	1.015
394.500	443.786	79.995	19.996	100.194	19.940	10.295	1.031
395.000	444.311	79.994	19.996	100.195	19.935	10.645	1.038
395.500	444.817	79.994	19.997	100.199	19.939	10.397	1.037
396.000	445.302	79.995	19.997	100.198	19.938	10.444	1.011
396.500	445.822	79.995	19.997	100.195	19.938	10.449	0.998
397.000	446.324	79.994	19.996	100.188	19.940	10.283	1.014
397.500	446.831	79.994	19.998	100.184	19.943	10.051	1.015
398.000	447.322	79.994	19.998	100.188	19.940	10.306	1.004
398.500	447.879	79.995	19.997	100.194	19.939	10.361	1.023
399.000	448.365	79.994	19.997	100.200	19.940	10.293	1.045
399.500	448.927	79.995	19.998	100.205	19.941	10.231	1.045
400.000	449.386	79.995	19.997	100.204	19.940	10.323	1.034
400.500	449.881	79.996	19.997	100.203	19.941	10.236	0.988
401.000	450.398	79.995	19.998	100.207	19.939	10.379	0.984
401.500	450.909	79.995	19.997	100.182	19.941	10.186	1.020
402.000	451.430	79.993	19.997	100.145	19.942	10.122	1.030
402.500	451.946	79.994	19.998	100.125	19.935	10.654	1.034
403.000	452.441	79.995	19.997	100.111	19.938	10.413	1.024
403.500	452.959	79.995	19.998	100.099	19.935	10.655	1.012
404.000	453.451	79.995	19.998	100.116	19.941	10.248	1.011
404.500	453.964	79.996	19.997	100.147	19.939	10.400	1.008
405.000	454.476	79.994	19.997	100.165	19.941	10.179	1.015
405.500	454.993	79.995	19.997	100.172	19.941	10.194	1.027
406.000	455.528	79.997	19.998	100.176	19.939	10.353	1.040
406.500	456.020	79.996	19.997	100.217	19.941	10.195	1.039
407.000	456.529	79.995	19.997	100.248	19.942	10.142	1.014
407.500	457.059	79.994	19.998	100.259	19.941	10.266	1.020
408.000	457.580	79.995	19.997	100.261	19.944	9.997	1.044
408.500	458.054	79.994	19.997	100.257	19.943	10.071	1.023
409.000	458.603	79.994	19.997	100.217	19.946	9.857	1.009
409.501	459.094	79.994	19.997	100.187	19.945	9.928	1.032
410.000	459.611	79.996	19.997	100.174	19.944	9.997	1.024
410.500	460.140	79.999	19.997	100.175	19.944	9.997	1.027
411.001	460.667	79.998	19.998	100.179	19.946	9.883	1.051
411.500	461.126	79.997	19.998	100.180	19.945	9.887	1.021
412.000	461.641	79.995	19.996	100.180	19.942	10.154	0.980
412.500	462.156	79.996	19.996	100.182	19.945	9.956	1.002
413.000	462.633	79.996	19.996	100.179	19.945	9.887	1.011
413.500	463.191	79.996	19.997	100.182	19.944	10.014	1.014
414.000	463.657	79.996	19.997	100.157	19.944	10.026	1.030
414.500	464.153	79.995	19.997	100.132	19.943	10.057	0.993
415.000	464.663	79.995	19.996	100.116	19.945	9.918	0.984
415.500	465.176	79.994	19.996	100.106	19.947	9.784	1.015
416.000	465.684	79.995	19.996	100.094	19.950	9.564	1.022
416.500	466.188	79.994	19.995	100.118	19.946	9.833	1.016
417.000	466.691	79.996	19.996	100.150	19.951	9.483	1.009
417.500	467.195	79.992	19.995	100.209	19.946	9.808	1.007
418.000	467.690	79.996	19.997	100.239	19.948	9.674	1.003
418.500	468.180	79.995	19.996	100.253	19.952	9.378	0.992
419.000	468.691	79.995	19.997	100.256	19.949	9.587	0.993
419.500	469.208	79.996	19.997	100.248	19.952	9.363	1.015
420.000	469.730	79.995	19.995	100.205	19.951	9.488	1.033
420.500	470.228	79.995	19.996	100.184	19.955	9.169	1.029
421.000	470.720	79.996	19.996	100.176	19.953	9.314	1.005
421.500	471.217	79.995	19.996	100.174	19.954	9.249	0.990
422.000	471.748	79.997	19.997	100.174	19.956	9.061	1.009
422.500	472.263	79.996	19.995	100.174	19.954	9.233	1.036
423.000	472.761	79.995	19.996	100.173	19.954	9.220	1.030
423.500	473.257	79.998	19.996	100.173	19.957	9.007	1.004
424.000	473.813	79.998	19.996	100.174	19.957	9.020	1.023
424.500	474.300	79.997	19.996	100.172	19.960	8.810	1.047
425.000	474.774	79.995	19.997	100.171	19.958	8.906	1.002
425.500	475.312	79.997	19.995	100.172	19.956	9.061	0.987
426.000	475.836	79.996	19.995	100.171	19.960	8.791	1.037
426.500	476.335	79.995	19.996	100.170	19.959	8.857	1.043
427.000	476.833	79.997	19.996	100.171	19.964	8.475	1.010
427.500	477.326	79.997	19.995	100.170	19.962	8.624	0.994
428.000	477.806	79.996	19.995	100.168	19.960	8.812	0.982
428.500	478.345	79.996	19.996	100.167	19.959	8.833	0.996
429.000	478.837	79.998	19.995	100.167	19.961	8.748	1.025
429.500	479.352	79.996	19.996	100.167	19.962	8.636	1.019
430.000	479.866	79.998	19.995	100.167	19.963	8.555	1.018
430.500	480.361	79.997	19.995	100.168	19.963	8.551	1.019
431.000	480.850	79.995	19.997	100.168	19.964	8.487	0.997
431.500	481.371	79.996	19.997	100.166	19.963	8.551	0.997
432.000	481.900	79.997	19.995	100.166	19.965	8.384	1.030
432.500	482.380	79.997	19.996	100.166	19.969	8.113	1.030
433.000	482.897	79.996	19.997	100.166	19.968	8.191	1.003
433.500	483.401	79.998	19.997	100.166	19.965	8.377	1.009
434.000	483.927	79.997	19.996	100.166	19.967	8.261	1.025
434.500	484.411	79.999	19.997	100.165	19.968	8.183	1.020
435.000	484.925	79.999	19.996	100.165	19.971	7.972	1.004
435.500	485.410	79.999	19.997	100.163	19.967	8.240	0.999
436.000	485.947	79.999	19.996	100.162	19.968	8.174	1.011
436.500	486.421	79.998	19.996	100.160	19.969	8.091	1.016
437.001	486.938	79.997	19.996	100.159	19.970	8.001	1.001
437.501	487.438	79.997	19.995	100.157	19.968	8.174	1.004
438.000	487.951	79.996	19.997	100.158	19.972	7.852	1.015
438.500	488.461	79.998	19.997	100.160	19.974	7.769	1.018
439.000	488.973	79.998	19.996	100.161	19.974	7.756	1.023
439.500	489.460	79.998	19.996	100.159	19.967	8.248	1.011
440.000	489.913	79.997	19.996	100.159	19.971	7.954	0.969
440.500	490.457	79.996	19.997	100.157	19.974	7.733	0.968
441.000	490.950	79.996	19.997	100.153	19.971	7.983	1.017
441.500	491.484	79.997	19.997	100.153	19.972	7.902	1.033
442.000	491.960	79.996	19.995	100.157	19.974	7.730	1.019
442.500	492.463	79.996	19.995	100.158	19.972	7.880	0.994
443.000	492.973	79.995	19.996	100.157	19.972	7.849	0.995
443.500	493.440	79.997	19.996	100.157	19.976	7.587	0.995
444.000	494.000	79.995	19.996	100.157	19.971	7.962	1.002
444.500	494.496	79.994	19.996	100.155	19.975	7.679	1.041
445.000	494.990	79.996	19.996	100.154	19.971	7.935	1.023
445.500	495.489	79.995	19.996	100.154	19.971	7.941	0.992
446.000	496.023	79.996	19.995	100.153	19.972	7.908	1.013
446.501	496.493	79.996	19.996	100.150	19.975	7.639	1.019
447.001	497.033	79.996	19.996	100.149	19.976	7.608	1.007
447.500	497.528	79.995	19.996	100.149	19.977	7.476	1.022
448.001	498.061	79.996	19.996	100.152	19.977	7.505	1.031
448.500	498.556	79.995	19.995	100.153	19.977	7.507	1.028
449.000	499.038	79.996	19.996	100.154	19.978	7.443	1.003
449.500	499.522	79.996	19.995	100.153	19.974	7.709	0.971
450.000	499.993	79.996	19.995	100.149	19.979	7.368	0.960
450.500	500.557	79.997	19.996	100.142	19.977	7.498	0.995
451.000	501.042	79.997	19.996	100.140	19.981	7.182	1.042
451.500	501.542	79.996	19.997	100.139	19.978	7.430	1.017
452.000	502.041	79.997	19.997	100.137	19.980	7.264	0.992
452.500	502.579	79.996	19.995	100.136	19.983	7.074	1.018
453.000	503.056	79.996	19.996	100.136	19.978	7.429	1.026
453.500	503.591	79.999	19.996	100.139	19.982	7.133	1.014
454.000	504.090	79.997	19.997	100.146	19.982	7.166	1.023
454.500	504.572	79.995	19.996	100.153	19.979	7.346	1.008
455.000	505.049	79.997	19.997	100.160	19.978	7.466	0.970
455.500	505.575	79.994	19.997	100.164	19.983	7.083	0.981
456.000	506.084	79.996	19.997	100.161	19.983	7.054	1.019
456.500	506.613	79.995	19.996	100.160	19.985	6.934	1.036
457.000	507.100	79.996	19.996	100.156	19.984	6.951	1.027
457.500	507.580	79.995	19.997	100.153	19.985	6.876	0.991
458.000	508.107	79.996	19.996	100.156	19.986	6.814	0.987
458.500	508.632	79.995	19.996	100.161	19.987	6.762	1.030
459.000	509.155	79.996	19.996	100.163	19.988	6.678	1.050
459.500	509.666	79.995	19.996	100.162	19.988	6.649	1.041
460.000	510.122	79.996	19.996	100.160	19.987	6.719	1.001
460.500	510.651	79.993	19.997	100.157	19.988	6.705	0.976
461.000	511.182	79.996	19.996	100.153	19.985	6.920	1.022
461.500	511.713	79.996	19.996	100.154	19.984	6.988	1.061
462.000	512.202	79.998	19.996	100.158	19.988	6.643	1.041
462.500	512.726	79.996	19.996	100.157	19.988	6.684	1.017
463.000	513.196	79.994	19.996	100.154	19.988	6.700	1.003
463.500	513.729	79.994	19.997	100.155	19.984	7.002	0.998
464.000	514.246	79.995	19.997	100.150	19.987	6.777	1.027
464.500	514.739	79.995	19.997	100.146	19.985	6.929	1.030
465.000	515.293	79.994	19.996	100.145	19.988	6.652	1.029
465.500	515.812	79.995	19.998	100.144	19.984	7.010	1.060
466.000	516.322	79.994	19.998	100.140	19.987	6.791	1.051
466.500	516.801	79.998	19.996	100.141	19.986	6.801	1.009
467.000	517.343	79.996	19.997	100.138	19.986	6.849	1.005
467.500	517.847	79.994	19.997	100.139	19.987	6.770	1.033
468.000	518.360	79.995	19.997	100.140	19.986	6.817	1.031
468.500	518.888	79.995	19.997	100.141	19.988	6.689	1.029
469.000	519.388	79.995	19.997	100.138	19.985	6.939	1.034
469.500	519.927	79.995	19.997	100.139	19.990	6.548	1.034
470.000	520.493	79.994	19.997	100.139	19.987	6.720	1.072
470.500	520.997	79.994	19.997	100.139	19.992	6.407	1.087
471.000	521.524	79.995	19.997	100.138	19.990	6.512	1.051
471.500	521.996	79.995	19.998	100.143	19.987	6.763	1.015
472.000	522.543	79.995	19.996	100.141	19.990	6.535	1.009
472.500	523.039	79.995	19.998	100.111	19.989	6.608	1.031
473.000	523.577	79.995	19.998	100.088	19.991	6.442	1.038
473.500	524.079	79.996	19.997	100.077	19.990	6.533	1.037
474.000	524.624	79.996	19.997	100.067	19.993	6.268	1.043
474.501	525.132	79.996	19.997	100.068	19.995	6.125	1.050
475.001	525.596	79.995	19.998	100.137	19.992	6.361	1.013
475.500	526.117	79.995	19.997	100.191	19.996	6.096	0.978
476.000	526.697	79.997	19.996	100.213	19.997	6.011	1.043
476.500	527.167	79.994	19.997	100.225	19.996	6.094	1.075
477.000	527.700	79.995	19.996	100.228	19.998	5.891	1.026
477.500	528.211	79.996	19.997	100.192	19.995	6.117	1.024
478.001	528.717	79.991	19.996	100.163	19.996	6.055	1.031
478.501	529.261	79.995	19.997	100.156	19.996	6.055	1.033
479.000	529.785	79.995	19.996	100.158	19.996	6.050	1.059
479.500	530.276	79.994	19.996	100.159	19.998	5.912	1.042
480.000	530.780	79.997	19.997	100.157	19.996	6.059	1.005
480.500	531.312	79.994	19.997	100.153	20.001	5.732	1.016
481.000	531.850	79.996	19.996	100.148	19.995	6.166	1.053
481.500	532.350	79.995	19.997	100.144	20.000	5.763	1.054
482.000	532.873	79.994	19.997	100.142	19.996	6.075	1.031
482.500	533.384	79.993	19.998	100.144	19.999	5.864	1.029
483.000	533.901	79.996	19.997	100.148	19.996	6.098	1.031
483.500	534.444	79.995	19.996	100.151	19.999	5.885	1.044
484.000	534.977	79.993	19.996	100.148	20.000	5.771	1.068
484.500	535.473	79.997	19.998	100.146	19.999	5.825	1.052
485.000	536.028	79.996	19.997	100.144	19.999	5.827	1.040
485.500	536.534	79.994	19.995	100.140	19.998	5.908	1.056
486.000	537.037	79.994	19.996	100.137	20.002	5.662	1.035
486.500	537.582	79.998	19.996	100.134	20.000	5.786	1.029
487.000	538.115	79.997	19.996	100.133	20.001	5.707	1.063
487.500	538.636	79.997	19.997	100.133	20.002	5.637	1.066
488.000	539.138	79.997	19.996	100.132	20.003	5.575	1.038
488.500	539.634	79.997	19.998	100.132	19.999	5.869	1.010
489.000	540.124	79.997	19.998	100.133	19.999	5.854	0.992
489.500	540.677	79.998	19.997	100.132	19.996	6.069	1.014
490.000	541.194	79.997	19.998	100.132	20.003	5.515	1.057
490.500	541.680	79.997	19.998	100.132	19.997	6.034	1.037
491.000	542.233	79.995	19.997	100.131	20.001	5.719	1.021
491.500	542.740	79.996	19.998	100.131	19.998	5.957	1.050
492.000	543.279	79.997	19.998	100.131	20.001	5.697	1.053
492.500	543.769	79.997	19.998	100.131	20.003	5.529	1.037
493.000	544.276	79.995	19.997	100.131	20.000	5.806	1.013
493.500	544.771	79.997	19.997	100.130	20.001	5.728	1.000
494.000	545.295	79.996	19.997	100.130	19.999	5.854	1.010
494.500	545.800	79.997	19.997	100.130	20.001	5.713	1.024
495.000	546.321	79.997	19.998	100.130	20.002	5.647	1.027
495.500	546.859	79.996	19.997	100.132	20.005	5.393	1.043
496.000	547.353	79.994	19.998	100.133	20.006	5.312	1.046
496.500	547.877	79.996	19.997	100.133	20.007	5.229	1.025
497.000	548.408	79.996	19.997	100.136	20.007	5.220	1.036
497.501	548.908	79.997	19.998	100.137	20.005	5.367	1.043
498.001	549.400	79.996	19.997	100.137	20.005	5.371	1.011
498.500	549.913	79.996	19.999	100.138	20.007	5.245	0.998
499.000	550.448	79.996	19.998	100.137	20.008	5.148	1.026
499.500	550.972	79.997	19.998	100.136	20.002	5.620	1.053
500.000	551.477	79.995	19.996	100.134	20.009	5.080	1.044
500.500	551.986	79.996	19.997	100.131	20.005	5.401	1.022
501.000	552.506	79.998	19.997	100.130	20.006	5.302	1.021
501.500	553.027	79.997	19.996	100.130	20.010	5.047	1.035
502.000	553.509	79.997	19.997	100.128	20.011	4.968	1.022
502.500	554.042	79.996	19.996	100.130	20.010	5.036	1.009
503.000	554.565	79.995	19.997	100.131	20.009	5.123	1.035
503.500	555.074	79.995	19.995	100.133	20.010	5.036	1.044
504.000	555.609	79.996	19.996	100.134	20.012	4.883	1.038
504.500	556.087	79.996	19.996	100.133	20.008	5.192	1.029
505.000	556.630	79.995	19.996	100.133	20.013	4.782	1.017
505.500	557.143	79.997	19.997	100.133	20.014	4.753	1.039
506.000	557.634	79.997	19.998	100.131	20.008	5.157	1.030
506.500	558.147	79.996	19.995	100.131	20.009	5.119	1.004
507.000	558.708	79.996	19.998	100.131	20.012	4.840	1.039
507.500	559.191	79.999	19.996	100.126	20.010	5.045	1.059
508.000	559.704	79.997	19.996	100.120	20.014	4.708	1.020
508.500	560.188	79.998	19.996	100.119	20.006	5.295	0.996
509.000	560.698	79.997	19.996	100.118	20.013	4.803	0.995
509.500	561.223	79.997	19.996	100.118	20.014	4.710	1.014
510.000	561.726	80.000	19.995	100.120	20.010	5.006	1.031
510.500	562.263	80.000	19.996	100.128	20.015	4.650	1.034
511.000	562.758	79.998	19.996	100.133	20.012	4.853	1.036
511.500	563.275	80.002	19.997	100.136	20.017	4.495	1.022
512.000	563.760	79.997	19.996	100.136	20.017	4.530	1.007
512.500	564.287	79.998	19.996	100.138	20.013	4.778	1.007
513.000	564.770	79.998	19.996	100.130	20.012	4.848	1.011
513.500	565.251	80.000	19.997	100.124	20.008	5.146	0.987
514.000	565.759	79.999	19.996	100.122	20.012	4.856	0.977
514.500	566.328	80.001	19.996	100.122	20.013	4.761	1.033
515.000	566.791	80.000	19.997	100.123	20.018	4.449	1.054
515.500	567.296	79.997	19.995	100.129	20.011	4.946	1.000
516.000	567.835	79.998	19.996	100.131	20.015	4.625	1.006
516.500	568.319	79.998	19.996	100.129	20.010	5.014	1.033
517.000	568.843	79.998	19.996	100.128	20.019	4.375	1.015
517.500	569.343	79.998	19.996	100.127	20.015	4.619	1.016
518.000	569.830	79.999	19.995	100.127	20.015	4.650	1.006
518.500	570.350	79.999	19.996	100.127	20.019	4.371	0.997
519.000	570.872	79.997	19.996	100.128	20.022	4.089	1.024
519.500	571.361	79.996	19.995	100.129	20.012	4.878	1.026
520.000	571.856	79.997	19.996	100.129	20.016	4.605	0.997
520.500	572.353	79.998	19.996	100.130	20.019	4.348	0.988
521.000	572.854	79.999	19.996	100.130	20.018	4.456	0.995
521.500	573.350	79.999	19.997	100.130	20.012	4.863	0.998
522.000	573.892	79.997	19.996	100.129	20.013	4.803	1.018
522.500	574.416	79.997	19.996	100.129	20.020	4.299	1.052
523.000	574.928	79.996	19.997	100.128	20.010	5.060	1.051
523.500	575.436	79.995	19.997	100.124	20.020	4.307	1.028
524.000	575.944	79.996	19.996	100.123	20.017	4.489	1.018
524.500	576.482	79.996	19.997	100.120	20.019	4.321	1.031
525.000	576.938	79.995	19.996	100.116	20.019	4.371	1.020
525.500	577.460	79.994	19.997	100.117	20.019	4.340	0.987
526.000	577.942	79.995	19.996	100.123	20.015	4.613	0.991
526.500	578.422	79.995	19.996	100.127	20.013	4.826	0.982
527.000	578.958	79.995	19.997	100.131	20.012	4.865	0.989
527.501	579.475	79.995	19.996	100.134	20.016	4.601	1.035
528.001	579.934	79.995	19.996	100.133	20.015	4.617	1.015
528.500	580.449	79.995	19.997	100.133	20.021	4.220	0.975
529.000	580.946	79.995	19.996	100.131	20.016	4.607	0.993
529.501	581.501	79.997	19.997	100.132	20.013	4.795	1.032
530.001	581.935	79.995	19.997	100.133	20.018	4.431	1.020
530.500	582.497	79.995	19.994	100.135	20.017	4.462	0.992
531.000	582.991	79.995	19.996	100.134	20.017	4.468	1.026
531.500	583.463	79.995	19.997	100.134	20.021	4.191	1.011
532.000	583.962	79.997	19.997	100.134	20.017	4.501	0.969
532.500	584.484	79.995	19.996	100.135	20.017	4.532	0.996
533.000	584.956	79.994	19.996	100.135	20.013	4.822	1.008
533.500	585.462	79.996	19.997	100.135	20.022	4.106	0.986
534.000	585.973	79.996	19.996	100.135	20.017	4.493	0.998
534.500	586.493	79.995	19.996	100.134	20.019	4.373	1.024
535.000	586.981	79.996	19.996	100.134	20.018	4.417	1.019
535.500	587.471	79.995	19.996	100.134	20.015	4.663	0.993
536.000	587.959	79.997	19.996	100.133	20.019	4.384	0.979
536.500	588.449	79.996	19.996	100.134	20.023	4.069	0.978
537.000	588.927	79.994	19.996	100.136	20.021	4.206	0.973
537.500	589.462	79.996	19.995	100.136	20.018	4.396	0.991
538.000	589.973	79.996	19.996	100.136	20.025	3.893	1.030
538.500	590.435	79.995	19.997	100.137	20.022	4.156	1.009
539.000	590.959	79.997	19.996	100.137	20.017	4.526	0.979
539.500	591.462	79.997	19.995	100.135	20.019	4.340	1.006
540.000	591.955	79.994	19.995	100.136	20.021	4.224	1.011
540.500	592.430	79.997	19.997	100.135	20.023	4.077	0.982
541.000	592.939	79.996	19.996	100.134	20.020	4.292	0.976
541.500	593.445	79.996	19.996	100.134	20.021	4.214	1.000
542.000	593.963	79.995	19.995	100.133	20.018	4.452	1.019
542.500	594.448	79.996	19.996	100.131	20.020	4.272	1.013
543.000	594.979	79.995	19.994	100.132	20.021	4.191	1.010
543.500	595.490	79.995	19.995	100.132	20.021	4.216	1.029
544.000	595.966	79.996	19.996	100.133	20.025	3.872	1.015
544.500	596.460	79.995	19.994	100.133	20.028	3.643	0.979
545.000	596.957	79.995	19.996	100.136	20.024	3.988	0.980
545.500	597.467	79.996	19.996	100.136	20.025	3.894	0.999
546.000	597.969	79.996	19.996	100.138	20.030	3.500	1.010
546.500	598.458	79.994	19.996	100.139	20.024	4.004	1.002
547.000	599.005	79.995	19.997	100.140	20.025	3.887	1.013
547.500	599.526	79.994	19.994	100.139	20.020	4.272	1.052
548.000	599.892	79.995	19.996	100.138	20.027	3.737	0.977
548.500	600.504	79.997	19.996	100.134	20.025	3.924	0.932
549.000	600.988	79.995	19.996	100.132	20.022	4.119	1.037
549.500	601.434	79.997	19.997	100.132	20.021	4.219	1.014
550.000	601.968	79.996	19.996	100.132	20.025	3.903	0.955
550.500	602.472	79.995	19.996	100.131	20.029	3.620	1.009
551.000	602.980	79.994	19.995	100.134	20.029	3.569	1.025
551.500	603.449	79.997	19.998	100.134	20.028	3.707	0.994
552.000	603.954	79.996	19.998	100.133	20.023	4.061	0.976
552.500	604.430	79.994	19.996	100.134	20.024	3.974	0.978
553.000	604.934	79.996	19.995	100.135	20.027	3.769	0.981
553.500	605.475	79.995	19.995	100.135	20.026	3.849	1.013
554.000	605.940	79.996	19.997	100.134	20.023	4.073	1.025
554.500	606.458	79.996	19.997	100.134	20.024	3.992	0.994
555.000	606.917	79.996	19.997	100.134	20.024	3.951	0.980
555.500	607.423	79.994	19.997	100.132	20.022	4.108	0.971
556.000	607.931	79.995	19.997	100.125	20.023	4.040	0.989
556.500	608.437	79.995	19.997	100.112	20.024	4.007	1.014
557.000	608.911	79.994	19.997	100.077	20.022	4.143	0.997
557.500	609.455	79.995	19.997	100.055	20.018	4.408	0.999
558.000	609.940	79.996	19.998	100.043	20.024	3.934	1.024
558.500	610.453	79.996	19.999	100.043	20.021	4.220	1.014
559.000	610.983	79.995	19.996	100.054	20.022	4.133	1.020
559.500	611.445	79.994	19.997	100.087	20.026	3.814	1.017
560.000	611.963	79.995	19.998	100.106	20.027	3.731	0.986
560.500	612.436	79.995	19.997	100.118	20.025	3.882	0.986
561.000	612.944	79.994	19.996	100.125	20.030	3.541	0.986
561.500	613.435	79.995	19.997	100.128	20.028	3.690	0.990
562.000	613.937	79.996	19.998	100.151	20.024	4.004	0.996
562.500	614.437	79.995	19.997	100.186	20.028	3.681	0.998
563.000	614.927	79.996	19.997	100.195	20.026	3.832	0.996
563.500	615.423	79.995	19.998	100.196	20.028	3.680	0.988
564.000	615.954	79.996	19.997	100.195	20.023	4.009	1.007
564.500	616.451	79.997	19.997	100.172	20.029	3.589	1.028
565.000	616.947	79.996	19.997	100.141	20.023	4.023	1.010
565.500	617.398	79.997	19.997	100.133	20.029	3.595	0.970
566.000	617.896	79.997	19.998	100.132	20.023	4.008	0.948
566.500	618.381	79.998	19.997	100.133	20.028	3.698	0.966
567.000	618.906	79.998	19.997	100.133	20.024	3.994	0.996
567.500	619.381	79.997	19.997	100.133	20.022	4.101	1.005
568.000	619.915	79.998	19.997	100.132	20.027	3.781	1.005
568.500	620.419	79.997	19.997	100.129	20.026	3.841	1.023
569.000	620.894	79.997	19.997	100.128	20.024	3.957	1.008
569.500	621.380	79.999	19.998	100.129	20.027	3.721	0.970
570.000	621.892	79.995	19.994	100.127	20.026	3.847	0.979
570.500	622.374	79.999	19.996	100.123	20.029	3.574	0.995
571.000	622.867	79.997	19.996	100.124	20.032	3.378	0.985
571.501	623.400	79.997	19.996	100.124	20.022	4.118	1.001
572.001	623.883	79.997	19.995	100.118	20.020	4.253	1.021
572.500	624.366	79.996	19.996	100.117	20.024	4.006	0.991
573.000	624.852	79.998	19.997	100.118	20.026	3.833	0.967
573.500	625.353	79.998	19.996	100.119	20.024	3.992	0.978
574.000	625.853	79.997	19.996	100.119	20.023	4.021	0.994
574.500	626.335	79.998	19.997	100.124	20.026	3.833	0.992
575.000	626.867	79.997	19.995	100.126	20.031	3.467	0.998
575.500	627.344	79.997	19.998	100.130	20.021	4.186	1.011
576.000	627.828	79.997	19.998	100.130	20.028	3.657	0.985
576.500	628.334	79.996	19.997	100.128	20.026	3.812	0.976
577.000	628.864	79.997	19.997	100.125	20.026	3.806	1.013
577.500	629.399	79.997	19.997	100.121	20.028	3.682	1.050
578.000	629.866	79.996	19.997	100.121	20.030	3.545	1.034
578.500	630.333	79.996	19.996	100.121	20.024	3.959	0.968
579.000	630.793	79.997	19.997	100.123	20.028	3.705	0.930
579.500	631.313	79.999	19.998	100.125	20.026	3.851	0.953
580.000	631.825	79.996	19.998	100.128	20.031	3.450	1.006
580.500	632.335	79.996	19.997	100.129	20.028	3.655	1.027
581.000	632.852	79.997	19.998	100.129	20.030	3.535	1.024
581.500	633.321	79.995	19.996	100.129	20.030	3.541	1.007
582.001	633.839	79.997	19.996	100.128	20.030	3.551	0.987
582.501	634.361	79.997	19.997	100.128	20.027	3.730	1.013
583.000	634.835	79.997	19.998	100.127	20.031	3.432	1.018
583.500	635.365	79.997	19.998	100.126	20.029	3.564	1.000
584.000	635.867	79.996	19.997	100.125	20.030	3.494	1.018
584.500	636.334	79.997	19.998	100.126	20.030	3.552	1.001
585.000	636.878	79.996	19.997	100.126	20.035	3.144	0.990
585.500	637.389	79.998	19.998	100.124	20.030	3.502	1.033
586.000	637.833	79.994	19.999	100.124	20.025	3.858	1.005
586.500	638.360	79.995	19.996	100.125	20.031	3.409	0.963
587.000	638.868	79.996	19.997	100.126	20.030	3.541	1.003
587.500	639.376	79.997	19.998	100.127	20.031	3.458	1.025
588.000	639.907	79.999	19.999	100.130	20.028	3.694	1.027
588.500	640.379	79.997	19.997	100.131	20.028	3.659	1.021
589.000	640.916	79.996	19.997	100.131	20.030	3.504	1.006
589.500	641.416	79.995	19.996	100.130	20.031	3.415	1.023
590.000	641.888	79.997	19.996	100.127	20.030	3.529	1.005
590.500	642.386	79.997	19.998	100.126	20.024	4.001	0.971
591.000	642.888	79.998	19.998	100.123	20.027	3.781	0.985
591.500	643.425	79.999	19.998	100.123	20.028	3.634	1.019
592.000	643.922	79.997	19.996	100.125	20.029	3.558	1.037
592.500	644.423	79.995	19.995	100.128	20.024	3.980	1.016
593.000	644.922	79.999	19.995	100.128	20.024	3.972	0.999
593.500	645.395	79.998	19.996	100.131	20.030	3.554	0.986
594.000	645.951	79.999	19.996	100.131	20.026	3.850	1.000
594.500	646.403	79.999	19.996	100.131	20.026	3.839	1.019
595.001	646.911	80.000	19.996	100.131	20.031	3.438	0.984
595.500	647.448	79.998	19.995	100.133	20.029	3.583	1.002
596.000	647.941	79.997	19.995	100.132	20.032	3.353	1.037
596.500	648.428	79.999	19.997	100.132	20.032	3.405	1.005
597.000	648.973	80.000	19.996	100.131	20.027	3.756	1.007
597.500	649.508	79.998	19.994	100.128	20.032	3.353	1.056
598.000	650.027	79.998	19.996	100.127	20.029	3.612	1.067
598.500	650.529	79.998	19.996	100.128	20.028	3.669	1.037
599.000	650.991	79.997	19.996	100.128	20.031	3.406	0.993
599.500	651.529	79.997	19.995	100.128	20.030	3.547	0.982
600.000	652.066	79.998	19.995	100.131	20.023	4.019	1.037
600.500	652.592	79.997	19.995	100.132	20.029	3.578	1.069
601.000	653.055	79.996	19.995	100.132	20.026	3.839	1.026
601.500	653.619	79.996	19.995	100.132	20.024	3.972	1.008
602.000	654.122	79.997	19.995	100.132	20.029	3.591	1.047
602.500	654.622	79.998	19.997	100.133	20.022	4.092	1.035
603.000	655.192	79.997	19.996	100.136	20.025	3.870	1.037
603.500	655.656	79.994	19.994	100.136	20.026	3.806	1.052
604.000	656.200	79.995	19.996	100.136	20.027	3.711	1.021
604.500	656.717	79.995	19.996	100.136	20.025	3.909	1.034
605.000	657.223	79.997	19.997	100.134	20.034	3.243	1.041
605.500	657.756	79.995	19.996	100.130	20.032	3.332	1.031
606.001	658.277	79.996	19.997	100.131	20.029	3.585	1.047
606.501	658.805	79.995	19.996	100.131	20.028	3.657	1.052
607.000	659.329	79.995	19.996	100.129	20.028	3.686	1.051
607.500	659.853	79.995	19.995	100.131	20.029	3.584	1.050
608.000	660.368	79.996	19.996	100.133	20.028	3.655	1.044
608.500	660.896	79.996	19.996	100.133	20.027	3.725	1.041
609.000	661.406	79.996	19.997	100.129	20.027	3.746	1.040
609.500	661.926	79.995	19.996	100.125	20.028	3.686	1.033
610.000	662.458	79.994	19.996	100.122	20.030	3.538	1.041
610.500	662.994	79.996	19.997	100.122	20.027	3.762	1.060
611.000	663.501	79.994	19.996	100.122	20.031	3.474	1.055
611.500	664.033	79.995	19.996	100.126	20.034	3.228	1.041
612.000	664.630	79.995	19.996	100.132	20.031	3.447	1.084
612.500	665.064	79.996	19.996	100.135	20.022	4.082	1.080
613.000	665.554	79.997	19.997	100.135	20.027	3.705	0.977
613.500	666.145	79.997	19.997	100.133	20.028	3.687	1.002
614.000	666.553	79.997	19.997	100.130	20.028	3.685	1.040
614.500	667.126	79.995	19.995	100.128	20.032	3.330	0.990
615.000	667.586	79.996	19.996	100.129	20.028	3.686	1.007
615.500	668.186	79.996	19.997	100.129	20.027	3.771	1.047
616.000	668.732	79.997	19.996	100.128	20.025	3.891	1.103
616.500	669.221	79.996	19.997	100.126	20.027	3.729	1.090
617.001	669.746	79.997	19.997	100.126	20.029	3.572	1.024
617.501	670.327	79.996	19.997	100.122	20.021	4.184	1.060
618.000	670.857	79.996	19.997	100.121	20.031	3.456	1.109
618.500	671.310	79.996	19.996	100.123	20.026	3.812	1.047
619.000	671.866	79.996	19.996	100.127	20.037	2.980	0.996
619.500	672.334	79.996	19.997	100.126	20.028	3.673	1.016
620.000	672.843	79.997	19.997	100.124	20.028	3.688	1.000
620.500	673.476	79.997	19.995	100.116	20.024	3.996	1.060
621.000	673.936	79.997	19.996	100.110	20.030	3.481	1.118
621.500	674.460	79.996	19.996	100.102	20.032	3.398	1.038
622.000	674.980	79.998	19.996	100.098	20.030	3.480	1.014
622.500	675.488	79.997	19.996	100.095	20.032	3.383	1.037
623.000	676.016	79.997	19.996	100.096	20.028	3.654	1.032
623.500	676.569	79.996	19.996	100.095	20.029	3.606	1.058
624.000	677.067	79.996	19.997	100.095	20.030	3.495	1.066
624.500	677.565	79.997	19.996	100.099	20.027	3.716	1.024
625.001	678.108	79.996	19.996	100.104	20.032	3.352	1.019
625.500	678.621	79.997	19.996	100.111	20.029	3.609	1.048
626.000	679.127	79.997	19.995	100.119	20.031	3.416	1.037
626.500	679.645	79.996	19.996	100.124	20.032	3.387	1.021
627.000	680.144	79.996	19.995	100.123	20.032	3.360	1.021
627.500	680.661	79.997	19.996	100.125	20.035	3.151	1.017
628.000	681.195	79.997	19.996	100.121	20.030	3.544	1.033
628.500	681.715	79.997	19.995	100.118	20.033	3.274	1.052
629.000	682.223	79.996	19.995	100.116	20.032	3.400	1.041
629.500	682.727	79.995	19.995	100.120	20.035	3.154	1.020
630.000	683.253	79.996	19.995	100.121	20.030	3.514	1.021
630.500	683.799	79.997	19.996	100.125	20.033	3.315	1.051
631.000	684.311	79.997	19.996	100.129	20.031	3.468	1.065
631.500	684.812	79.996	19.995	100.127	20.037	3.011	1.035
632.000	685.312	79.997	19.995	100.120	20.035	3.150	1.007
632.500	685.772	79.996	19.997	100.112	20.038	2.914	0.981
633.000	686.417	79.995	19.995	100.104	20.033	3.321	1.033
633.500	686.867	79.995	19.995	100.098	20.031	3.460	1.100
634.000	687.406	79.997	19.995	100.095	20.036	3.067	1.042
634.500	687.879	79.996	19.996	100.101	20.032	3.335	1.000
635.000	688.427	79.997	19.996	100.107	20.030	3.515	1.017
635.500	688.911	79.997	19.997	100.107	20.031	3.443	1.027
636.000	689.451	79.996	19.995	100.108	20.029	3.581	1.029
636.500	689.969	79.994	19.996	100.109	20.031	3.441	1.041
637.000	690.479	79.996	19.996	100.104	20.028	3.677	1.043
637.500	690.977	79.997	19.996	100.099	20.031	3.472	1.018
638.000	691.513	79.995	19.996	100.099	20.032	3.373	1.021
638.500	692.003	79.996	19.997	100.098	20.034	3.205	1.030
639.000	692.541	79.995	19.995	100.101	20.035	3.176	1.027
639.500	693.061	79.996	19.996	100.104	20.030	3.486	1.043
640.000	693.603	79.996	19.995	100.104	20.035	3.139	1.060
640.500	694.121	79.995	19.997	100.105	20.035	3.152	1.061
641.000	694.633	79.997	19.997	100.108	20.034	3.243	1.045
641.500	695.165	79.996	19.997	100.107	20.034	3.240	1.037
642.000	695.633	79.996	19.998	100.110	20.034	3.251	1.022
642.500	696.223	79.996	19.998	100.112	20.035	3.178	1.029
643.000	696.689	79.996	19.995	100.114	20.034	3.209	1.057
643.500	697.209	79.997	19.998	100.112	20.034	3.216	1.021
644.000	697.766	79.997	19.997	100.109	20.033	3.263	1.032
644.500	698.263	79.996	19.997	100.105	20.034	3.218	1.066
645.000	698.762	79.995	19.996	100.103	20.032	3.354	1.025
645.500	699.333	79.997	19.998	100.102	20.040	2.802	1.033
646.000	699.832	79.997	19.997	100.099	20.035	3.145	1.070
646.500	700.281	79.999	19.998	100.098	20.036	3.067	1.009
647.000	700.804	79.997	19.997	100.097	20.041	2.690	0.960
647.500	701.341	79.997	19.996	100.098	20.036	3.071	1.016
648.000	701.816	79.997	19.996	100.101	20.039	2.843	1.036
648.500	702.323	79.997	19.996	100.105	20.038	2.938	0.998
649.000	702.834	79.998	19.997	100.105	20.035	3.112	1.000
649.500	703.380	79.997	19.997	100.104	20.042	2.624	1.037
650.000	703.857	79.999	19.997	100.104	20.035	3.104	1.040
650.500	704.370	79.998	19.996	100.103	20.035	3.145	1.007
651.000	704.868	79.998	19.995	100.104	20.038	2.934	1.001
651.500	705.382	79.998	19.996	100.105	20.037	2.961	1.011
652.000	705.890	79.998	19.997	100.105	20.037	2.963	1.017
652.500	706.405	79.999	19.996	100.105	20.036	3.069	1.022
653.000	706.899	79.998	19.996	100.102	20.038	2.947	1.015
653.500	707.429	79.997	19.997	100.102	20.039	2.818	1.016
654.000	707.927	79.999	19.996	100.101	20.035	3.174	1.026
654.500	708.417	79.996	19.994	100.100	20.035	3.159	1.008
655.000	708.925	79.997	19.997	100.101	20.035	3.128	0.993
655.500	709.429	79.997	19.996	100.104	20.032	3.397	1.006
656.000	709.925	79.997	19.995	100.102	20.035	3.124	1.007
656.500	710.408	79.994	19.995	100.102	20.035	3.151	0.990
657.000	710.905	79.997	19.996	100.102	20.036	3.043	0.979
657.500	711.426	79.994	19.996	100.099	20.035	3.116	0.998
658.000	711.945	79.995	19.996	100.097	20.041	2.676	1.029
658.500	712.393	79.995	19.996	100.097	20.038	2.907	1.004
659.000	712.913	79.997	19.996	100.096	20.041	2.705	0.968
659.500	713.416	79.995	19.996	100.096	20.038	2.936	0.995
660.000	713.940	79.995	19.996	100.098	20.039	2.851	1.025
660.500	714.435	79.996	19.995	100.097	20.034	3.205	1.023
661.000	714.930	79.996	19.995	100.094	20.039	2.845	1.005
661.500	715.420	79.996	19.997	100.095	20.038	2.889	0.987
662.000	715.934	79.995	19.996	100.095	20.037	3.013	0.994
662.500	716.444	79.997	19.997	100.097	20.040	2.728	1.014
663.000	716.958	79.996	19.997	100.097	20.038	2.914	1.024
663.500	717.443	79.997	19.997	100.097	20.039	2.835	1.012
664.000	717.921	79.995	19.996	100.097	20.035	3.144	0.981
664.500	718.418	79.996	19.997	100.098	20.039	2.869	0.968
665.000	718.923	79.996	19.995	100.095	20.041	2.678	0.988
665.500	719.428	79.998	19.997	100.094	20.034	3.181	1.006
666.000	719.895	79.997	19.996	100.094	20.039	2.838	0.992
666.500	720.399	79.997	19.998	100.092	20.035	3.125	0.972
667.001	720.920	79.995	19.997	100.087	20.035	3.121	0.998
667.501	721.375	79.995	19.995	100.087	20.039	2.873	1.001
668.000	721.882	79.998	19.997	100.087	20.040	2.745	0.969
668.500	722.365	79.998	19.997	100.089	20.035	3.107	0.976
669.000	722.824	79.998	19.997	100.094	20.041	2.678	0.966
669.500	723.331	79.995	19.997	100.098	20.042	2.583	0.953
670.000	723.866	79.996	19.996	100.097	20.036	3.085	1.004
670.500	724.364	79.999	19.997	100.098	20.036	3.079	1.038
671.000	724.835	79.996	19.997	100.097	20.032	3.399	1.001
671.500	725.389	79.998	19.997	100.097	20.039	2.837	0.997
672.000	725.866	79.995	19.996	100.101	20.035	3.168	1.028
672.500	726.356	79.997	19.997	100.108	20.035	3.160	0.999
673.000	726.869	79.997	19.996	100.110	20.036	3.050	0.985
673.500	727.347	79.998	19.997	100.110	20.033	3.288	0.997
674.000	727.846	79.998	19.997	100.113	20.032	3.348	0.984
674.500	728.360	79.998	19.998	100.115	20.034	3.224	0.996
675.000	728.831	79.998	19.997	100.116	20.039	2.851	0.999
675.500	729.381	79.998	19.996	100.118	20.033	3.261	1.003
676.000	729.878	79.999	19.997	100.122	20.031	3.416	1.034
676.500	730.411	79.998	19.997	100.121	20.035	3.108	1.039
677.000	730.899	79.999	19.996	100.121	20.038	2.909	1.025
677.500	731.410	79.999	19.996	100.121	20.035	3.147	1.010
678.000	731.911	79.999	19.996	100.125	20.035	3.160	1.005
678.500	732.388	79.997	19.996	100.126	20.033	3.307	0.995
679.000	732.925	79.998	19.996	100.122	20.035	3.143	0.996
679.500	733.403	79.997	19.995	100.120	20.034	3.193	1.015
680.000	733.946	79.998	19.996	100.114	20.033	3.327	1.018
680.500	734.404	79.996	19.996	100.107	20.034	3.253	1.011
681.000	734.938	79.997	19.996	100.099	20.031	3.408	0.996
681.500	735.428	79.997	19.995	100.099	20.028	3.695	1.008
682.000	735.932	79.998	19.997	100.096	20.037	2.982	1.009
682.501	736.455	79.996	19.995	100.096	20.035	3.154	1.011
683.001	736.961	79.997	19.995	100.097	20.034	3.228	1.028
683.500	737.440	79.997	19.996	100.099	20.032	3.389	1.007
684.000	737.943	79.996	19.996	100.099	20.037	3.025	0.984
684.500	738.509	79.996	19.995	100.098	20.036	3.069	1.026
685.000	738.967	79.994	19.995	100.096	20.034	3.249	1.046
685.500	739.504	79.996	19.995	100.095	20.034	3.183	1.010
686.000	739.983	79.995	19.994	100.093	20.033	3.274	1.006
686.500	740.492	79.996	19.996	100.093	20.033	3.282	1.002
