Sample ID:	C:\MCC\MCC Cal\Test\Masonite_New_grinder_MCC_30K_min_220328_R1.txt
Sample Weight (mg):	4.24
Heating Rate (C/s):	0.5
Combustor Temp (C):	900
N2 Flow Rate (cc/min):	80
O2 Flow Rate (cc/min):	20
Calibration File:	C:\MCC\MCC Cal\Coeff1 JN10440_30_210304.txt.txt
T Correction Coefficients:	0	1.024463	0
Time Shift (s):	14
*
Time (s)	Temperature (C)	N2 flow rate (cc/min)	O2 flow rate (cc/min)	Flow Rate (cc/min)	Oxygen (%)	HRR (W/g)	Heating rate (C/s)
0.000	107.637	80.007	19.993	103.642	20.021	-0.082	-0.006
0.500	107.634	80.005	19.993	103.641	20.023	-0.222	-0.012
1.000	107.644	80.003	19.993	103.641	20.022	-0.135	-0.005
1.500	107.673	80.004	19.993	103.641	20.022	-0.104	0.023
2.000	107.646	80.007	19.992	103.642	20.023	-0.180	0.021
2.500	107.623	80.005	19.993	103.642	20.023	-0.207	-0.024
3.000	107.695	80.006	19.993	103.642	20.022	-0.101	0.000
3.500	107.636	80.006	19.992	103.643	20.024	-0.277	0.031
4.000	107.638	80.005	19.992	103.643	20.024	-0.300	-0.022
4.500	107.662	80.005	19.994	103.645	20.023	-0.178	-0.015
5.001	107.624	80.006	19.991	103.648	20.026	-0.421	0.006
5.502	107.631	80.006	19.993	103.654	20.024	-0.285	-0.023
6.000	107.689	80.007	19.994	103.658	20.025	-0.376	0.017
6.500	107.643	80.003	20.000	103.662	20.024	-0.249	0.039
7.000	107.640	80.004	19.993	103.664	20.025	-0.351	-0.018
7.500	107.654	80.006	19.993	103.668	20.025	-0.391	-0.019
8.000	107.673	80.006	19.994	103.665	20.027	-0.494	0.022
8.500	107.650	80.005	19.993	103.660	20.023	-0.199	0.015
9.001	107.650	80.004	19.993	103.656	20.025	-0.378	-0.013
9.501	107.686	80.005	19.993	103.652	20.025	-0.338	0.006
10.001	107.635	80.005	19.993	103.649	20.027	-0.518	0.011
10.500	107.642	80.005	19.993	103.646	20.021	-0.053	-0.029
11.000	107.640	80.004	19.992	103.646	20.025	-0.366	-0.020
11.500	107.634	80.005	19.992	103.649	20.024	-0.292	-0.002
12.000	107.652	80.005	19.993	103.652	20.024	-0.287	0.002
12.500	107.633	80.005	19.994	103.656	20.024	-0.287	0.005
13.000	107.670	80.004	19.994	103.663	20.023	-0.203	0.009
13.500	107.637	80.005	19.993	103.671	20.024	-0.300	0.011
14.000	107.653	80.005	19.993	103.671	20.024	-0.279	-0.006
14.500	107.686	80.004	19.993	103.673	20.026	-0.454	0.016
15.001	107.659	80.005	19.993	103.673	20.026	-0.416	0.027
15.501	107.630	80.006	19.995	103.670	20.024	-0.249	-0.025
16.001	107.666	80.005	19.993	103.669	20.025	-0.359	-0.024
16.501	107.682	80.005	19.993	103.662	20.026	-0.408	0.029
17.001	107.651	80.004	19.993	103.638	20.022	-0.093	0.018
17.501	107.675	80.005	19.993	103.615	20.025	-0.357	-0.011
18.001	107.662	80.004	19.993	103.603	20.025	-0.380	0.002
18.500	107.685	80.003	19.993	103.595	20.024	-0.292	0.010
19.000	107.675	80.005	19.992	103.599	20.027	-0.471	0.011
19.500	107.716	80.006	19.993	103.629	20.022	-0.154	0.022
20.000	107.701	80.004	19.994	103.679	20.022	-0.150	0.029
20.500	107.720	80.004	19.992	103.706	20.022	-0.163	0.016
21.000	107.702	80.002	19.993	103.715	20.026	-0.408	0.003
21.500	107.748	80.006	19.993	103.723	20.024	-0.317	0.014
22.000	107.710	80.004	19.993	103.721	20.025	-0.326	0.018
22.501	107.743	80.004	19.993	103.692	20.024	-0.298	0.001
23.001	107.738	80.004	19.994	103.673	20.027	-0.535	0.011
23.500	107.741	80.006	19.992	103.665	20.026	-0.396	0.013
24.000	107.728	80.004	19.994	103.659	20.027	-0.541	-0.006
24.500	107.727	80.005	19.994	103.659	20.026	-0.463	-0.012
25.000	107.711	80.007	19.993	103.659	20.023	-0.216	-0.016
25.500	107.715	80.007	19.992	103.667	20.026	-0.423	-0.015
26.000	107.736	80.006	19.993	103.674	20.027	-0.472	0.007
26.500	107.732	80.006	19.993	103.681	20.024	-0.281	0.021
27.000	107.745	80.004	19.994	103.684	20.024	-0.311	0.013
27.500	107.736	80.007	19.993	103.686	20.021	-0.072	0.007
28.000	107.753	80.005	19.994	103.689	20.022	-0.091	0.006
28.501	107.792	80.006	19.993	103.697	20.018	0.178	0.032
29.001	107.791	80.007	19.992	103.703	20.015	0.398	0.047
29.500	107.779	80.007	19.992	103.710	20.017	0.284	0.012
30.000	107.817	80.006	19.992	103.720	20.017	0.284	0.006
30.500	107.797	80.005	19.993	103.726	20.015	0.430	0.022
31.000	107.821	80.005	19.992	103.727	20.012	0.639	0.011
31.500	107.840	80.007	19.992	103.735	20.014	0.451	0.024
32.000	107.841	80.007	19.993	103.743	20.012	0.624	0.031
32.500	107.879	80.005	19.992	103.748	20.013	0.595	0.029
33.000	107.878	80.006	19.995	103.754	20.011	0.679	0.038
33.500	107.895	80.007	19.992	103.760	20.008	0.908	0.026
34.000	107.873	80.007	19.992	103.759	20.010	0.815	0.005
34.500	107.929	80.005	19.993	103.759	20.007	1.045	0.015
35.001	107.927	80.006	19.992	103.765	20.007	1.014	0.044
35.501	108.008	80.006	19.992	103.771	20.003	1.327	0.067
36.000	108.027	80.007	19.992	103.775	20.000	1.543	0.089
36.501	108.040	80.004	19.992	103.782	20.002	1.397	0.066
37.001	108.058	80.006	19.993	103.791	19.999	1.662	0.032
37.500	108.129	80.006	19.994	103.795	20.000	1.537	0.060
38.000	108.110	80.005	19.994	103.802	19.999	1.613	0.070
38.500	108.177	80.006	19.993	103.812	19.996	1.857	0.050
39.000	108.216	80.005	19.993	103.821	19.994	1.996	0.077
39.501	108.295	80.005	19.992	103.826	19.995	1.931	0.112
40.001	108.295	80.004	19.992	103.828	19.994	2.018	0.098
40.500	108.395	80.005	19.992	103.825	19.997	1.759	0.089
41.000	108.407	80.005	19.993	103.828	19.997	1.785	0.106
41.500	108.445	80.005	19.992	103.829	19.997	1.762	0.081
42.000	108.502	80.005	19.993	103.831	19.995	1.937	0.073
42.500	108.538	80.003	19.993	103.833	19.997	1.798	0.094
43.000	108.586	80.005	19.997	103.830	19.996	1.897	0.088
43.500	108.657	80.005	19.992	103.823	19.993	2.109	0.101
44.000	108.724	80.005	19.992	103.818	19.995	1.946	0.129
44.501	108.756	80.005	19.993	103.813	19.996	1.825	0.119
45.001	108.862	80.005	19.993	103.813	19.994	1.994	0.118
45.500	108.885	80.005	19.993	103.820	19.993	2.086	0.133
46.000	108.952	80.004	19.993	103.826	19.994	2.003	0.109
46.500	109.008	80.006	19.993	103.831	19.991	2.215	0.107
47.001	109.080	80.006	19.992	103.838	19.993	2.090	0.126
47.501	109.143	80.005	19.992	103.844	19.990	2.329	0.132
48.000	109.218	80.006	19.993	103.849	19.993	2.105	0.136
48.500	109.287	80.005	19.994	103.856	19.994	2.014	0.141
49.000	109.353	80.005	19.994	103.858	19.993	2.096	0.140
49.500	109.481	80.006	19.993	103.858	19.991	2.227	0.164
50.000	109.533	80.004	19.992	103.861	19.993	2.079	0.187
50.500	109.630	80.005	19.994	103.864	19.992	2.143	0.165
51.000	109.690	80.005	19.994	103.865	19.991	2.242	0.153
51.500	109.749	80.007	19.993	103.870	19.991	2.246	0.138
52.000	109.831	80.006	19.993	103.877	19.992	2.153	0.130
52.500	109.911	80.005	19.994	103.879	19.987	2.521	0.152
53.000	109.990	80.005	19.993	103.876	19.987	2.534	0.160
53.501	110.084	80.005	19.993	103.870	19.990	2.337	0.166
54.001	110.170	80.005	19.993	103.865	19.989	2.423	0.177
54.500	110.258	80.006	19.993	103.861	19.987	2.510	0.177
55.000	110.383	80.005	19.993	103.859	19.988	2.451	0.193
55.500	110.473	80.008	19.993	103.861	19.984	2.792	0.214
56.000	110.528	80.007	19.993	103.867	19.984	2.758	0.180
56.500	110.674	80.007	19.993	103.872	19.988	2.443	0.173
57.000	110.703	80.009	19.993	103.876	19.984	2.799	0.188
57.500	110.825	80.007	19.993	103.879	19.987	2.566	0.163
58.000	110.925	80.007	19.993	103.880	19.990	2.306	0.187
58.500	111.010	80.007	19.993	103.877	19.986	2.598	0.203
59.000	111.146	80.007	19.993	103.876	19.983	2.867	0.203
59.500	111.221	80.008	19.993	103.872	19.986	2.646	0.216
60.000	111.332	80.009	19.992	103.871	19.985	2.697	0.199
60.500	111.413	80.008	19.991	103.870	19.985	2.686	0.189
61.001	111.518	80.009	19.992	103.872	19.986	2.604	0.189
61.501	111.573	80.007	19.993	103.872	19.985	2.729	0.173
62.000	111.713	80.008	19.993	103.869	19.987	2.585	0.177
62.501	111.833	80.006	19.995	103.861	19.984	2.778	0.227
63.001	111.946	80.007	19.993	103.853	19.982	2.947	0.246
63.500	112.088	80.007	19.993	103.845	19.981	3.030	0.244
64.000	112.202	80.005	19.993	103.838	19.983	2.848	0.256
64.500	112.242	80.006	19.993	103.836	19.982	2.939	0.205
65.001	112.399	80.007	19.994	103.835	19.982	2.949	0.175
65.501	112.495	80.006	19.993	103.835	19.979	3.180	0.225
66.001	112.606	80.006	19.993	103.836	19.983	2.886	0.230
66.500	112.712	80.005	19.993	103.837	19.979	3.123	0.212
67.000	112.834	80.005	19.994	103.843	19.979	3.167	0.223
67.500	112.970	80.004	19.992	103.852	19.979	3.174	0.243
68.000	113.089	80.004	19.995	103.861	19.981	3.005	0.256
68.500	113.211	80.005	19.993	103.869	19.980	3.105	0.248
69.000	113.325	80.005	19.993	103.876	19.979	3.181	0.238
69.500	113.442	80.006	19.993	103.872	19.977	3.323	0.233
70.000	113.568	80.005	19.993	103.866	19.978	3.234	0.237
70.500	113.721	80.004	19.996	103.859	19.978	3.249	0.261
71.000	113.816	80.003	19.995	103.852	19.979	3.147	0.264
71.501	113.959	80.005	19.993	103.846	19.979	3.158	0.243
72.001	114.138	80.007	19.993	103.851	19.980	3.054	0.280
72.500	114.241	80.004	19.995	103.857	19.982	2.948	0.302
73.000	114.346	80.004	19.993	103.861	19.977	3.327	0.245
73.500	114.470	80.005	19.993	103.865	19.981	2.974	0.219
74.000	114.649	80.004	19.995	103.871	19.977	3.287	0.266
74.500	114.750	80.005	19.993	103.871	19.979	3.171	0.291
75.000	114.894	80.005	19.993	103.871	19.977	3.288	0.262
75.500	115.009	80.003	19.995	103.873	19.977	3.279	0.252
76.000	115.157	80.005	19.993	103.872	19.978	3.236	0.261
76.500	115.321	80.003	19.994	103.867	19.977	3.299	0.288
77.000	115.432	80.005	19.995	103.862	19.978	3.212	0.293
77.500	115.577	80.004	19.994	103.863	19.978	3.259	0.265
78.000	115.728	80.003	19.994	103.867	19.980	3.052	0.276
78.500	115.858	80.004	19.993	103.876	19.979	3.196	0.289
79.000	116.008	80.004	19.995	103.889	19.981	3.018	0.280
79.500	116.122	80.005	19.993	103.901	19.977	3.276	0.272
80.000	116.308	80.004	19.995	103.904	19.983	2.852	0.282
80.500	116.411	80.004	19.994	103.904	19.981	2.979	0.295
81.000	116.581	80.005	19.994	103.903	19.979	3.187	0.281
81.500	116.673	80.005	19.995	103.899	19.984	2.770	0.268
82.000	116.866	80.005	19.991	103.897	19.984	2.747	0.274
82.501	116.990	80.002	19.995	103.894	19.984	2.808	0.301
83.001	117.195	80.005	19.993	103.890	19.979	3.172	0.322
83.500	117.327	80.004	19.995	103.888	19.978	3.212	0.333
84.000	117.477	80.004	19.993	103.896	19.982	2.944	0.310
84.500	117.632	80.004	19.994	103.906	19.979	3.189	0.293
85.000	117.829	80.005	19.994	103.915	19.981	3.012	0.329
85.500	117.961	80.006	19.993	103.920	19.979	3.143	0.340
86.000	118.147	80.005	19.994	103.919	19.979	3.193	0.323
86.500	118.309	80.007	19.993	103.901	19.977	3.328	0.333
87.000	118.482	80.003	19.996	103.885	19.976	3.371	0.342
87.501	118.592	80.005	19.993	103.879	19.973	3.585	0.309
88.001	118.749	80.005	19.993	103.882	19.975	3.487	0.275
88.501	118.939	80.005	19.993	103.892	19.975	3.463	0.307
89.000	119.073	80.004	19.993	103.900	19.977	3.298	0.336
89.500	119.257	80.005	19.993	103.898	19.978	3.247	0.321
90.000	119.397	80.006	19.991	103.896	19.975	3.443	0.321
90.501	119.544	80.004	19.992	103.888	19.977	3.307	0.306
91.001	119.708	80.005	19.993	103.879	19.979	3.155	0.299
91.500	119.902	80.005	19.993	103.879	19.980	3.087	0.334
92.000	120.054	80.004	19.993	103.889	19.978	3.225	0.352
92.500	120.253	80.004	19.993	103.892	19.980	3.102	0.348
93.000	120.392	80.005	19.994	103.895	19.981	3.039	0.345
93.500	120.580	80.006	19.993	103.895	19.981	3.032	0.333
94.000	120.797	80.004	19.993	103.892	19.981	3.026	0.366
94.500	120.968	80.005	19.994	103.886	19.978	3.212	0.396
95.000	121.098	80.005	19.993	103.889	19.978	3.218	0.344
95.500	121.307	80.003	19.992	103.893	19.980	3.057	0.320
96.000	121.485	80.004	19.993	103.901	19.980	3.120	0.363
96.500	121.644	80.005	19.991	103.916	19.979	3.145	0.362
97.000	121.815	80.002	19.993	103.931	19.979	3.196	0.333
97.500	122.017	80.004	19.994	103.936	19.978	3.241	0.351
98.000	122.171	80.003	19.995	103.940	19.976	3.398	0.365
98.500	122.352	80.005	19.993	103.940	19.977	3.322	0.346
99.000	122.535	80.005	19.996	103.931	19.982	2.922	0.349
99.500	122.696	80.006	19.995	103.917	19.977	3.303	0.354
100.000	122.886	80.003	19.994	103.907	19.979	3.157	0.348
100.501	123.075	80.004	19.994	103.897	19.980	3.117	0.365
101.001	123.224	80.005	19.993	103.887	19.978	3.223	0.358
101.500	123.396	80.003	19.994	103.879	19.981	3.015	0.329
102.000	123.606	80.005	19.994	103.870	19.978	3.253	0.351
102.501	123.760	80.003	19.993	103.865	19.980	3.119	0.373
103.001	123.984	80.001	19.994	103.869	19.979	3.137	0.371
103.500	124.148	80.003	19.994	103.876	19.977	3.283	0.383
104.000	124.348	80.004	19.993	103.880	19.978	3.205	0.376
104.500	124.518	80.004	19.993	103.884	19.975	3.471	0.367
105.000	124.737	80.004	19.994	103.882	19.980	3.086	0.380
105.500	124.934	80.005	19.994	103.870	19.975	3.435	0.403
106.000	125.126	80.004	19.993	103.855	19.977	3.294	0.403
106.500	125.326	80.006	19.992	103.845	19.976	3.357	0.390
107.001	125.510	80.005	19.994	103.841	19.976	3.404	0.388
107.501	125.713	80.006	19.994	103.842	19.977	3.322	0.385
108.001	125.884	80.005	19.993	103.850	19.975	3.504	0.381
108.500	126.085	80.005	19.994	103.858	19.973	3.587	0.373
109.000	126.279	80.006	19.993	103.866	19.975	3.504	0.384
109.500	126.457	80.005	19.993	103.874	19.975	3.449	0.383
110.000	126.662	80.006	19.993	103.881	19.974	3.578	0.377
110.500	126.816	80.006	19.994	103.881	19.977	3.345	0.371
111.000	127.020	80.006	19.992	103.880	19.976	3.396	0.359
111.500	127.209	80.006	19.993	103.881	19.976	3.381	0.376
112.000	127.404	80.005	19.994	103.880	19.974	3.510	0.389
112.500	127.622	80.007	19.994	103.880	19.974	3.555	0.399
113.000	127.828	80.006	19.992	103.883	19.976	3.413	0.418
113.501	128.002	80.006	19.993	103.892	19.975	3.451	0.402
114.001	128.239	80.006	19.992	103.899	19.976	3.353	0.396
114.501	128.421	80.005	19.993	103.906	19.974	3.554	0.416
115.000	128.653	80.007	19.992	103.907	19.974	3.543	0.417
115.501	128.857	80.006	19.992	103.907	19.974	3.516	0.425
116.001	129.046	80.007	19.992	103.906	19.975	3.497	0.414
116.500	129.251	80.005	19.993	103.906	19.975	3.455	0.393
117.000	129.487	80.006	19.992	103.907	19.975	3.501	0.417
117.500	129.649	80.007	19.993	103.914	19.974	3.580	0.419
118.000	129.920	80.004	19.994	103.922	19.976	3.389	0.416
118.500	130.119	80.006	19.992	103.927	19.977	3.347	0.451
119.000	130.286	80.005	19.993	103.932	19.972	3.734	0.418
119.500	130.490	80.004	19.993	103.934	19.973	3.601	0.369
120.000	130.716	80.006	19.992	103.934	19.975	3.451	0.401
120.501	130.940	80.007	19.992	103.929	19.977	3.305	0.440
121.001	131.184	80.007	19.992	103.924	19.974	3.540	0.459
121.500	131.360	80.005	19.993	103.920	19.973	3.642	0.444
122.000	131.542	80.006	19.993	103.921	19.973	3.591	0.389
122.500	131.733	80.005	19.993	103.922	19.977	3.300	0.365
123.000	131.943	80.006	19.993	103.921	19.973	3.643	0.387
123.500	132.207	80.006	19.992	103.921	19.973	3.601	0.438
124.000	132.416	80.006	19.992	103.920	19.973	3.609	0.473
124.500	132.608	80.006	19.993	103.915	19.974	3.527	0.437
125.000	132.846	80.006	19.994	103.912	19.975	3.448	0.416
125.501	133.066	80.005	19.992	103.910	19.975	3.442	0.445
126.001	133.283	80.005	19.994	103.908	19.978	3.272	0.448
126.500	133.474	80.007	19.992	103.909	19.975	3.476	0.422
127.000	133.688	80.006	19.993	103.911	19.979	3.126	0.406
127.500	133.902	80.007	19.993	103.913	19.975	3.478	0.416
128.000	134.126	80.007	19.993	103.915	19.978	3.200	0.433
128.500	134.358	80.005	19.993	103.917	19.980	3.092	0.447
129.000	134.537	80.005	19.992	103.917	19.979	3.154	0.433
129.500	134.808	80.006	19.993	103.917	19.978	3.200	0.431
130.000	135.018	80.006	19.993	103.917	19.980	3.092	0.466
130.500	135.214	80.008	19.992	103.920	19.978	3.258	0.443
131.000	135.421	80.006	19.993	103.925	19.981	3.010	0.404
131.500	135.678	80.005	19.993	103.926	19.981	3.012	0.434
132.000	135.859	80.006	19.992	103.926	19.980	3.084	0.451
132.500	136.067	80.007	19.993	103.926	19.979	3.179	0.413
133.000	136.324	80.007	19.993	103.922	19.978	3.220	0.427
133.500	136.538	80.007	19.992	103.917	19.978	3.256	0.468
134.000	136.779	80.007	19.992	103.916	19.978	3.258	0.463
134.500	137.003	80.007	19.994	103.916	19.979	3.167	0.460
135.000	137.227	80.008	19.993	103.914	19.982	2.953	0.457
135.500	137.454	80.008	19.992	103.913	19.979	3.194	0.450
136.000	137.699	80.007	19.993	103.913	19.978	3.251	0.461
136.500	137.889	80.008	19.994	103.912	19.979	3.183	0.453
137.000	138.150	80.006	19.993	103.910	19.978	3.209	0.443
137.500	138.353	80.006	19.994	103.911	19.978	3.219	0.458
138.000	138.590	80.008	19.992	103.911	19.976	3.359	0.452
138.500	138.796	80.006	19.993	103.907	19.978	3.249	0.442
139.000	139.063	80.007	19.993	103.906	19.978	3.204	0.458
139.500	139.312	80.006	19.993	103.907	19.976	3.386	0.494
140.000	139.548	80.008	19.993	103.908	19.976	3.384	0.501
140.500	139.732	80.007	19.993	103.906	19.974	3.545	0.453
141.000	139.990	80.007	19.992	103.910	19.978	3.230	0.431
141.500	140.243	80.007	19.993	103.911	19.978	3.204	0.476
142.000	140.456	80.007	19.993	103.911	19.978	3.262	0.488
142.500	140.723	80.007	19.994	103.911	19.979	3.143	0.473
143.000	140.935	80.007	19.993	103.916	19.977	3.313	0.479
143.500	141.169	80.008	19.993	103.918	19.979	3.196	0.462
144.000	141.379	80.007	19.993	103.919	19.980	3.101	0.445
144.500	141.623	80.006	19.993	103.919	19.977	3.321	0.449
145.000	141.839	80.007	19.993	103.919	19.978	3.239	0.457
145.500	142.092	80.007	19.993	103.915	19.980	3.105	0.465
146.000	142.316	80.006	19.996	103.913	19.980	3.048	0.473
146.500	142.567	80.005	19.993	103.909	19.978	3.205	0.476
147.000	142.766	80.006	19.993	103.905	19.978	3.268	0.462
147.500	143.006	80.006	19.993	103.903	19.978	3.239	0.444
148.000	143.253	80.005	19.992	103.900	19.979	3.145	0.463
148.500	143.464	80.003	19.993	103.895	19.979	3.179	0.472
149.000	143.765	80.005	19.993	103.896	19.978	3.264	0.484
149.500	143.972	80.003	19.994	103.895	19.975	3.463	0.510
150.000	144.201	80.003	19.995	103.891	19.976	3.365	0.472
150.500	144.470	80.005	19.993	103.889	19.979	3.170	0.467
151.000	144.669	80.005	19.993	103.890	19.976	3.422	0.483
151.500	144.891	80.005	19.994	103.888	19.979	3.191	0.445
152.000	145.153	80.004	19.994	103.892	19.982	2.922	0.452
152.500	145.405	80.005	19.993	103.899	19.979	3.132	0.499
153.000	145.622	80.005	19.994	103.905	19.983	2.890	0.491
153.500	145.860	80.003	19.993	103.911	19.978	3.206	0.462
154.000	146.067	80.006	19.993	103.914	19.979	3.151	0.450
154.500	146.296	80.005	19.993	103.917	19.981	3.032	0.441
155.000	146.553	80.004	19.994	103.919	19.981	3.020	0.460
155.500	146.832	80.004	19.994	103.918	19.979	3.173	0.511
156.000	147.036	80.004	19.996	103.918	19.979	3.190	0.510
156.500	147.265	80.003	19.989	103.914	19.978	3.230	0.458
157.000	147.505	80.004	19.993	103.912	19.980	3.099	0.451
157.500	147.734	80.004	19.996	103.911	19.982	2.930	0.469
158.000	148.044	80.006	19.990	103.910	19.982	2.938	0.504
158.500	148.246	80.002	19.998	103.909	19.982	2.918	0.525
159.000	148.486	80.004	19.994	103.912	19.978	3.204	0.477
159.500	148.741	80.004	19.995	103.912	19.980	3.051	0.469
160.000	149.018	80.003	19.992	103.907	19.980	3.068	0.513
160.500	149.260	80.005	19.993	103.900	19.977	3.343	0.525
161.000	149.495	80.005	19.992	103.898	19.980	3.100	0.498
161.500	149.752	80.004	19.997	103.894	19.979	3.161	0.485
162.000	149.953	80.006	19.992	103.887	19.982	2.920	0.475
162.500	150.185	80.005	19.993	103.885	19.979	3.155	0.445
163.000	150.411	79.999	19.997	103.885	19.980	3.073	0.445
163.500	150.642	80.002	19.995	103.880	19.982	2.916	0.458
164.000	150.902	80.006	19.995	103.878	19.978	3.223	0.475
164.500	151.146	80.003	19.993	103.882	19.979	3.141	0.498
165.000	151.390	80.003	19.992	103.883	19.980	3.111	0.496
165.500	151.653	80.005	19.995	103.889	19.979	3.179	0.497
166.000	151.924	80.004	19.989	103.898	19.978	3.251	0.520
166.500	152.129	80.004	19.994	103.906	19.976	3.422	0.505
167.000	152.384	80.005	19.994	103.913	19.975	3.460	0.468
167.500	152.581	80.005	19.994	103.922	19.978	3.225	0.456
168.000	152.831	80.003	19.994	103.924	19.978	3.240	0.449
168.500	153.141	80.004	19.996	103.920	19.978	3.232	0.503
169.000	153.348	80.004	19.994	103.910	19.980	3.094	0.538
169.500	153.580	80.006	19.993	103.900	19.979	3.169	0.478
170.000	153.801	80.004	19.995	103.883	19.977	3.340	0.446
170.500	154.053	80.005	19.994	103.868	19.981	3.029	0.463
171.000	154.320	80.005	19.992	103.863	19.977	3.327	0.496
171.500	154.549	80.004	19.995	103.864	19.979	3.173	0.508
172.000	154.783	80.003	19.994	103.868	19.980	3.105	0.479
172.500	155.053	80.007	19.992	103.880	19.978	3.204	0.483
173.000	155.273	79.998	19.997	103.891	19.977	3.297	0.497
173.500	155.468	80.004	19.993	103.891	19.976	3.370	0.453
174.000	155.747	80.007	19.992	103.893	19.982	2.925	0.445
174.500	156.004	80.004	19.993	103.896	19.977	3.287	0.505
175.000	156.257	80.004	19.993	103.892	19.974	3.544	0.523
175.500	156.480	80.002	19.995	103.891	19.977	3.308	0.493
176.000	156.686	80.002	19.995	103.894	19.980	3.107	0.452
176.500	156.955	80.004	19.993	103.893	19.976	3.390	0.452
177.000	157.192	80.004	19.991	103.889	19.978	3.221	0.490
177.500	157.457	80.003	19.995	103.893	19.977	3.320	0.504
178.000	157.670	80.004	19.994	103.891	19.977	3.330	0.490
178.500	157.927	80.001	19.993	103.893	19.979	3.127	0.474
179.000	158.182	80.004	19.993	103.898	19.978	3.205	0.491
179.500	158.403	80.004	19.994	103.900	19.979	3.171	0.494
180.000	158.687	80.004	19.993	103.901	19.980	3.120	0.490
180.500	158.907	80.002	19.995	103.907	19.978	3.226	0.504
181.000	159.132	80.003	19.994	103.910	19.979	3.165	0.475
181.500	159.388	80.004	19.994	103.908	19.980	3.057	0.463
182.000	159.612	80.003	19.992	103.905	19.981	3.017	0.480
182.500	159.866	80.004	19.992	103.897	19.978	3.231	0.479
183.000	160.183	80.004	19.993	103.892	19.984	2.751	0.525
183.500	160.364	80.005	19.993	103.889	19.984	2.786	0.535
184.000	160.609	80.004	19.994	103.893	19.980	3.096	0.462
184.500	160.868	80.002	19.994	103.900	19.980	3.083	0.465
185.000	161.124	80.004	19.994	103.908	19.979	3.178	0.509
185.500	161.368	80.004	19.991	103.915	19.981	2.992	0.507
186.000	161.623	80.004	19.993	103.915	19.982	2.924	0.500
186.500	161.878	80.003	19.993	103.907	19.979	3.140	0.505
187.000	162.090	80.003	19.992	103.901	19.978	3.244	0.489
187.500	162.371	80.004	19.994	103.893	19.980	3.112	0.480
188.000	162.620	80.004	19.993	103.879	19.978	3.222	0.511
188.500	162.853	80.005	19.992	103.866	19.979	3.150	0.505
189.000	163.090	80.005	19.991	103.860	19.979	3.161	0.476
189.500	163.291	80.004	19.993	103.852	19.979	3.169	0.454
190.000	163.560	80.006	19.992	103.844	19.980	3.068	0.454
190.500	163.808	80.007	19.994	103.842	19.982	2.964	0.493
191.000	164.044	80.005	19.993	103.848	19.980	3.098	0.500
191.500	164.303	80.004	19.993	103.857	19.979	3.174	0.489
192.000	164.566	80.006	19.993	103.864	19.980	3.092	0.509
192.500	164.818	80.006	19.991	103.873	19.979	3.170	0.518
193.000	165.071	80.006	19.993	103.881	19.979	3.131	0.510
193.500	165.359	80.006	19.993	103.882	19.979	3.127	0.523
194.000	165.589	80.006	19.993	103.879	19.981	3.044	0.530
194.500	165.817	80.006	19.992	103.876	19.977	3.277	0.488
195.000	166.068	80.006	19.993	103.873	19.982	2.938	0.468
195.500	166.346	80.006	19.993	103.872	19.981	2.983	0.504
196.000	166.599	80.005	19.992	103.872	19.981	2.998	0.530
196.500	166.812	80.006	19.992	103.871	19.981	3.038	0.499
197.000	167.075	80.006	19.993	103.871	19.978	3.225	0.471
197.500	167.356	80.007	19.993	103.870	19.980	3.113	0.510
198.000	167.564	80.007	19.993	103.869	19.978	3.237	0.516
198.500	167.824	80.006	19.993	103.866	19.979	3.159	0.478
199.000	168.053	80.006	19.993	103.860	19.976	3.386	0.479
199.500	168.306	80.005	19.993	103.859	19.978	3.259	0.486
200.000	168.526	80.006	19.993	103.855	19.978	3.246	0.478
200.500	168.783	80.005	19.994	103.855	19.979	3.159	0.475
201.000	168.993	80.005	19.994	103.859	19.976	3.389	0.472
201.500	169.289	80.006	19.994	103.870	19.978	3.270	0.487
202.000	169.543	80.004	19.994	103.874	19.978	3.266	0.528
202.500	169.803	80.006	19.994	103.879	19.976	3.421	0.532
203.000	170.020	80.006	19.994	103.880	19.980	3.114	0.496
203.500	170.276	80.005	19.993	103.875	19.977	3.303	0.475
204.000	170.496	80.005	19.993	103.863	19.981	3.021	0.474
204.500	170.764	80.005	19.993	103.857	19.975	3.466	0.482
205.001	171.021	80.006	19.994	103.852	19.976	3.368	0.507
205.500	171.279	80.005	19.993	103.845	19.976	3.412	0.520
206.000	171.519	80.005	19.995	103.842	19.977	3.311	0.506
206.500	171.742	80.006	19.994	103.848	19.978	3.220	0.481
207.000	171.966	80.006	19.993	103.854	19.976	3.402	0.455
207.500	172.245	80.005	19.995	103.859	19.978	3.269	0.475
208.000	172.455	80.006	19.993	103.867	19.975	3.494	0.496
208.500	172.757	80.005	19.994	103.874	19.976	3.390	0.501
209.000	172.986	80.005	19.993	103.875	19.977	3.331	0.522
209.500	173.242	80.005	19.993	103.874	19.974	3.530	0.508
210.000	173.450	80.007	19.994	103.875	19.975	3.471	0.474
210.500	173.690	80.006	19.992	103.872	19.976	3.365	0.456
211.000	173.933	80.006	19.993	103.865	19.976	3.369	0.465
211.500	174.186	80.005	19.993	103.858	19.974	3.504	0.489
212.000	174.454	80.006	19.993	103.851	19.975	3.479	0.509
212.500	174.673	80.006	19.992	103.844	19.976	3.384	0.504
213.000	174.925	80.007	19.993	103.843	19.975	3.462	0.479
213.500	175.155	80.007	19.992	103.850	19.974	3.557	0.476
214.001	175.391	80.007	19.992	103.858	19.973	3.614	0.474
214.500	175.673	80.008	19.994	103.862	19.975	3.483	0.492
215.000	175.877	80.005	19.993	103.864	19.974	3.562	0.502
215.500	176.150	80.007	19.994	103.861	19.972	3.668	0.481
216.000	176.364	80.007	19.993	103.856	19.970	3.852	0.482
216.500	176.640	80.006	19.991	103.849	19.972	3.717	0.489
217.000	176.880	80.007	19.993	103.849	19.973	3.594	0.503
217.500	177.136	80.008	19.993	103.855	19.975	3.491	0.506
218.000	177.366	80.008	19.992	103.862	19.973	3.647	0.491
218.500	177.626	80.009	19.992	103.867	19.975	3.477	0.488
219.000	177.869	80.009	19.993	103.876	19.974	3.541	0.497
219.500	178.112	80.008	19.993	103.880	19.979	3.125	0.495
220.000	178.363	80.007	19.994	103.882	19.978	3.210	0.490
220.500	178.640	80.009	19.994	103.882	19.977	3.324	0.511
221.000	178.844	80.008	19.994	103.882	19.976	3.360	0.504
221.500	179.104	80.008	19.996	103.879	19.974	3.529	0.473
222.000	179.368	80.005	19.993	103.878	19.980	3.114	0.494
222.500	179.611	80.007	19.992	103.878	19.977	3.340	0.516
223.000	179.833	80.008	19.994	103.878	19.978	3.257	0.486
223.500	180.100	80.008	19.993	103.875	19.980	3.105	0.477
224.000	180.311	80.008	19.992	103.872	19.978	3.270	0.484
224.500	180.612	80.007	19.992	103.872	19.977	3.346	0.495
225.000	180.861	80.008	19.993	103.872	19.975	3.477	0.531
225.500	181.117	80.007	19.993	103.875	19.975	3.450	0.527
226.000	181.356	80.008	19.993	103.881	19.978	3.239	0.500
226.500	181.607	80.008	19.994	103.892	19.977	3.280	0.492
227.000	181.845	80.006	19.992	103.899	19.978	3.267	0.490
227.500	182.103	80.008	19.992	103.904	19.978	3.269	0.493
228.000	182.358	80.006	19.993	103.908	19.981	3.024	0.505
228.500	182.585	80.005	19.994	103.907	19.978	3.239	0.497
229.000	182.830	80.006	19.993	103.903	19.977	3.341	0.476
229.500	183.083	80.005	19.995	103.896	19.977	3.326	0.485
230.000	183.334	80.005	19.993	103.890	19.977	3.348	0.501
230.500	183.591	80.004	19.993	103.882	19.975	3.441	0.506
231.000	183.858	80.005	19.994	103.878	19.973	3.598	0.516
231.500	184.080	80.004	19.994	103.873	19.977	3.288	0.507
232.000	184.350	80.006	19.993	103.866	19.976	3.422	0.490
232.500	184.602	80.004	19.994	103.859	19.973	3.631	0.507
233.000	184.838	80.004	19.995	103.851	19.973	3.647	0.505
233.500	185.112	80.003	19.993	103.841	19.973	3.588	0.499
234.000	185.372	80.004	19.995	103.834	19.977	3.340	0.522
234.500	185.609	80.004	19.994	103.830	19.974	3.516	0.516
235.000	185.875	80.006	19.994	103.821	19.973	3.634	0.500
235.500	186.129	80.004	19.992	103.821	19.972	3.717	0.512
236.000	186.411	80.004	19.995	103.832	19.975	3.453	0.528
236.500	186.682	80.003	19.992	103.842	19.974	3.537	0.545
237.000	186.880	80.002	19.995	103.854	19.976	3.366	0.512
237.500	187.166	80.006	19.995	103.871	19.977	3.347	0.476
238.000	187.405	80.003	19.994	103.875	19.980	3.119	0.504
238.500	187.623	80.005	19.994	103.872	19.976	3.399	0.491
239.000	187.873	80.004	19.994	103.872	19.974	3.551	0.463
239.500	188.145	80.005	19.993	103.871	19.976	3.373	0.495
240.000	188.406	80.006	19.992	103.869	19.975	3.479	0.527
240.500	188.643	80.005	19.993	103.872	19.976	3.360	0.515
241.000	188.871	80.004	19.993	103.883	19.980	3.112	0.482
241.500	189.134	80.004	19.993	103.885	19.978	3.257	0.478
242.000	189.411	80.004	19.996	103.882	19.977	3.301	0.516
242.500	189.623	80.004	19.993	103.874	19.978	3.272	0.514
243.000	189.875	80.004	19.994	103.870	19.979	3.157	0.476
243.500	190.103	80.007	19.993	103.861	19.977	3.318	0.472
244.000	190.386	80.003	19.993	103.852	19.978	3.244	0.495
244.500	190.603	80.003	19.995	103.847	19.975	3.441	0.505
245.000	190.875	80.005	19.993	103.847	19.977	3.343	0.494
245.500	191.119	80.007	19.991	103.844	19.976	3.375	0.503
246.000	191.383	80.003	19.996	103.840	19.979	3.144	0.512
246.500	191.628	80.004	19.994	103.840	19.982	2.969	0.508
247.001	191.886	80.005	19.996	103.848	19.980	3.113	0.506
247.500	192.107	80.004	19.993	103.856	19.976	3.376	0.491
248.000	192.405	80.006	19.992	103.864	19.976	3.395	0.499
248.500	192.616	80.006	19.993	103.872	19.977	3.305	0.514
249.000	192.889	80.005	19.993	103.880	19.978	3.236	0.497
249.500	193.113	80.005	19.992	103.881	19.976	3.356	0.490
250.000	193.367	80.005	19.994	103.875	19.976	3.415	0.488
250.500	193.651	80.007	19.993	103.867	19.976	3.399	0.508
251.000	193.903	80.004	19.994	103.871	19.976	3.410	0.537
251.500	194.173	80.005	19.994	103.870	19.978	3.216	0.529
252.000	194.434	80.006	19.993	103.869	19.977	3.318	0.526
252.500	194.659	80.005	19.994	103.875	19.977	3.337	0.508
253.000	194.900	80.006	19.992	103.888	19.975	3.484	0.476
253.500	195.135	80.005	19.992	103.882	19.976	3.370	0.471
254.000	195.363	80.004	19.996	103.881	19.975	3.440	0.469
254.500	195.635	80.006	19.993	103.889	19.974	3.531	0.482
255.000	195.928	80.004	19.994	103.892	19.976	3.410	0.533
255.500	196.170	80.006	19.994	103.882	19.977	3.329	0.550
256.000	196.384	80.006	19.994	103.877	19.976	3.386	0.496
256.500	196.677	80.005	19.994	103.874	19.979	3.156	0.482
257.000	196.918	80.003	19.995	103.873	19.978	3.262	0.521
257.500	197.142	80.011	19.991	103.876	19.974	3.522	0.500
258.000	197.421	80.008	19.993	103.895	19.974	3.563	0.484
258.500	197.604	80.005	19.992	103.906	19.974	3.576	0.482
259.000	197.875	80.006	19.991	103.892	19.974	3.508	0.458
259.500	198.122	80.008	19.994	103.864	19.975	3.480	0.486
260.000	198.421	80.004	19.996	103.834	19.975	3.431	0.532
260.500	198.673	80.007	19.987	103.812	19.976	3.391	0.548
261.000	198.927	80.002	19.998	103.807	19.976	3.403	0.528
261.500	199.178	80.005	19.991	103.821	19.977	3.311	0.505
262.000	199.393	80.004	19.995	103.845	19.977	3.341	0.485
262.500	199.628	80.007	19.994	103.866	19.976	3.403	0.458
263.000	199.874	80.004	19.994	103.877	19.971	3.737	0.466
263.500	200.142	80.005	19.994	103.886	19.972	3.665	0.498
264.000	200.381	80.004	19.994	103.896	19.972	3.676	0.511
264.500	200.619	80.005	19.994	103.909	19.975	3.472	0.492
265.000	200.920	80.004	19.995	103.923	19.974	3.510	0.508
265.500	201.164	80.005	19.993	103.926	19.974	3.554	0.542
266.001	201.385	80.004	19.995	103.918	19.974	3.577	0.505
266.500	201.639	80.004	19.995	103.905	19.973	3.582	0.470
267.000	201.851	80.004	19.995	103.878	19.974	3.525	0.470
267.500	202.129	80.005	19.996	103.858	19.976	3.369	0.478
268.000	202.367	80.006	19.995	103.847	19.975	3.469	0.503
268.500	202.609	80.004	19.994	103.850	19.975	3.442	0.498
269.001	202.890	80.006	19.994	103.861	19.974	3.508	0.502
269.500	203.136	80.004	19.993	103.870	19.976	3.419	0.525
270.000	203.400	80.004	19.994	103.863	19.977	3.333	0.518
270.500	203.622	80.005	19.994	103.851	19.974	3.525	0.498
271.000	203.881	80.006	19.995	103.840	19.977	3.312	0.483
271.500	204.123	80.007	19.993	103.833	19.976	3.350	0.491
272.000	204.349	80.007	19.994	103.834	19.975	3.498	0.485
272.500	204.598	80.006	19.995	103.847	19.977	3.280	0.472
273.000	204.845	80.006	19.994	103.865	19.975	3.475	0.485
273.500	205.123	80.006	19.993	103.876	19.977	3.295	0.510
274.000	205.338	80.006	19.994	103.879	19.974	3.509	0.509
274.500	205.576	80.008	19.993	103.882	19.977	3.340	0.473
275.000	205.840	80.006	19.993	103.883	19.977	3.342	0.478
275.500	206.082	80.007	19.994	103.875	19.976	3.351	0.504
276.000	206.368	80.008	19.992	103.864	19.981	3.010	0.517
276.500	206.579	80.006	19.992	103.854	19.978	3.216	0.512
277.000	206.787	80.006	19.993	103.848	19.974	3.504	0.458
277.500	207.050	80.008	19.993	103.848	19.976	3.359	0.445
278.000	207.322	80.008	19.994	103.859	19.978	3.247	0.503
278.500	207.561	80.007	19.994	103.878	19.978	3.245	0.523
279.000	207.813	80.008	19.993	103.901	19.978	3.264	0.501
279.500	208.085	80.006	19.993	103.919	19.978	3.207	0.508
280.000	208.344	80.008	19.993	103.923	19.978	3.234	0.527
280.500	208.593	80.007	19.994	103.910	19.980	3.065	0.519
281.000	208.798	80.007	19.993	103.888	19.980	3.088	0.481
281.500	209.099	80.008	19.993	103.863	19.977	3.298	0.480
282.000	209.336	80.007	19.994	103.838	19.978	3.264	0.522
282.500	209.564	80.007	19.993	103.820	19.976	3.402	0.501
283.000	209.785	80.008	19.993	103.814	19.975	3.461	0.457
283.500	210.081	80.007	19.993	103.817	19.975	3.467	0.483
284.000	210.264	80.007	19.993	103.816	19.974	3.543	0.498
284.500	210.592	80.004	19.995	103.821	19.974	3.517	0.495
285.000	210.780	80.005	19.995	103.827	19.974	3.576	0.514
285.500	211.025	80.005	19.992	103.832	19.977	3.291	0.475
286.000	211.275	80.007	19.994	103.840	19.973	3.592	0.464
286.500	211.532	80.005	19.993	103.849	19.975	3.495	0.501
287.000	211.795	80.005	19.993	103.856	19.974	3.536	0.513
287.500	212.048	80.005	19.993	103.857	19.972	3.659	0.518
288.000	212.295	80.005	19.994	103.855	19.975	3.467	0.508
288.500	212.518	80.005	19.993	103.841	19.973	3.601	0.485
289.000	212.786	80.005	19.994	103.836	19.970	3.829	0.480
289.500	213.068	80.007	19.994	103.833	19.974	3.509	0.520
290.000	213.269	80.005	19.992	103.833	19.973	3.587	0.516
290.500	213.502	80.006	19.992	103.836	19.974	3.546	0.458
291.000	213.734	80.004	19.993	103.843	19.975	3.449	0.450
291.500	214.013	80.007	19.992	103.841	19.969	3.899	0.488
292.000	214.299	80.006	19.993	103.838	19.972	3.662	0.538
292.500	214.539	80.006	19.993	103.842	19.973	3.622	0.545
293.000	214.769	80.005	19.993	103.845	19.969	3.948	0.498
293.500	215.027	80.005	19.992	103.843	19.972	3.717	0.479
294.000	215.309	80.006	19.994	103.839	19.971	3.759	0.514
294.500	215.539	80.006	19.992	103.836	19.972	3.665	0.526
295.000	215.772	80.005	19.993	103.823	19.972	3.695	0.487
295.500	215.988	80.006	19.993	103.815	19.970	3.845	0.456
296.000	216.265	80.006	19.993	103.819	19.974	3.513	0.471
296.500	216.494	80.007	19.993	103.824	19.975	3.497	0.499
297.000	216.721	80.006	19.993	103.831	19.974	3.554	0.481
297.500	216.936	80.007	19.992	103.847	19.974	3.565	0.449
298.000	217.176	80.007	19.993	103.866	19.977	3.294	0.448
298.500	217.456	80.007	19.993	103.881	19.979	3.125	0.487
299.000	217.672	80.007	19.994	103.897	19.977	3.300	0.508
299.500	217.971	80.008	19.993	103.904	19.979	3.141	0.506
300.000	218.185	80.007	19.992	103.907	19.981	3.037	0.514
300.500	218.406	80.006	19.993	103.901	19.977	3.280	0.474
301.000	218.668	80.008	19.993	103.884	19.979	3.153	0.459
301.500	218.906	80.007	19.993	103.867	19.977	3.322	0.491
302.000	219.196	80.008	19.993	103.855	19.976	3.403	0.514
302.500	219.447	80.008	19.993	103.849	19.976	3.361	0.534
303.000	219.652	80.008	19.992	103.852	19.977	3.334	0.499
303.500	219.905	80.008	19.994	103.863	19.976	3.362	0.457
304.000	220.154	80.007	19.992	103.856	19.976	3.366	0.480
304.500	220.388	80.008	19.993	103.843	19.976	3.410	0.492
305.000	220.617	80.008	19.992	103.831	19.980	3.080	0.473
305.500	220.867	80.007	19.993	103.815	19.974	3.541	0.471
306.000	221.110	80.007	19.993	103.807	19.974	3.511	0.486
306.500	221.321	80.007	19.992	103.820	19.975	3.431	0.473
307.000	221.582	80.007	19.994	103.833	19.977	3.297	0.463
307.500	221.834	80.007	19.992	103.840	19.972	3.693	0.493
308.000	222.082	80.007	19.993	103.851	19.975	3.429	0.507
308.500	222.316	80.006	19.992	103.856	19.975	3.446	0.491
309.000	222.587	80.006	19.992	103.859	19.974	3.503	0.494
309.500	222.777	80.007	19.992	103.858	19.974	3.526	0.483
310.001	223.094	80.007	19.992	103.851	19.980	3.069	0.483
310.500	223.339	80.005	19.992	103.837	19.974	3.562	0.535
311.000	223.564	80.003	19.995	103.823	19.972	3.720	0.517
311.500	223.826	80.003	19.993	103.809	19.973	3.608	0.479
312.000	224.050	80.006	19.992	103.803	19.976	3.422	0.486
312.500	224.325	80.006	19.993	103.814	19.971	3.803	0.492
313.000	224.580	80.005	19.992	103.829	19.974	3.547	0.514
313.501	224.814	80.004	19.993	103.846	19.971	3.738	0.510
314.000	225.112	80.005	19.992	103.861	19.970	3.819	0.511
314.500	225.348	80.005	19.992	103.874	19.973	3.607	0.533
315.000	225.585	80.006	19.993	103.867	19.973	3.633	0.504
315.500	225.821	80.005	19.993	103.857	19.971	3.787	0.473
316.001	226.029	80.005	19.992	103.849	19.969	3.952	0.458
316.500	226.271	80.005	19.993	103.841	19.972	3.672	0.447
317.000	226.529	80.004	19.994	103.833	19.973	3.613	0.475
317.500	226.762	80.005	19.992	103.830	19.971	3.776	0.495
318.000	227.025	80.005	19.993	103.830	19.972	3.710	0.493
318.500	227.281	80.005	19.993	103.830	19.972	3.721	0.507
319.000	227.538	80.006	19.993	103.830	19.974	3.560	0.516
319.500	227.746	80.005	19.992	103.831	19.970	3.842	0.489
320.000	228.004	80.005	19.993	103.837	19.971	3.742	0.465
320.500	228.253	80.005	19.993	103.834	19.970	3.831	0.487
321.000	228.481	80.006	19.994	103.827	19.970	3.860	0.492
321.500	228.752	80.005	19.992	103.825	19.970	3.826	0.488
322.001	228.975	80.005	19.993	103.823	19.973	3.587	0.497
322.500	229.238	80.004	19.994	103.823	19.969	3.951	0.491
323.000	229.463	80.003	19.995	103.823	19.970	3.852	0.487
323.500	229.691	80.005	19.993	103.826	19.971	3.778	0.470
324.000	230.027	80.008	19.994	103.828	19.970	3.841	0.508
324.500	230.240	80.004	19.996	103.837	19.969	3.922	0.556
325.000	230.462	80.004	19.994	103.849	19.968	3.967	0.492
325.500	230.712	80.005	19.994	103.857	19.970	3.842	0.453
326.000	230.954	80.003	19.994	103.861	19.970	3.872	0.482
326.500	231.187	80.006	19.994	103.859	19.970	3.870	0.484
327.000	231.434	80.005	19.994	103.848	19.967	4.108	0.478
327.500	231.678	80.006	19.993	103.837	19.969	3.922	0.486
328.000	231.892	80.003	19.995	103.834	19.965	4.212	0.474
328.500	232.152	80.005	19.993	103.836	19.966	4.140	0.466
329.000	232.415	80.005	19.995	103.836	19.970	3.824	0.499
329.500	232.627	80.005	19.992	103.840	19.970	3.875	0.499
330.000	232.903	80.005	19.994	103.838	19.964	4.294	0.481
330.500	233.161	80.005	19.993	103.840	19.967	4.051	0.511
331.000	233.396	80.004	19.994	103.842	19.964	4.284	0.514
331.500	233.590	80.006	19.994	103.838	19.964	4.341	0.461
332.000	233.882	80.006	19.994	103.831	19.963	4.349	0.458
332.500	234.134	80.007	19.992	103.827	19.963	4.419	0.515
333.000	234.349	80.002	19.996	103.825	19.958	4.730	0.505
333.500	234.588	80.005	19.993	103.820	19.962	4.431	0.460
334.000	234.900	80.005	19.995	103.824	19.961	4.568	0.502
334.500	235.115	80.005	19.993	103.829	19.961	4.519	0.539
335.001	235.362	80.004	19.993	103.833	19.961	4.498	0.495
335.501	235.597	80.005	19.995	103.833	19.964	4.282	0.472
336.001	235.827	80.006	19.994	103.838	19.960	4.587	0.473
336.501	236.079	80.004	19.993	103.843	19.963	4.390	0.474
337.001	236.319	80.004	19.993	103.851	19.963	4.401	0.487
337.501	236.581	80.005	19.994	103.862	19.961	4.549	0.497
338.000	236.822	80.006	19.995	103.875	19.964	4.274	0.502
338.500	237.078	80.005	19.994	103.880	19.963	4.418	0.500
339.000	237.293	80.006	19.993	103.883	19.962	4.481	0.484
339.500	237.591	80.005	19.994	103.887	19.961	4.541	0.492
340.000	237.796	80.005	19.994	103.888	19.960	4.594	0.508
340.500	238.012	80.006	19.993	103.886	19.965	4.266	0.462
341.000	238.288	80.005	19.994	103.884	19.961	4.568	0.456
341.500	238.514	80.006	19.994	103.883	19.962	4.433	0.497
342.000	238.799	80.004	19.995	103.880	19.962	4.426	0.507
342.500	239.005	80.004	19.995	103.877	19.960	4.613	0.501
343.000	239.281	80.006	19.994	103.875	19.959	4.695	0.486
343.500	239.523	80.003	19.995	103.871	19.957	4.810	0.499
344.000	239.769	80.005	19.994	103.864	19.959	4.726	0.503
344.500	239.939	80.005	19.993	103.856	19.955	5.018	0.453
345.000	240.195	80.005	19.994	103.847	19.956	4.944	0.421
345.500	240.427	80.005	19.995	103.840	19.958	4.783	0.457
346.000	240.689	80.005	19.994	103.837	19.953	5.113	0.491
346.500	240.919	80.005	19.994	103.838	19.954	5.095	0.493
347.000	241.171	80.004	19.994	103.843	19.955	4.974	0.487
347.500	241.418	80.005	19.994	103.852	19.954	5.044	0.490
348.000	241.700	80.005	19.993	103.855	19.953	5.129	0.514
348.500	241.952	80.002	19.994	103.856	19.953	5.146	0.532
349.000	242.138	80.004	19.994	103.855	19.954	5.082	0.486
349.500	242.432	80.004	19.994	103.855	19.951	5.277	0.459
350.000	242.695	80.004	19.994	103.849	19.950	5.368	0.518
350.500	242.929	80.004	19.994	103.850	19.950	5.387	0.527
351.000	243.169	80.005	19.995	103.857	19.952	5.196	0.486
351.500	243.396	80.005	19.994	103.860	19.948	5.503	0.471
352.000	243.676	80.005	19.994	103.856	19.948	5.542	0.487
352.500	243.871	80.004	19.993	103.854	19.946	5.698	0.491
353.000	244.149	80.004	19.994	103.849	19.944	5.844	0.474
353.500	244.417	80.005	19.995	103.848	19.945	5.736	0.509
354.000	244.620	80.006	19.994	103.853	19.945	5.742	0.508
354.500	244.873	80.007	19.994	103.860	19.947	5.615	0.463
355.000	245.149	80.006	19.994	103.867	19.942	6.015	0.493
355.500	245.361	80.005	19.994	103.874	19.944	5.835	0.509
356.000	245.650	80.006	19.994	103.876	19.947	5.623	0.494
356.500	245.910	80.005	19.994	103.875	19.944	5.825	0.525
357.000	246.112	80.006	19.993	103.876	19.945	5.731	0.506
357.500	246.392	80.005	19.994	103.878	19.946	5.646	0.472
358.000	246.594	80.005	19.994	103.879	19.943	5.909	0.482
358.500	246.891	80.005	19.992	103.879	19.943	5.934	0.490
359.000	247.120	80.005	19.994	103.880	19.941	6.082	0.512
359.500	247.390	80.006	19.995	103.883	19.941	6.084	0.513
360.000	247.579	80.005	19.995	103.883	19.940	6.133	0.479
360.500	247.823	80.005	19.994	103.883	19.940	6.169	0.446
361.000	248.097	80.007	19.993	103.883	19.942	6.008	0.476
361.500	248.363	80.004	19.995	103.883	19.943	5.944	0.529
362.000	248.582	80.006	19.993	103.878	19.943	5.925	0.513
362.500	248.849	80.006	19.994	103.881	19.943	5.916	0.486
363.000	249.134	80.005	19.994	103.883	19.940	6.130	0.519
363.500	249.360	80.004	19.995	103.883	19.942	5.984	0.531
364.000	249.574	80.006	19.993	103.881	19.940	6.149	0.476
364.500	249.853	80.006	19.994	103.876	19.942	5.984	0.466
365.000	250.110	80.006	19.994	103.870	19.941	6.075	0.514
365.500	250.378	80.006	19.993	103.864	19.941	6.045	0.531
366.000	250.584	80.005	19.994	103.860	19.937	6.405	0.500
366.500	250.847	80.005	19.994	103.863	19.939	6.230	0.472
367.000	251.078	80.006	19.993	103.870	19.938	6.313	0.482
367.500	251.324	80.006	19.994	103.871	19.935	6.506	0.486
368.000	251.571	80.007	19.993	103.868	19.938	6.303	0.485
368.500	251.849	80.005	19.994	103.864	19.935	6.545	0.509
369.000	252.046	80.004	19.994	103.858	19.937	6.371	0.500
369.500	252.339	80.005	19.993	103.852	19.934	6.626	0.483
370.000	252.618	80.005	19.993	103.850	19.935	6.549	0.531
370.500	252.809	80.006	19.993	103.853	19.932	6.714	0.521
371.000	253.079	80.005	19.993	103.854	19.933	6.686	0.466
371.500	253.343	80.005	19.993	103.851	19.929	6.984	0.498
372.000	253.559	80.005	19.993	103.848	19.931	6.835	0.507
372.500	253.798	80.003	19.993	103.843	19.931	6.858	0.468
373.000	254.033	80.004	19.993	103.840	19.927	7.128	0.465
373.500	254.262	80.004	19.991	103.840	19.928	7.046	0.469
374.000	254.527	80.005	19.993	103.840	19.929	6.999	0.479
374.500	254.725	80.004	19.993	103.840	19.924	7.353	0.478
375.000	255.037	80.005	19.993	103.840	19.924	7.355	0.486
375.500	255.320	80.005	19.993	103.840	19.921	7.612	0.552
376.000	255.573	80.004	19.992	103.840	19.922	7.496	0.565
376.500	255.812	80.006	19.993	103.840	19.925	7.277	0.514
377.000	256.031	80.005	19.993	103.844	19.920	7.636	0.475
377.500	256.310	80.005	19.993	103.850	19.921	7.582	0.478
378.000	256.543	80.006	19.992	103.858	19.924	7.354	0.505
378.500	256.778	80.005	19.993	103.866	19.922	7.516	0.490
379.000	257.057	80.006	19.992	103.874	19.921	7.594	0.491
379.500	257.319	80.005	19.993	103.878	19.923	7.455	0.528
380.000	257.547	80.007	19.992	103.880	19.917	7.891	0.516
380.500	257.800	80.005	19.993	103.879	19.917	7.900	0.485
381.000	258.022	80.006	19.992	103.878	19.921	7.618	0.478
381.500	258.283	80.008	19.993	103.871	19.918	7.823	0.479
382.000	258.576	80.006	19.993	103.863	19.913	8.181	0.519
382.500	258.805	80.007	19.994	103.855	19.914	8.124	0.538
383.000	259.066	80.006	19.993	103.848	19.911	8.377	0.506
383.501	259.304	80.007	19.994	103.842	19.910	8.422	0.495
384.000	259.515	80.007	19.994	103.833	19.908	8.607	0.474
384.500	259.779	80.007	19.993	103.830	19.907	8.644	0.462
385.000	260.018	80.009	19.991	103.830	19.905	8.822	0.489
385.500	260.261	80.006	19.992	103.830	19.907	8.693	0.492
386.000	260.523	80.007	19.993	103.834	19.904	8.860	0.493
386.500	260.738	80.007	19.993	103.847	19.905	8.828	0.491
387.000	261.015	80.006	19.993	103.858	19.905	8.821	0.485
387.500	261.271	80.007	19.993	103.871	19.899	9.314	0.513
388.000	261.512	80.007	19.992	103.886	19.900	9.220	0.515
388.500	261.740	80.006	19.992	103.898	19.897	9.433	0.483
389.000	261.966	80.006	19.993	103.913	19.897	9.444	0.461
389.500	262.221	80.004	19.993	103.920	19.899	9.249	0.468
390.000	262.487	80.006	19.994	103.916	19.893	9.707	0.501
390.500	262.715	80.005	19.994	103.906	19.895	9.567	0.508
391.000	262.987	80.005	19.992	103.896	19.891	9.906	0.497
391.500	263.230	80.005	19.993	103.879	19.890	9.972	0.507
392.000	263.484	80.005	19.994	103.869	19.890	10.000	0.506
392.500	263.720	80.005	19.993	103.867	19.887	10.174	0.494
393.000	264.026	80.006	19.993	103.869	19.890	9.977	0.516
393.500	264.217	80.005	19.993	103.873	19.887	10.230	0.519
394.000	264.502	80.005	19.993	103.879	19.885	10.342	0.486
394.500	264.723	80.005	19.994	103.890	19.882	10.555	0.491
395.000	264.981	80.005	19.994	103.898	19.882	10.555	0.492
395.500	265.245	80.007	19.995	103.905	19.884	10.442	0.500
396.000	265.473	80.005	19.995	103.913	19.880	10.761	0.507
396.500	265.703	80.004	19.992	103.916	19.883	10.520	0.475
397.000	265.959	80.003	19.994	103.915	19.878	10.906	0.472
397.500	266.185	80.003	19.995	103.910	19.876	10.995	0.484
398.000	266.421	80.005	19.995	103.904	19.878	10.875	0.472
398.501	266.658	80.005	19.993	103.895	19.876	11.001	0.468
399.000	266.928	80.006	19.992	103.887	19.877	10.967	0.490
399.500	267.168	80.003	19.994	103.881	19.872	11.321	0.509
400.000	267.461	80.005	19.993	103.879	19.870	11.503	0.522
400.500	267.713	80.006	19.993	103.877	19.869	11.574	0.539
401.000	267.983	80.005	19.993	103.881	19.868	11.638	0.533
401.500	268.158	80.005	19.993	103.884	19.867	11.723	0.483
402.000	268.400	80.006	19.994	103.886	19.868	11.655	0.431
402.500	268.637	80.006	19.994	103.887	19.865	11.875	0.448
403.000	268.931	80.006	19.991	103.894	19.861	12.171	0.505
403.500	269.164	80.004	19.994	103.898	19.866	11.814	0.529
404.000	269.417	80.006	19.994	103.901	19.864	11.976	0.506
404.500	269.650	80.007	19.993	103.909	19.862	12.142	0.486
405.000	269.927	80.006	19.993	103.924	19.861	12.200	0.498
405.500	270.174	80.008	19.992	103.932	19.858	12.446	0.517
406.000	270.406	80.004	19.993	103.933	19.855	12.641	0.502
406.500	270.659	80.006	19.992	103.933	19.854	12.713	0.482
407.000	270.921	80.006	19.993	103.924	19.850	13.063	0.500
407.500	271.162	80.007	19.993	103.908	19.850	13.052	0.508
408.000	271.413	80.006	19.993	103.889	19.847	13.245	0.498
408.500	271.683	80.006	19.992	103.872	19.846	13.364	0.507
409.000	271.921	80.003	19.993	103.858	19.840	13.798	0.514
409.500	272.217	80.005	19.993	103.849	19.840	13.781	0.521
410.000	272.421	80.006	19.993	103.846	19.841	13.732	0.517
410.500	272.673	80.004	19.992	103.851	19.837	14.017	0.478
411.000	272.907	80.006	19.994	103.866	19.835	14.160	0.471
411.500	273.183	80.006	19.993	103.879	19.833	14.316	0.498
412.000	273.397	80.005	19.993	103.886	19.830	14.557	0.500
412.500	273.659	80.005	19.993	103.889	19.829	14.620	0.483
413.000	273.958	80.006	19.994	103.887	19.827	14.799	0.518
413.500	274.177	80.005	19.993	103.879	19.824	14.999	0.539
414.000	274.430	80.005	19.994	103.878	19.825	14.956	0.495
414.500	274.689	80.006	19.993	103.886	19.823	15.101	0.492
415.000	274.925	80.007	19.993	103.894	19.823	15.121	0.503
415.500	275.162	80.005	19.993	103.898	19.819	15.366	0.484
416.000	275.413	80.005	19.993	103.905	19.822	15.134	0.480
416.500	275.681	80.006	19.992	103.912	19.816	15.597	0.503
417.000	275.904	80.005	19.994	103.911	19.815	15.662	0.505
417.500	276.168	80.006	19.992	103.911	19.817	15.516	0.489
418.000	276.448	80.004	19.994	103.915	19.813	15.829	0.515
418.500	276.714	80.007	19.993	103.916	19.811	15.999	0.545
419.000	276.960	80.005	19.993	103.914	19.810	16.071	0.529
419.500	277.198	80.006	19.993	103.914	19.804	16.519	0.498
420.000	277.418	80.004	19.993	103.917	19.806	16.386	0.471
420.500	277.665	80.003	19.993	103.918	19.801	16.804	0.463
421.000	277.902	80.004	19.995	103.912	19.803	16.634	0.476
421.500	278.138	80.004	19.995	103.904	19.800	16.855	0.479
422.000	278.400	80.005	19.995	103.897	19.796	17.122	0.485
422.500	278.658	80.004	19.994	103.892	19.795	17.259	0.509
423.000	278.886	80.004	19.994	103.893	19.792	17.488	0.503
423.500	279.137	80.004	19.994	103.900	19.792	17.446	0.482
424.000	279.392	80.004	19.993	103.908	19.789	17.709	0.492
424.500	279.657	80.004	19.993	103.914	19.787	17.847	0.513
425.000	279.886	80.003	19.993	103.909	19.781	18.285	0.507
425.500	280.144	80.004	19.993	103.902	19.781	18.272	0.491
426.000	280.415	80.006	19.993	103.896	19.779	18.460	0.508
426.500	280.660	80.004	19.995	103.888	19.778	18.499	0.523
427.000	280.900	80.005	19.994	103.882	19.777	18.605	0.500
427.500	281.149	80.004	19.994	103.879	19.771	19.074	0.486
428.000	281.395	80.004	19.994	103.875	19.768	19.277	0.492
428.500	281.641	80.004	19.993	103.873	19.768	19.273	0.494
429.000	281.862	80.004	19.993	103.874	19.763	19.710	0.479
429.500	282.132	80.004	19.994	103.874	19.762	19.750	0.479
430.000	282.422	80.004	19.994	103.877	19.759	19.994	0.526
430.500	282.655	80.004	19.994	103.882	19.759	19.995	0.542
431.000	282.890	80.005	19.994	103.886	19.760	19.935	0.495
431.500	283.143	80.005	19.993	103.892	19.755	20.269	0.478
432.000	283.356	80.005	19.994	103.899	19.754	20.384	0.477
432.500	283.595	80.005	19.994	103.907	19.754	20.387	0.459
433.000	283.880	80.006	19.993	103.920	19.756	20.215	0.488
433.500	284.121	80.005	19.994	103.937	19.751	20.566	0.525
434.000	284.394	80.007	19.993	103.953	19.748	20.841	0.520
434.500	284.612	80.005	19.993	103.958	19.746	21.006	0.503
435.000	284.859	80.005	19.993	103.956	19.747	20.891	0.478
435.500	285.093	80.005	19.993	103.947	19.744	21.129	0.473
436.000	285.351	80.007	19.992	103.934	19.738	21.591	0.487
436.500	285.587	80.006	19.992	103.919	19.737	21.652	0.493
437.000	285.796	80.005	19.994	103.916	19.733	21.998	0.469
437.500	286.119	80.005	19.993	103.920	19.735	21.835	0.489
438.000	286.355	80.008	19.992	103.933	19.737	21.662	0.546
438.500	286.591	80.007	19.993	103.950	19.732	22.021	0.515
439.000	286.832	80.007	19.993	103.967	19.733	21.987	0.474
439.500	287.110	80.007	19.993	103.982	19.732	22.062	0.498
440.000	287.335	80.007	19.993	103.995	19.732	22.049	0.511
440.500	287.579	80.005	19.994	103.995	19.726	22.486	0.486
441.000	287.825	80.007	19.993	103.986	19.726	22.514	0.479
441.500	288.106	80.006	19.993	103.975	19.725	22.610	0.509
442.000	288.339	80.007	19.994	103.965	19.722	22.792	0.521
442.500	288.576	80.006	19.993	103.957	19.718	23.131	0.492
443.000	288.815	80.007	19.993	103.950	19.717	23.202	0.473
443.500	289.061	80.006	19.993	103.942	19.715	23.341	0.481
444.000	289.288	80.004	19.993	103.931	19.712	23.553	0.479
444.501	289.539	80.005	19.993	103.918	19.710	23.715	0.475
445.000	289.785	80.006	19.993	103.906	19.711	23.676	0.487
445.500	290.087	80.005	19.994	103.902	19.707	23.946	0.522
446.000	290.280	80.005	19.994	103.900	19.701	24.386	0.522
446.500	290.573	80.005	19.993	103.905	19.702	24.321	0.491
447.000	290.813	80.006	19.993	103.906	19.700	24.506	0.510
447.500	291.036	80.007	19.993	103.904	19.700	24.505	0.498
448.000	291.291	80.004	19.994	103.897	19.696	24.786	0.471
448.500	291.549	80.004	19.994	103.890	19.698	24.667	0.495
449.000	291.832	80.004	19.994	103.882	19.696	24.772	0.527
449.500	292.043	80.004	19.994	103.885	19.695	24.863	0.517
450.000	292.272	80.004	19.994	103.897	19.694	24.969	0.467
450.500	292.503	80.006	19.993	103.919	19.693	25.033	0.450
451.000	292.786	80.004	19.994	103.936	19.693	25.017	0.487
451.500	293.027	80.004	19.995	103.952	19.688	25.449	0.519
452.000	293.291	80.006	19.994	103.953	19.689	25.313	0.515
452.500	293.509	80.004	19.994	103.947	19.689	25.355	0.494
453.000	293.790	80.005	19.995	103.933	19.688	25.414	0.491
453.500	294.043	80.005	19.994	103.918	19.686	25.588	0.516
454.000	294.353	80.004	19.995	103.904	19.686	25.569	0.548
454.500	294.559	80.005	19.994	103.897	19.687	25.469	0.540
455.000	294.754	80.004	19.994	103.889	19.684	25.729	0.459
455.500	295.050	80.005	19.995	103.884	19.681	25.954	0.446
456.000	295.287	80.006	19.993	103.891	19.683	25.793	0.512
456.500	295.517	80.005	19.993	103.905	19.678	26.220	0.500
457.000	295.788	80.004	19.994	103.921	19.679	26.086	0.484
457.500	296.023	80.006	19.995	103.941	19.679	26.142	0.504
458.000	296.308	80.005	19.994	103.952	19.676	26.370	0.513
458.500	296.529	80.007	19.994	103.957	19.678	26.193	0.513
459.000	296.793	80.007	19.994	103.957	19.673	26.562	0.496
459.500	296.994	80.005	19.994	103.954	19.674	26.516	0.475
460.000	297.286	80.007	19.994	103.949	19.673	26.611	0.479
460.500	297.525	80.007	19.993	103.947	19.673	26.552	0.512
461.000	297.771	80.007	19.994	103.940	19.672	26.609	0.508
461.500	298.015	80.007	19.994	103.932	19.673	26.563	0.488
462.000	298.252	80.008	19.993	103.929	19.672	26.632	0.486
462.500	298.551	80.007	19.994	103.935	19.671	26.723	0.509
463.000	298.785	80.008	19.993	103.952	19.668	26.934	0.534
463.500	299.044	80.008	19.993	103.976	19.668	26.968	0.512
464.000	299.314	80.007	19.993	103.994	19.669	26.869	0.511
464.500	299.532	80.009	19.992	104.001	19.664	27.271	0.509
465.000	299.790	80.008	19.992	103.995	19.667	27.057	0.482
465.500	300.050	80.008	19.993	103.977	19.663	27.315	0.496
466.000	300.257	80.007	19.992	103.964	19.664	27.285	0.493
466.500	300.549	80.008	19.992	103.956	19.661	27.500	0.483
467.000	300.829	80.006	19.993	103.956	19.663	27.328	0.535
467.500	301.075	80.007	19.992	103.954	19.660	27.548	0.549
468.000	301.350	80.007	19.994	103.961	19.661	27.514	0.524
468.500	301.594	80.006	19.993	103.972	19.661	27.519	0.520
469.000	301.855	80.007	19.993	103.985	19.658	27.740	0.512
469.500	302.060	80.007	19.993	103.999	19.658	27.717	0.486
470.000	302.321	80.006	19.992	104.005	19.658	27.711	0.466
470.500	302.549	80.006	19.993	104.000	19.660	27.581	0.478
471.000	302.831	80.005	19.993	103.981	19.657	27.807	0.499
471.500	303.090	80.006	19.992	103.958	19.659	27.630	0.525
472.000	303.333	80.005	19.994	103.940	19.657	27.813	0.522
472.500	303.537	80.005	19.993	103.934	19.655	27.907	0.474
473.000	303.787	80.005	19.993	103.932	19.656	27.841	0.450
473.500	304.073	80.005	19.993	103.938	19.655	27.920	0.495
474.000	304.337	80.006	19.993	103.946	19.655	27.958	0.543
474.500	304.571	80.005	19.993	103.952	19.653	28.070	0.524
475.000	304.826	80.006	19.993	103.953	19.655	27.949	0.494
475.500	305.080	80.005	19.994	103.954	19.653	28.071	0.499
476.000	305.302	80.005	19.993	103.952	19.654	28.057	0.493
476.500	305.563	80.006	19.994	103.949	19.652	28.195	0.480
477.000	305.800	80.006	19.993	103.948	19.652	28.197	0.491
477.500	306.048	80.007	19.993	103.947	19.651	28.257	0.492
478.000	306.332	80.005	19.993	103.951	19.649	28.399	0.508
478.500	306.585	80.005	19.993	103.951	19.647	28.535	0.535
479.000	306.809	80.005	19.993	103.950	19.649	28.382	0.507
479.500	307.084	80.004	19.993	103.947	19.649	28.417	0.487
480.000	307.289	80.006	19.993	103.941	19.648	28.493	0.490
480.500	307.543	80.005	19.993	103.933	19.646	28.631	0.470
481.000	307.786	80.005	19.993	103.927	19.645	28.705	0.478
481.500	308.042	80.005	19.993	103.924	19.647	28.564	0.498
482.000	308.292	80.006	19.993	103.922	19.645	28.740	0.503
482.500	308.552	80.005	19.994	103.923	19.645	28.686	0.508
483.001	308.788	80.005	19.994	103.928	19.642	28.953	0.503
483.501	309.051	80.004	19.993	103.936	19.641	29.007	0.497
484.000	309.312	80.005	19.993	103.943	19.639	29.134	0.511
484.500	309.587	80.004	19.993	103.948	19.640	29.062	0.530
485.000	309.822	80.004	19.993	103.953	19.639	29.143	0.523
485.500	310.089	80.006	19.992	103.954	19.638	29.260	0.506
486.000	310.275	80.005	19.993	103.951	19.637	29.347	0.478
486.501	310.559	80.004	19.993	103.948	19.637	29.310	0.461
487.000	310.827	80.003	19.994	103.945	19.634	29.579	0.511
487.500	311.071	80.005	19.994	103.945	19.635	29.499	0.532
488.000	311.341	80.004	19.994	103.946	19.635	29.465	0.513
488.500	311.599	80.004	19.993	103.949	19.635	29.462	0.521
489.000	311.869	80.005	19.993	103.947	19.633	29.658	0.528
489.500	312.140	80.005	19.993	103.948	19.633	29.621	0.534
490.000	312.418	80.005	19.993	103.947	19.630	29.830	0.545
490.500	312.676	80.005	19.993	103.944	19.629	29.958	0.543
491.000	312.946	80.005	19.993	103.942	19.629	29.903	0.533
491.500	313.174	80.005	19.993	103.942	19.625	30.270	0.513
492.001	313.374	80.005	19.992	103.937	19.625	30.251	0.463
492.500	313.664	80.005	19.993	103.931	19.624	30.340	0.459
493.000	313.889	80.007	19.993	103.931	19.624	30.331	0.502
493.500	314.171	80.005	19.992	103.929	19.622	30.448	0.511
494.000	314.452	80.006	19.993	103.929	19.622	30.486	0.535
494.500	314.678	80.005	19.992	103.930	19.622	30.470	0.536
495.000	314.906	80.005	19.993	103.933	19.622	30.445	0.480
495.500	315.176	80.005	19.992	103.933	19.621	30.557	0.476
496.000	315.437	80.005	19.992	103.932	19.621	30.542	0.514
496.500	315.681	80.005	19.992	103.936	19.620	30.605	0.518
497.000	315.887	80.005	19.992	103.942	19.619	30.656	0.478
497.500	316.146	80.005	19.993	103.941	19.618	30.776	0.458
498.000	316.395	80.005	19.992	103.941	19.619	30.723	0.486
498.500	316.636	80.004	19.994	103.943	19.617	30.853	0.499
499.000	316.914	80.005	19.992	103.939	19.616	30.891	0.505
499.500	317.126	80.005	19.993	103.937	19.617	30.882	0.505
500.000	317.373	80.005	19.993	103.941	19.614	31.046	0.474
500.500	317.636	80.006	19.992	103.946	19.611	31.341	0.484
501.000	317.904	80.004	19.992	103.950	19.609	31.442	0.520
501.500	318.170	80.005	19.993	103.952	19.611	31.339	0.532
502.000	318.393	80.004	19.993	103.954	19.609	31.432	0.511
502.500	318.674	80.006	19.992	103.948	19.608	31.518	0.497
503.000	318.935	80.003	19.993	103.941	19.608	31.523	0.523
503.500	319.145	80.005	19.992	103.935	19.605	31.775	0.506
504.000	319.391	80.005	19.993	103.931	19.604	31.886	0.464
504.500	319.658	80.004	19.993	103.925	19.603	31.943	0.485
505.000	319.899	80.006	19.993	103.926	19.602	31.978	0.511
505.500	320.165	80.004	19.992	103.930	19.599	32.203	0.507
506.000	320.368	80.004	19.993	103.931	19.597	32.370	0.488
506.500	320.617	80.004	19.993	103.928	19.594	32.619	0.461
507.000	320.845	80.004	19.992	103.928	19.596	32.496	0.465
507.500	321.126	80.003	19.993	103.926	19.591	32.820	0.492
508.000	321.354	80.004	19.993	103.920	19.589	33.006	0.509
508.500	321.637	80.004	19.993	103.918	19.587	33.159	0.510
509.000	321.867	80.004	19.993	103.919	19.588	33.101	0.512
509.500	322.115	80.004	19.993	103.926	19.583	33.495	0.496
510.000	322.408	80.004	19.993	103.933	19.584	33.388	0.510
510.500	322.615	80.003	19.993	103.941	19.584	33.401	0.521
511.000	322.882	80.005	19.993	103.949	19.584	33.401	0.487
511.500	323.137	80.004	19.992	103.957	19.582	33.518	0.498
512.000	323.354	80.005	19.994	103.957	19.582	33.575	0.497
512.500	323.645	80.005	19.993	103.958	19.577	33.895	0.490
513.000	323.848	80.004	19.992	103.958	19.575	34.035	0.501
513.500	324.150	80.004	19.992	103.961	19.576	33.972	0.500
514.000	324.387	80.004	19.993	103.963	19.572	34.267	0.522
514.500	324.609	80.005	19.993	103.971	19.571	34.347	0.499
515.000	324.897	80.004	19.993	103.973	19.568	34.599	0.485
515.500	325.128	80.005	19.994	103.973	19.566	34.767	0.514
516.000	325.387	80.005	19.993	103.969	19.564	34.942	0.504
516.500	325.592	80.004	19.993	103.963	19.562	35.054	0.477
517.000	325.862	80.005	19.994	103.955	19.559	35.339	0.470
517.500	326.108	80.005	19.995	103.952	19.557	35.473	0.495
518.000	326.379	80.007	19.995	103.952	19.552	35.871	0.517
518.500	326.651	80.006	19.994	103.952	19.552	35.866	0.530
519.000	326.880	80.006	19.995	103.955	19.553	35.770	0.522
519.500	327.125	80.007	19.994	103.959	19.548	36.176	0.487
520.000	327.371	80.006	19.994	103.970	19.545	36.363	0.483
520.500	327.593	80.007	19.993	103.986	19.543	36.545	0.480
521.000	327.874	80.006	19.993	104.003	19.543	36.542	0.485
521.500	328.127	80.006	19.994	104.018	19.541	36.633	0.518
522.000	328.371	80.007	19.993	104.025	19.538	36.873	0.515
522.500	328.603	80.006	19.994	104.033	19.534	37.211	0.487
523.000	328.827	80.006	19.993	104.011	19.533	37.271	0.466
523.500	329.085	80.007	19.993	103.979	19.530	37.528	0.469
524.000	329.330	80.007	19.994	103.953	19.528	37.672	0.493
524.500	329.617	80.006	19.993	103.935	19.524	37.961	0.518
525.000	329.843	80.006	19.994	103.913	19.522	38.136	0.522
525.500	330.121	80.007	19.993	103.918	19.520	38.279	0.508
526.000	330.353	80.006	19.993	103.934	19.516	38.554	0.508
526.500	330.601	80.006	19.994	103.956	19.514	38.716	0.495
527.000	330.841	80.007	19.995	104.003	19.512	38.863	0.483
527.500	331.088	80.007	19.994	104.028	19.510	39.081	0.487
528.000	331.342	80.006	19.993	104.036	19.503	39.617	0.494
528.500	331.606	80.006	19.993	104.039	19.499	39.876	0.510
529.000	331.885	80.007	19.994	104.030	19.495	40.202	0.531
529.500	332.148	80.007	19.994	103.997	19.491	40.528	0.542
530.000	332.367	80.006	19.993	103.982	19.492	40.430	0.512
530.500	332.643	80.006	19.993	103.975	19.488	40.739	0.489
531.000	332.869	80.005	19.993	103.971	19.484	41.085	0.498
531.500	333.114	80.005	19.994	103.970	19.480	41.343	0.486
532.000	333.385	80.006	19.993	103.965	19.477	41.586	0.494
532.500	333.616	80.005	19.993	103.965	19.474	41.848	0.509
533.000	333.909	80.006	19.994	103.973	19.472	41.980	0.513
533.500	334.156	80.006	19.992	103.982	19.466	42.426	0.532
534.000	334.392	80.007	19.993	103.990	19.464	42.645	0.511
534.500	334.672	80.004	19.994	103.997	19.461	42.800	0.499
535.000	334.947	80.005	19.994	103.998	19.454	43.356	0.536
535.500	335.231	80.004	19.994	103.994	19.453	43.445	0.557
536.000	335.459	80.006	19.994	103.986	19.450	43.643	0.535
536.500	335.720	80.005	19.993	103.976	19.443	44.205	0.500
537.000	335.936	80.007	19.994	103.968	19.437	44.633	0.483
537.500	336.210	80.005	19.993	103.966	19.435	44.793	0.484
538.000	336.466	80.006	19.993	103.969	19.433	44.997	0.510
538.500	336.706	80.006	19.994	103.979	19.428	45.310	0.513
539.000	336.987	80.007	19.993	103.995	19.428	45.355	0.508
539.500	337.222	80.005	19.994	104.011	19.424	45.679	0.519
540.000	337.463	80.006	19.993	104.027	19.418	46.127	0.497
540.500	337.754	80.006	19.993	104.042	19.416	46.304	0.504
541.000	338.002	80.005	19.994	104.052	19.410	46.756	0.535
541.500	338.275	80.007	19.993	104.061	19.406	47.014	0.530
542.000	338.501	80.006	19.994	104.067	19.400	47.498	0.510
542.500	338.743	80.006	19.994	104.066	19.395	47.902	0.484
543.000	339.000	80.006	19.993	104.067	19.393	48.058	0.483
543.500	339.294	80.006	19.994	104.071	19.389	48.366	0.525
544.000	339.529	80.007	19.994	104.076	19.385	48.623	0.540
544.500	339.815	80.008	19.994	104.079	19.383	48.835	0.525
545.000	340.055	80.006	19.994	104.078	19.371	49.739	0.523
545.500	340.329	80.006	19.993	104.074	19.367	50.028	0.520
546.000	340.558	80.007	19.994	104.065	19.362	50.452	0.509
546.500	340.854	80.006	19.994	104.049	19.359	50.677	0.514
547.000	341.096	80.007	19.994	104.040	19.350	51.368	0.531
547.500	341.341	80.006	19.994	104.035	19.346	51.647	0.512
548.000	341.628	80.007	19.993	104.030	19.342	51.989	0.510
548.500	341.863	80.006	19.994	104.031	19.334	52.607	0.527
549.000	342.132	80.006	19.994	104.032	19.332	52.753	0.513
549.501	342.391	80.006	19.994	104.032	19.326	53.214	0.516
550.001	342.619	80.006	19.994	104.033	19.320	53.644	0.507
550.500	342.872	80.005	19.995	104.042	19.314	54.108	0.484
551.000	343.148	80.006	19.994	104.052	19.308	54.569	0.505
551.500	343.399	80.006	19.994	104.062	19.305	54.826	0.528
552.000	343.624	80.007	19.993	104.073	19.296	55.469	0.501
552.500	343.906	80.005	19.993	104.081	19.292	55.833	0.491
553.000	344.152	80.004	19.994	104.081	19.284	56.394	0.518
553.500	344.405	80.006	19.992	104.079	19.275	57.140	0.514
554.000	344.679	80.004	19.993	104.076	19.277	56.977	0.513
554.500	344.890	80.004	19.992	104.073	19.265	57.911	0.506
555.000	345.186	80.005	19.994	104.073	19.261	58.208	0.496
555.500	345.443	80.005	19.993	104.073	19.255	58.646	0.530
556.000	345.678	80.004	19.993	104.073	19.251	58.947	0.522
556.500	345.901	80.003	19.994	104.075	19.246	59.301	0.475
557.000	346.194	80.005	19.992	104.075	19.235	60.190	0.487
557.500	346.438	80.006	19.993	104.079	19.230	60.585	0.527
558.000	346.694	80.004	19.992	104.086	19.222	61.177	0.518
558.500	346.960	80.004	19.992	104.094	19.220	61.369	0.511
559.000	347.198	80.004	19.993	104.101	19.210	62.133	0.513
559.500	347.435	80.005	19.992	104.115	19.205	62.502	0.489
560.000	347.680	80.004	19.994	104.127	19.199	62.978	0.478
560.500	347.927	80.005	19.993	104.131	19.190	63.669	0.487
561.000	348.194	80.004	19.993	104.131	19.183	64.168	0.504
561.500	348.411	80.005	19.994	104.129	19.176	64.748	0.499
562.000	348.647	80.005	19.993	104.121	19.169	65.273	0.469
562.500	348.932	80.003	19.993	104.113	19.161	65.865	0.487
563.000	349.200	80.004	19.993	104.110	19.154	66.423	0.537
563.500	349.458	80.003	19.994	104.112	19.151	66.647	0.539
564.000	349.740	80.005	19.993	104.117	19.143	67.242	0.533
564.500	349.981	80.005	19.992	104.127	19.135	67.861	0.532
565.000	350.230	80.005	19.993	104.135	19.124	68.732	0.506
565.500	350.507	80.005	19.992	104.140	19.119	69.085	0.508
566.000	350.719	80.004	19.993	104.139	19.109	69.849	0.508
566.500	350.980	80.005	19.992	104.136	19.101	70.501	0.481
567.000	351.200	80.004	19.993	104.135	19.092	71.183	0.477
567.500	351.459	80.006	19.992	104.135	19.087	71.601	0.481
568.000	351.734	80.005	19.993	104.138	19.077	72.316	0.507
568.500	351.964	80.005	19.993	104.146	19.073	72.643	0.519
569.000	352.228	80.004	19.992	104.152	19.065	73.295	0.500
569.500	352.510	80.005	19.992	104.153	19.055	74.034	0.520
570.000	352.786	80.004	19.993	104.153	19.047	74.652	0.551
570.500	352.986	80.006	19.993	104.149	19.040	75.176	0.517
571.000	353.290	80.006	19.992	104.149	19.032	75.768	0.490
571.500	353.521	80.005	19.993	104.151	19.024	76.381	0.520
572.000	353.775	80.004	19.993	104.152	19.018	76.878	0.510
572.500	354.051	80.005	19.993	104.152	19.007	77.699	0.507
573.000	354.289	80.004	19.993	104.156	19.000	78.234	0.522
573.500	354.542	80.005	19.993	104.157	18.995	78.654	0.502
574.000	354.772	80.004	19.995	104.159	18.987	79.237	0.487
574.500	354.997	80.003	19.993	104.164	18.975	80.192	0.469
575.000	355.267	80.004	19.993	104.168	18.968	80.667	0.475
575.500	355.552	80.003	19.994	104.170	18.961	81.212	0.525
576.000	355.784	80.006	19.993	104.176	18.954	81.773	0.536
576.500	355.987	80.004	19.992	104.181	18.945	82.492	0.477
577.000	356.289	80.005	19.993	104.183	18.938	83.027	0.470
577.500	356.506	80.005	19.994	104.193	18.930	83.646	0.511
578.000	356.777	80.006	19.994	104.205	18.922	84.264	0.503
578.500	357.047	80.005	19.993	104.214	18.916	84.704	0.515
579.000	357.286	80.005	19.993	104.219	18.905	85.571	0.525
579.500	357.484	80.005	19.994	104.224	18.897	86.136	0.473
580.000	357.795	80.005	19.992	104.224	18.893	86.443	0.473
580.500	358.041	80.005	19.993	104.224	18.882	87.248	0.533
581.000	358.268	80.005	19.993	104.223	18.873	87.950	0.515
581.500	358.498	80.005	19.993	104.225	18.863	88.715	0.465
582.000	358.737	80.005	19.993	104.224	18.857	89.219	0.463
582.500	358.989	80.004	19.993	104.226	18.850	89.784	0.480
583.000	359.265	80.005	19.991	104.226	18.843	90.300	0.509
583.500	359.502	80.003	19.994	104.227	18.836	90.865	0.521
584.000	359.725	80.004	19.994	104.227	18.829	91.409	0.486
584.500	359.998	80.005	19.993	104.222	18.817	92.345	0.478
585.000	360.241	80.005	19.993	104.215	18.810	92.873	0.507
585.500	360.501	80.005	19.994	104.214	18.801	93.584	0.510
586.000	360.735	80.006	19.992	104.214	18.793	94.166	0.498
586.500	360.990	80.003	19.993	104.209	18.788	94.562	0.492
587.000	361.218	80.004	19.993	104.212	18.775	95.544	0.486
587.500	361.478	80.004	19.994	104.219	18.769	96.006	0.485
588.001	361.673	80.005	19.992	104.219	18.765	96.330	0.471
588.500	361.941	80.004	19.993	104.219	18.754	97.189	0.459
589.000	362.187	80.005	19.993	104.225	18.747	97.744	0.489
589.500	362.433	80.005	19.993	104.220	18.741	98.174	0.503
590.000	362.671	80.005	19.993	104.217	18.735	98.688	0.487
590.500	362.935	80.004	19.994	104.217	18.724	99.533	0.493
591.000	363.183	80.005	19.993	104.211	18.722	99.669	0.507
591.500	363.375	80.004	19.993	104.203	18.715	100.196	0.475
592.000	363.620	80.004	19.993	104.202	18.711	100.530	0.438
592.500	363.917	80.004	19.992	104.200	18.700	101.349	0.490
593.000	364.144	80.005	19.992	104.203	18.698	101.494	0.534
593.500	364.415	80.004	19.991	104.216	18.690	102.093	0.511
594.000	364.650	80.004	19.992	104.230	18.688	102.195	0.501
594.500	364.931	80.006	19.993	104.244	18.682	102.709	0.511
595.000	365.122	80.005	19.993	104.262	18.673	103.409	0.495
595.500	365.391	80.005	19.992	104.274	18.672	103.414	0.466
596.000	365.598	80.004	19.993	104.276	18.668	103.723	0.468
596.500	365.891	80.005	19.993	104.274	18.666	103.876	0.488
597.000	366.117	80.005	19.994	104.271	18.663	104.123	0.509
597.500	366.402	80.007	19.994	104.258	18.658	104.458	0.515
598.000	366.638	80.006	19.993	104.247	18.653	104.866	0.516
598.500	366.878	80.007	19.992	104.245	18.653	104.816	0.499
599.000	367.137	80.005	19.993	104.251	18.651	104.993	0.487
599.500	367.385	80.006	19.993	104.267	18.649	105.136	0.503
600.000	367.623	80.005	19.992	104.290	18.644	105.488	0.497
600.500	367.869	80.007	19.993	104.312	18.643	105.614	0.485
601.000	368.123	80.006	19.993	104.329	18.641	105.768	0.492
601.500	368.349	80.007	19.993	104.341	18.640	105.839	0.490
602.000	368.609	80.007	19.992	104.344	18.640	105.830	0.483
602.500	368.866	80.008	19.993	104.336	18.640	105.836	0.502
603.000	369.138	80.007	19.994	104.323	18.639	105.879	0.523
603.500	369.387	80.006	19.993	104.311	18.637	106.040	0.525
604.000	369.629	80.008	19.994	104.297	18.643	105.597	0.506
604.500	369.912	80.007	19.993	104.281	18.640	105.760	0.508
605.000	370.123	80.006	19.993	104.275	18.640	105.766	0.509
605.500	370.341	80.007	19.993	104.272	18.644	105.482	0.462
606.000	370.599	80.005	19.994	104.267	18.643	105.532	0.452
606.500	370.843	80.006	19.992	104.259	18.648	105.159	0.489
607.000	371.075	80.006	19.994	104.250	18.645	105.374	0.489
607.500	371.347	80.007	19.994	104.236	18.649	105.074	0.490
608.000	371.588	80.006	19.993	104.221	18.652	104.825	0.509
608.500	371.896	80.004	19.993	104.206	18.656	104.507	0.531
609.001	372.098	80.006	19.993	104.198	18.656	104.459	0.530
609.500	372.336	80.005	19.994	104.190	18.660	104.175	0.475
610.000	372.598	80.006	19.994	104.189	18.669	103.520	0.470
610.500	372.896	80.006	19.993	104.188	18.671	103.320	0.530
611.000	373.185	80.006	19.994	104.187	18.678	102.831	0.573
611.500	373.425	80.006	19.993	104.186	18.684	102.350	0.558
612.000	373.662	80.006	19.993	104.186	18.692	101.728	0.503
612.500	373.954	80.007	19.993	104.182	18.696	101.398	0.503
613.000	374.189	80.004	19.993	104.174	18.703	100.840	0.528
613.500	374.405	80.005	19.993	104.170	18.713	100.057	0.489
614.000	374.691	80.005	19.993	104.162	18.719	99.581	0.477
614.500	374.914	80.005	19.994	104.154	18.729	98.772	0.505
615.000	375.138	80.005	19.993	104.152	18.739	98.035	0.478
615.501	375.439	80.005	19.993	104.149	18.750	97.135	0.486
616.000	375.697	80.006	19.992	104.139	18.759	96.469	0.542
616.500	375.912	80.005	19.995	104.137	18.765	96.030	0.516
617.000	376.212	80.006	19.993	104.136	18.778	94.989	0.494
617.500	376.459	80.007	19.993	104.128	18.792	93.980	0.531
618.000	376.753	80.005	19.993	104.118	18.801	93.311	0.544
618.500	376.992	80.006	19.993	104.107	18.817	92.054	0.537
619.000	377.221	80.006	19.992	104.089	18.827	91.315	0.501
619.500	377.467	80.007	19.993	104.075	18.841	90.215	0.472
620.000	377.765	80.006	19.993	104.068	18.857	88.938	0.510
620.500	378.005	80.006	19.994	104.065	18.871	87.869	0.541
621.001	378.252	80.005	19.992	104.073	18.888	86.598	0.513
621.500	378.518	80.006	19.993	104.076	18.903	85.408	0.500
622.000	378.740	80.006	19.992	104.069	18.918	84.243	0.500
622.500	378.976	80.007	19.992	104.060	18.934	83.021	0.473
623.000	379.207	80.006	19.992	104.051	18.950	81.816	0.462
623.500	379.490	80.007	19.992	104.037	18.963	80.772	0.491
624.000	379.775	80.007	19.993	104.028	18.982	79.343	0.541
624.500	379.978	80.007	19.992	104.018	18.997	78.220	0.528
625.000	380.289	80.006	19.993	104.002	19.016	76.764	0.501
625.500	380.536	80.007	19.993	103.980	19.030	75.648	0.536
626.000	380.778	80.007	19.992	103.961	19.048	74.290	0.523
626.500	381.039	80.007	19.992	103.941	19.066	72.932	0.496
627.000	381.273	80.007	19.992	103.927	19.082	71.708	0.499
627.500	381.520	80.008	19.993	103.928	19.104	69.989	0.488
628.000	381.821	80.008	19.992	103.942	19.121	68.719	0.515
628.500	382.040	80.007	19.992	103.953	19.143	67.065	0.534
629.000	382.288	80.008	19.992	103.961	19.159	65.832	0.493
629.500	382.575	80.008	19.992	103.970	19.179	64.303	0.501
630.000	382.803	80.008	19.993	103.963	19.195	63.037	0.525
630.500	383.055	80.008	19.993	103.949	19.216	61.469	0.498
631.000	383.326	80.006	19.993	103.936	19.234	60.046	0.502
631.500	383.587	80.006	19.992	103.925	19.254	58.561	0.528
632.000	383.811	80.005	19.993	103.910	19.271	57.198	0.508
632.500	384.036	80.007	19.994	103.901	19.294	55.484	0.467
633.000	384.326	80.005	19.994	103.890	19.310	54.228	0.482
633.500	384.564	80.005	19.994	103.876	19.329	52.843	0.521
634.000	384.819	80.007	19.993	103.863	19.350	51.222	0.511
634.500	385.087	80.005	19.993	103.854	19.368	49.865	0.508
635.000	385.376	80.004	19.993	103.851	19.383	48.721	0.540
635.500	385.579	80.003	19.994	103.847	19.401	47.312	0.525
636.000	385.887	80.003	19.994	103.844	19.421	45.805	0.501
636.500	386.128	80.003	19.993	103.843	19.439	44.453	0.530
637.000	386.359	80.004	19.993	103.843	19.454	43.301	0.511
637.500	386.640	80.005	19.994	103.838	19.472	41.874	0.492
638.000	386.866	80.004	19.994	103.839	19.487	40.752	0.510
638.500	387.098	80.002	19.994	103.839	19.502	39.620	0.482
639.000	387.383	80.003	19.994	103.839	19.520	38.181	0.487
639.500	387.633	80.003	19.994	103.841	19.537	36.942	0.526
640.000	387.882	80.003	19.994	103.836	19.551	35.820	0.517
640.501	388.148	80.005	19.994	103.827	19.566	34.680	0.507
641.000	388.386	80.004	19.995	103.813	19.582	33.456	0.510
641.500	388.611	80.004	19.993	103.803	19.596	32.414	0.483
642.000	388.937	80.004	19.994	103.798	19.609	31.390	0.507
642.500	389.163	80.004	19.994	103.797	19.623	30.347	0.552
643.000	389.387	80.004	19.995	103.798	19.635	29.408	0.501
643.500	389.667	80.004	19.994	103.804	19.650	28.285	0.477
644.000	389.925	80.004	19.994	103.807	19.665	27.105	0.521
644.500	390.179	80.005	19.993	103.803	19.677	26.231	0.526
645.000	390.455	80.005	19.994	103.807	19.688	25.410	0.521
645.500	390.715	80.005	19.994	103.814	19.700	24.499	0.533
646.000	390.966	80.004	19.994	103.825	19.708	23.819	0.523
646.500	391.222	80.005	19.994	103.833	19.721	22.873	0.509
647.000	391.452	80.005	19.992	103.840	19.727	22.420	0.496
647.500	391.725	80.005	19.993	103.842	19.738	21.578	0.494
648.000	391.989	80.005	19.993	103.841	19.744	21.077	0.520
648.500	392.226	80.005	19.993	103.836	19.754	20.332	0.519
649.000	392.483	80.005	19.993	103.824	19.761	19.790	0.498
649.500	392.749	80.005	19.993	103.808	19.768	19.256	0.509
650.000	393.017	80.005	19.993	103.790	19.779	18.425	0.529
650.500	393.267	80.005	19.992	103.768	19.784	18.067	0.526
651.000	393.500	80.007	19.994	103.754	19.788	17.782	0.500
651.500	393.767	80.005	19.993	103.754	19.798	16.998	0.492
652.000	393.991	80.007	19.993	103.760	19.803	16.623	0.496
652.500	394.301	80.007	19.993	103.770	19.807	16.333	0.512
653.000	394.512	80.005	19.992	103.784	19.817	15.527	0.528
653.500	394.762	80.005	19.994	103.790	19.819	15.373	0.492
654.000	395.065	80.006	19.993	103.793	19.821	15.214	0.507
654.500	395.317	80.005	19.992	103.792	19.833	14.279	0.554
655.000	395.566	80.005	19.993	103.786	19.838	13.950	0.528
655.500	395.786	80.005	19.993	103.786	19.841	13.716	0.485
656.000	396.082	80.005	19.993	103.788	19.847	13.198	0.492
656.500	396.292	80.006	19.992	103.789	19.847	13.203	0.511
657.000	396.532	80.006	19.993	103.793	19.854	12.701	0.478
657.500	396.807	80.005	19.993	103.801	19.855	12.609	0.482
658.000	397.090	80.006	19.994	103.803	19.857	12.440	0.536
658.500	397.365	80.007	19.993	103.804	19.861	12.176	0.558
659.000	397.560	80.006	19.994	103.805	19.866	11.801	0.514
659.500	397.798	80.005	19.992	103.804	19.870	11.463	0.451
660.000	398.095	80.004	19.993	103.801	19.872	11.308	0.484
660.500	398.341	80.006	19.993	103.799	19.874	11.173	0.539
661.000	398.582	80.004	19.993	103.799	19.878	10.851	0.516
661.500	398.807	80.005	19.993	103.798	19.879	10.781	0.477
662.000	399.061	80.005	19.994	103.801	19.882	10.573	0.472
662.500	399.340	80.005	19.993	103.809	19.883	10.513	0.506
663.000	399.577	80.004	19.993	103.817	19.886	10.250	0.525
663.500	399.812	80.004	19.993	103.821	19.890	9.952	0.494
664.000	400.082	80.007	19.993	103.821	19.890	9.960	0.488
664.500	400.314	80.004	19.992	103.810	19.893	9.758	0.504
665.001	400.570	80.005	19.993	103.795	19.893	9.697	0.495
665.500	400.790	80.005	19.993	103.779	19.895	9.537	0.482
666.000	401.026	80.005	19.993	103.767	19.896	9.484	0.466
666.500	401.284	80.005	19.992	103.760	19.897	9.396	0.475
667.000	401.530	80.005	19.993	103.765	19.897	9.442	0.499
667.500	401.780	80.003	19.992	103.772	19.896	9.463	0.500
668.000	402.039	80.004	19.993	103.779	19.896	9.493	0.503
668.500	402.303	80.006	19.993	103.787	19.896	9.532	0.516
669.000	402.524	80.004	19.992	103.791	19.897	9.437	0.504
669.500	402.751	80.004	19.993	103.792	19.898	9.369	0.466
670.000	403.077	80.005	19.993	103.792	19.899	9.241	0.501
670.500	403.289	80.003	19.993	103.792	19.901	9.150	0.545
671.000	403.516	80.005	19.993	103.793	19.905	8.824	0.488
671.500	403.781	80.004	19.993	103.791	19.905	8.824	0.465
672.000	404.031	80.005	19.993	103.785	19.903	8.998	0.504
672.500	404.279	80.004	19.993	103.783	19.904	8.899	0.507
673.000	404.545	80.006	19.993	103.777	19.903	8.947	0.506
673.500	404.766	80.005	19.993	103.773	19.906	8.754	0.501
674.000	405.054	80.005	19.992	103.770	19.908	8.617	0.498
674.501	405.273	80.005	19.994	103.770	19.907	8.649	0.508
675.000	405.512	80.006	19.993	103.768	19.908	8.568	0.482
675.500	405.796	80.005	19.993	103.771	19.909	8.493	0.490
676.000	406.021	80.005	19.994	103.774	19.910	8.434	0.516
676.500	406.273	80.006	19.994	103.781	19.913	8.212	0.493
677.000	406.547	80.006	19.993	103.789	19.914	8.132	0.501
677.500	406.789	80.006	19.993	103.799	19.914	8.100	0.521
678.000	407.045	80.006	19.993	103.809	19.916	7.954	0.507
678.500	407.277	80.006	19.993	103.811	19.915	8.063	0.493
679.000	407.547	80.007	19.992	103.817	19.917	7.903	0.495
679.500	407.750	80.007	19.992	103.824	19.916	7.940	0.488
680.000	408.043	80.006	19.992	103.828	19.920	7.653	0.485
680.500	408.252	80.006	19.993	103.829	19.924	7.334	0.499
681.000	408.524	80.005	19.993	103.834	19.921	7.586	0.491
681.500	408.750	80.008	19.992	103.836	19.922	7.516	0.489
682.000	409.004	80.007	19.993	103.837	19.922	7.494	0.489
682.500	409.241	80.007	19.993	103.837	19.924	7.372	0.486
683.000	409.491	80.006	19.992	103.843	19.920	7.685	0.489
683.500	409.737	80.005	19.993	103.843	19.921	7.609	0.492
684.000	409.984	80.007	19.992	103.837	19.921	7.591	0.494
684.501	410.254	80.007	19.992	103.829	19.922	7.551	0.505
685.000	410.518	80.007	19.992	103.812	19.917	7.878	0.525
685.500	410.777	80.007	19.992	103.792	19.918	7.802	0.528
686.000	411.043	80.006	19.992	103.782	19.917	7.911	0.524
686.500	411.263	80.006	19.993	103.776	19.919	7.742	0.506
687.000	411.500	80.007	19.992	103.773	19.920	7.688	0.472
687.500	411.765	80.006	19.992	103.774	19.917	7.876	0.479
688.000	412.005	80.007	19.992	103.780	19.920	7.695	0.503
688.500	412.294	80.007	19.993	103.777	19.921	7.606	0.517
689.000	412.512	80.006	19.992	103.774	19.919	7.733	0.518
689.500	412.735	80.006	19.993	103.771	19.919	7.754	0.474
690.000	412.987	80.007	19.993	103.771	19.922	7.490	0.458
690.500	413.290	80.005	19.992	103.766	19.923	7.403	0.515
691.000	413.515	80.004	19.993	103.768	19.924	7.357	0.542
691.500	413.771	80.007	19.991	103.775	19.923	7.443	0.504
692.000	413.998	80.005	19.993	103.787	19.924	7.325	0.482
692.500	414.232	80.007	19.993	103.802	19.926	7.191	0.472
693.000	414.497	80.005	19.993	103.821	19.929	6.983	0.480
693.501	414.772	80.006	19.993	103.842	19.928	7.082	0.520
694.001	414.991	80.005	19.993	103.856	19.930	6.890	0.517
694.501	415.266	80.005	19.993	103.858	19.929	6.980	0.494
695.000	415.499	80.005	19.993	103.845	19.929	6.976	0.502
695.500	415.767	80.006	19.992	103.820	19.928	7.046	0.505
696.000	416.009	80.005	19.993	103.786	19.927	7.095	0.505
696.500	416.259	80.005	19.992	103.756	19.931	6.811	0.501
697.000	416.497	80.004	19.992	103.742	19.929	6.962	0.490
697.500	416.686	80.005	19.994	103.747	19.929	6.945	0.458
698.000	416.989	80.006	19.993	103.759	19.930	6.916	0.459
698.500	417.223	80.005	19.993	103.777	19.933	6.705	0.515
699.000	417.486	80.005	19.994	103.800	19.932	6.720	0.517
699.500	417.705	80.006	19.993	103.823	19.932	6.741	0.489
700.000	417.947	80.006	19.993	103.846	19.930	6.874	0.471
700.500	418.207	80.006	19.993	103.871	19.934	6.629	0.481
701.000	418.479	80.007	19.993	103.886	19.932	6.733	0.517
701.500	418.739	80.006	19.993	103.882	19.932	6.715	0.532
702.000	418.988	80.008	19.994	103.860	19.931	6.860	0.521
702.500	419.231	80.005	19.993	103.829	19.934	6.581	0.501
703.000	419.484	80.007	19.993	103.795	19.932	6.724	0.494
703.500	419.749	80.007	19.992	103.761	19.933	6.690	0.507
704.000	419.988	80.006	19.993	103.741	19.936	6.410	0.511
704.500	420.257	80.007	19.992	103.744	19.934	6.570	0.506
705.000	420.507	80.008	19.993	103.754	19.933	6.675	0.514
705.500	420.815	80.007	19.993	103.760	19.930	6.914	0.539
706.000	421.016	80.007	19.994	103.769	19.934	6.618	0.533
706.500	421.263	80.007	19.993	103.779	19.931	6.793	0.479
707.000	421.549	80.007	19.993	103.775	19.933	6.659	0.491
707.500	421.798	80.006	19.993	103.772	19.933	6.678	0.534
708.000	422.063	80.008	19.993	103.776	19.936	6.427	0.525
708.500	422.284	80.008	19.993	103.785	19.933	6.637	0.500
709.000	422.553	80.008	19.993	103.793	19.935	6.552	0.488
709.500	422.789	80.007	19.993	103.801	19.935	6.556	0.497
710.000	423.033	80.008	19.993	103.803	19.935	6.500	0.492
710.500	423.284	80.007	19.993	103.802	19.934	6.580	0.488
711.000	423.553	80.008	19.993	103.799	19.935	6.545	0.508
711.500	423.783	80.008	19.993	103.798	19.935	6.507	0.509
712.000	424.036	80.008	19.993	103.807	19.936	6.437	0.491
712.500	424.286	80.007	19.993	103.822	19.933	6.634	0.493
713.000	424.524	80.007	19.994	103.836	19.936	6.419	0.496
713.500	424.799	80.007	19.994	103.841	19.936	6.421	0.501
714.000	425.030	80.008	19.992	103.836	19.937	6.373	0.509
714.500	425.270	80.007	19.993	103.824	19.937	6.376	0.488
715.000	425.551	80.006	19.992	103.813	19.938	6.282	0.496
715.500	425.760	80.008	19.993	103.802	19.938	6.328	0.506
716.000	426.033	80.005	19.993	103.796	19.937	6.340	0.486
716.500	426.264	80.005	19.993	103.797	19.939	6.183	0.492
717.000	426.516	80.006	19.992	103.792	19.940	6.152	0.493
717.500	426.795	80.005	19.993	103.783	19.936	6.473	0.507
718.000	427.013	80.005	19.994	103.778	19.938	6.285	0.514
718.500	427.285	80.007	19.993	103.777	19.936	6.422	0.494
719.000	427.528	80.004	19.994	103.783	19.941	6.092	0.502
719.500	427.769	80.005	19.993	103.798	19.936	6.432	0.500
720.000	428.033	80.006	19.994	103.814	19.934	6.616	0.495
720.500	428.303	80.005	19.993	103.824	19.939	6.209	0.519
721.000	428.483	80.004	19.993	103.829	19.938	6.255	0.492
721.500	428.790	80.005	19.994	103.826	19.937	6.395	0.469
722.000	429.022	80.005	19.993	103.818	19.940	6.148	0.514
722.500	429.270	80.006	19.993	103.806	19.941	6.094	0.510
723.000	429.529	80.004	19.993	103.804	19.940	6.106	0.494
723.500	429.773	80.005	19.993	103.816	19.942	5.961	0.505
724.000	430.017	80.005	19.994	103.834	19.942	5.977	0.495
724.500	430.266	80.006	19.994	103.852	19.941	6.079	0.490
725.000	430.510	80.005	19.994	103.868	19.941	6.057	0.493
725.500	430.738	80.006	19.993	103.878	19.941	6.048	0.483
726.000	431.003	80.005	19.994	103.879	19.942	6.010	0.482
726.500	431.278	80.006	19.994	103.869	19.944	5.846	0.516
727.000	431.504	80.005	19.993	103.855	19.943	5.873	0.520
727.500	431.772	80.006	19.994	103.838	19.943	5.903	0.498
728.000	432.010	80.005	19.994	103.824	19.944	5.824	0.500
728.500	432.277	80.006	19.994	103.817	19.944	5.800	0.505
729.000	432.502	80.006	19.995	103.817	19.944	5.813	0.498
729.500	432.737	80.005	19.994	103.814	19.944	5.798	0.476
730.000	433.055	80.006	19.994	103.808	19.945	5.768	0.507
730.500	433.305	80.005	19.993	103.793	19.944	5.844	0.560
731.000	433.537	80.005	19.994	103.770	19.945	5.733	0.525
731.500	433.773	80.006	19.994	103.753	19.944	5.852	0.475
732.000	434.031	80.006	19.994	103.746	19.947	5.624	0.481
732.500	434.277	80.005	19.994	103.745	19.947	5.600	0.499
733.000	434.527	80.004	19.994	103.757	19.945	5.774	0.500
733.500	434.782	80.005	19.993	103.774	19.944	5.822	0.500
734.000	435.060	80.006	19.994	103.791	19.946	5.676	0.519
734.500	435.276	80.006	19.996	103.812	19.944	5.862	0.514
735.000	435.538	80.006	19.994	103.829	19.946	5.651	0.486
735.500	435.795	80.005	19.995	103.837	19.948	5.556	0.498
736.000	436.054	80.005	19.994	103.832	19.946	5.682	0.518
736.500	436.317	80.005	19.993	103.815	19.946	5.701	0.519
737.000	436.548	80.006	19.994	103.788	19.948	5.533	0.507
737.500	436.821	80.006	19.994	103.768	19.948	5.560	0.499
738.000	437.087	80.006	19.993	103.757	19.949	5.441	0.521
738.500	437.336	80.006	19.994	103.766	19.950	5.405	0.527
739.000	437.589	80.005	19.994	103.782	19.952	5.250	0.508
739.500	437.836	80.006	19.994	103.800	19.947	5.580	0.501
740.000	438.105	80.007	19.994	103.808	19.949	5.482	0.508
740.500	438.355	80.006	19.994	103.804	19.951	5.279	0.518
741.000	438.572	80.007	19.993	103.797	19.954	5.058	0.493
741.500	438.841	80.006	19.993	103.793	19.947	5.572	0.477
742.000	439.059	80.007	19.993	103.784	19.950	5.341	0.487
742.500	439.380	80.006	19.993	103.788	19.951	5.290	0.513
743.000	439.610	80.006	19.993	103.796	19.951	5.297	0.544
743.500	439.870	80.004	19.993	103.797	19.953	5.115	0.521
744.000	440.135	80.007	19.992	103.789	19.952	5.190	0.508
744.500	440.417	80.005	19.992	103.785	19.953	5.114	0.536
745.000	440.649	80.006	19.992	103.786	19.954	5.084	0.530
745.500	440.911	80.006	19.992	103.786	19.953	5.148	0.504
746.000	441.140	80.005	19.993	103.790	19.952	5.214	0.493
746.500	441.395	80.005	19.993	103.803	19.952	5.205	0.487
747.000	441.664	80.006	19.993	103.818	19.952	5.218	0.504
747.500	441.873	80.003	19.993	103.825	19.953	5.135	0.501
748.000	442.169	80.005	19.993	103.832	19.953	5.150	0.492
748.500	442.445	80.005	19.994	103.835	19.955	4.977	0.538
749.000	442.713	80.006	19.992	103.832	19.955	5.023	0.558
749.500	442.933	80.006	19.993	103.826	19.960	4.608	0.516
750.000	443.193	80.005	19.993	103.819	19.957	4.810	0.484
750.500	443.467	80.005	19.994	103.813	19.956	4.935	0.507
751.000	443.715	80.005	19.993	103.803	19.956	4.922	0.529
751.500	443.950	80.005	19.992	103.792	19.954	5.068	0.503
752.000	444.214	80.007	19.992	103.782	19.955	4.965	0.491
752.500	444.494	80.006	19.992	103.774	19.954	5.064	0.522
753.000	444.735	80.005	19.994	103.767	19.953	5.140	0.532
753.500	444.987	80.006	19.992	103.771	19.954	5.097	0.507
754.000	445.245	80.005	19.993	103.778	19.956	4.943	0.502
754.500	445.499	80.006	19.994	103.786	19.958	4.752	0.511
755.000	445.763	80.005	19.993	103.794	19.956	4.923	0.514
755.501	446.017	80.006	19.993	103.801	19.955	4.959	0.518
756.000	446.285	80.006	19.993	103.801	19.957	4.822	0.521
756.500	446.525	80.005	19.992	103.801	19.957	4.807	0.515
757.000	446.797	80.005	19.993	103.801	19.957	4.871	0.510
757.500	447.058	80.006	19.993	103.802	19.958	4.727	0.522
758.000	447.287	80.005	19.994	103.802	19.958	4.744	0.511
758.500	447.550	80.005	19.993	103.801	19.959	4.718	0.491
759.000	447.790	80.005	19.993	103.801	19.959	4.695	0.498
759.500	448.028	80.006	19.993	103.801	19.962	4.490	0.491
760.000	448.288	80.006	19.992	103.802	19.963	4.386	0.488
760.500	448.573	80.006	19.992	103.803	19.962	4.468	0.521
761.000	448.815	80.007	19.993	103.810	19.962	4.480	0.536
761.500	449.078	80.006	19.992	103.813	19.964	4.264	0.516
762.000	449.326	80.006	19.993	103.813	19.969	3.949	0.508
762.500	449.580	80.006	19.993	103.818	19.967	4.042	0.506
763.000	449.838	80.006	19.994	103.820	19.962	4.425	0.507
763.500	450.090	80.007	19.993	103.812	19.965	4.190	0.511
764.000	450.334	80.006	19.993	103.809	19.964	4.270	0.503
764.500	450.616	80.007	19.993	103.808	19.966	4.116	0.511
765.000	450.846	80.006	19.993	103.802	19.964	4.290	0.519
765.500	451.071	80.007	19.992	103.795	19.966	4.167	0.484
766.000	451.355	80.006	19.992	103.793	19.968	3.962	0.482
766.500	451.635	80.006	19.993	103.794	19.967	4.085	0.537
767.000	451.852	80.007	19.993	103.794	19.966	4.176	0.531
767.500	452.143	80.006	19.993	103.797	19.964	4.316	0.502
768.000	452.400	80.005	19.994	103.801	19.964	4.299	0.528
768.500	452.661	80.007	19.994	103.803	19.966	4.153	0.533
769.000	452.909	80.007	19.993	103.803	19.964	4.314	0.513
769.500	453.135	80.007	19.993	103.802	19.964	4.297	0.492
770.000	453.401	80.006	19.993	103.799	19.963	4.350	0.483
770.500	453.668	80.005	19.994	103.795	19.966	4.150	0.512
771.001	453.894	80.006	19.992	103.788	19.966	4.122	0.513
771.500	454.168	80.005	19.993	103.780	19.967	4.110	0.497
772.000	454.399	80.007	19.993	103.773	19.967	4.081	0.503
772.500	454.673	80.006	19.993	103.766	19.967	4.076	0.505
773.000	454.917	80.006	19.993	103.762	19.965	4.210	0.511
773.501	455.175	80.006	19.993	103.762	19.964	4.284	0.510
774.000	455.450	80.006	19.992	103.763	19.965	4.201	0.518
774.500	455.700	80.005	19.993	103.762	19.967	4.108	0.529
775.000	455.974	80.007	19.993	103.762	19.964	4.300	0.524
775.500	456.228	80.006	19.993	103.765	19.969	3.927	0.526
776.001	456.491	80.008	19.993	103.772	19.969	3.931	0.523
776.500	456.721	80.007	19.994	103.776	19.969	3.940	0.505
777.000	456.963	80.007	19.993	103.783	19.973	3.620	0.482
777.500	457.222	80.007	19.994	103.790	19.969	3.904	0.486
778.000	457.495	80.009	19.993	103.794	19.969	3.889	0.516
778.500	457.742	80.007	19.993	103.795	19.972	3.713	0.526
779.000	458.030	80.007	19.993	103.797	19.976	3.389	0.528
779.500	458.266	80.007	19.992	103.798	19.975	3.476	0.530
780.000	458.502	80.006	19.992	103.799	19.973	3.586	0.497
780.500	458.770	80.006	19.993	103.800	19.974	3.565	0.488
781.000	459.049	80.007	19.993	103.805	19.973	3.619	0.526
781.500	459.326	80.007	19.993	103.812	19.974	3.526	0.552
782.000	459.558	80.007	19.993	103.818	19.976	3.416	0.532
782.500	459.792	80.008	19.993	103.825	19.973	3.602	0.487
783.000	460.044	80.008	19.993	103.832	19.974	3.513	0.476
783.501	460.299	80.008	19.993	103.835	19.976	3.369	0.497
784.000	460.585	80.009	19.992	103.835	19.976	3.350	0.524
784.500	460.795	80.007	19.993	103.835	19.977	3.319	0.518
785.000	461.059	80.008	19.992	103.836	19.975	3.439	0.484
785.500	461.334	80.009	19.992	103.828	19.977	3.329	0.506
786.000	461.578	80.009	19.993	103.820	19.977	3.306	0.529
786.500	461.847	80.009	19.992	103.812	19.979	3.169	0.517
787.000	462.064	80.009	19.993	103.805	19.977	3.279	0.500
787.500	462.361	80.007	19.992	103.798	19.976	3.361	0.500
788.000	462.591	80.007	19.993	103.797	19.974	3.514	0.520
788.500	462.832	80.008	19.992	103.797	19.979	3.192	0.499
789.000	463.097	80.009	19.992	103.797	19.980	3.084	0.489
789.500	463.322	80.008	19.994	103.796	19.975	3.435	0.498
790.000	463.643	80.009	19.992	103.796	19.977	3.290	0.519
790.500	463.837	80.008	19.993	103.794	19.978	3.266	0.531
791.000	464.125	80.008	19.992	103.790	19.976	3.387	0.498
791.500	464.331	80.007	19.992	103.783	19.978	3.220	0.488
792.000	464.611	80.008	19.993	103.777	19.974	3.548	0.490
792.500	464.869	80.008	19.993	103.769	19.977	3.281	0.512
793.000	465.114	80.008	19.992	103.764	19.977	3.291	0.520
793.500	465.336	80.008	19.993	103.760	19.976	3.395	0.485
794.000	465.637	80.007	19.993	103.760	19.974	3.534	0.495
794.500	465.855	80.006	19.993	103.759	19.974	3.501	0.521
795.001	466.136	80.007	19.993	103.761	19.978	3.253	0.509
795.501	466.379	80.007	19.993	103.764	19.975	3.467	0.511
796.000	466.615	80.006	19.994	103.770	19.979	3.152	0.502
796.500	466.876	80.005	19.994	103.773	19.979	3.163	0.488
797.000	467.134	80.006	19.994	103.779	19.979	3.169	0.508
797.500	467.432	80.005	19.992	103.780	19.977	3.322	0.537
798.000	467.611	80.005	19.994	103.780	19.978	3.218	0.516
798.500	467.882	80.007	19.994	103.775	19.976	3.360	0.463
799.000	468.147	80.005	19.993	103.777	19.982	2.941	0.493
799.500	468.388	80.005	19.993	103.775	19.979	3.123	0.521
800.000	468.643	80.007	19.993	103.772	19.981	2.998	0.501
800.500	468.884	80.005	19.994	103.775	19.980	3.091	0.496
801.001	469.166	80.005	19.994	103.780	19.983	2.865	0.510
801.501	469.369	80.006	19.995	103.782	19.980	3.078	0.504
802.000	469.646	80.006	19.995	103.785	19.981	3.023	0.482
802.500	469.912	80.006	19.994	103.786	19.984	2.803	0.512
803.000	470.162	80.007	19.995	103.782	19.982	2.938	0.529
803.500	470.414	80.005	19.994	103.778	19.984	2.767	0.509
804.000	470.682	80.005	19.994	103.774	19.982	2.957	0.511
804.500	470.941	80.006	19.994	103.766	19.985	2.731	0.523
805.000	471.179	80.005	19.994	103.767	19.985	2.702	0.512
805.500	471.429	80.005	19.993	103.769	19.985	2.734	0.492
806.000	471.721	80.006	19.993	103.771	19.983	2.852	0.514
806.500	471.938	80.005	19.993	103.776	19.984	2.800	0.525
807.000	472.192	80.006	19.993	103.782	19.985	2.711	0.490
807.500	472.433	80.006	19.993	103.787	19.985	2.692	0.483
808.000	472.693	80.006	19.994	103.792	19.983	2.840	0.498
808.500	472.973	80.005	19.993	103.794	19.984	2.795	0.520
809.000	473.222	80.005	19.994	103.795	19.984	2.757	0.534
809.500	473.482	80.006	19.993	103.797	19.986	2.585	0.519
810.000	473.770	80.005	19.994	103.798	19.988	2.481	0.529
810.500	474.015	80.006	19.994	103.798	19.986	2.659	0.540
811.000	474.251	80.004	19.993	103.799	19.987	2.566	0.507
811.500	474.532	80.007	19.994	103.799	19.984	2.779	0.499
812.000	474.792	80.005	19.993	103.796	19.986	2.589	0.529
812.500	475.046	80.006	19.993	103.795	19.983	2.879	0.527
813.000	475.305	80.005	19.993	103.793	19.985	2.668	0.514
813.500	475.581	80.005	19.993	103.787	19.982	2.962	0.524
814.000	475.770	80.006	19.993	103.784	19.981	3.012	0.500
814.500	476.043	80.006	19.993	103.781	19.980	3.059	0.463
815.000	476.320	80.006	19.992	103.777	19.985	2.727	0.506
815.500	476.573	80.005	19.993	103.780	19.984	2.796	0.540
816.000	476.818	80.005	19.994	103.786	19.984	2.811	0.514
816.500	477.075	80.005	19.992	103.794	19.983	2.864	0.500
817.000	477.323	80.005	19.993	103.803	19.983	2.818	0.504
817.500	477.588	80.007	19.994	103.812	19.985	2.691	0.509
818.000	477.845	80.005	19.994	103.814	19.983	2.882	0.518
818.500	478.144	80.006	19.995	103.813	19.986	2.638	0.539
819.000	478.384	80.006	19.995	103.809	19.987	2.575	0.547
819.500	478.626	80.006	19.993	103.805	19.983	2.887	0.510
820.000	478.867	80.006	19.994	103.796	19.984	2.742	0.483
820.500	479.135	80.004	19.995	103.787	19.985	2.672	0.496
821.000	479.388	80.006	19.994	103.779	19.987	2.524	0.515
821.500	479.650	80.005	19.994	103.771	19.983	2.845	0.518
822.000	479.888	80.004	19.994	103.767	19.983	2.826	0.507
822.500	480.160	80.005	19.994	103.770	19.984	2.739	0.505
823.000	480.341	80.006	19.994	103.775	19.984	2.809	0.481
823.500	480.628	80.006	19.994	103.779	19.984	2.763	0.460
824.000	480.874	80.005	19.994	103.785	19.981	3.023	0.500
824.500	481.156	80.004	19.995	103.786	19.984	2.780	0.531
825.000	481.372	80.004	19.994	103.781	19.983	2.824	0.513
825.500	481.633	80.005	19.994	103.777	19.984	2.807	0.487
826.000	481.901	80.006	19.993	103.772	19.985	2.698	0.503
826.500	482.149	80.004	19.995	103.768	19.981	2.994	0.523
827.000	482.389	80.005	19.994	103.772	19.985	2.723	0.502
827.500	482.634	80.004	19.994	103.780	19.986	2.626	0.487
828.000	482.876	80.004	19.994	103.789	19.985	2.723	0.486
828.500	483.131	80.003	19.994	103.793	19.984	2.759	0.492
829.000	483.365	80.004	19.995	103.792	19.983	2.837	0.493
829.500	483.617	80.004	19.994	103.786	19.987	2.524	0.487
830.000	483.875	80.004	19.994	103.780	19.988	2.469	0.498
830.500	484.108	80.003	19.994	103.776	19.986	2.608	0.501
831.000	484.364	80.003	19.994	103.779	19.987	2.576	0.490
831.500	484.628	80.003	19.994	103.780	19.985	2.675	0.504
832.000	484.891	80.004	19.995	103.778	19.984	2.764	0.523
832.500	485.137	80.003	19.993	103.777	19.985	2.669	0.518
833.000	485.374	80.003	19.994	103.776	19.986	2.621	0.497
833.500	485.608	80.003	19.994	103.777	19.986	2.615	0.477
834.000	485.914	80.004	19.992	103.780	19.981	2.998	0.505
834.500	486.185	80.004	19.993	103.780	19.986	2.605	0.558
835.000	486.403	80.005	19.993	103.780	19.988	2.448	0.533
835.500	486.665	80.004	19.993	103.783	19.988	2.495	0.484
836.000	486.915	80.004	19.993	103.783	19.986	2.658	0.496
836.500	487.164	80.006	19.993	103.788	19.988	2.497	0.506
837.000	487.439	80.005	19.993	103.801	19.985	2.713	0.511
837.500	487.665	80.005	19.993	103.811	19.986	2.603	0.512
838.000	487.921	80.005	19.993	103.811	19.985	2.719	0.492
838.500	488.164	80.007	19.993	103.811	19.985	2.723	0.490
839.000	488.424	80.006	19.993	103.810	19.986	2.656	0.501
839.500	488.664	80.007	19.993	103.800	19.985	2.689	0.502
840.000	488.916	80.006	19.993	103.787	19.983	2.875	0.496
840.500	489.158	80.006	19.993	103.780	19.984	2.748	0.493
841.000	489.401	80.007	19.993	103.772	19.982	2.894	0.489
841.500	489.654	80.007	19.993	103.764	19.982	2.903	0.490
842.000	489.938	80.007	19.992	103.756	19.984	2.778	0.517
842.500	490.230	80.006	19.994	103.757	19.986	2.615	0.556
843.000	490.444	80.006	19.994	103.761	19.983	2.858	0.541
843.500	490.729	80.008	19.992	103.769	19.982	2.954	0.503
844.000	490.948	80.006	19.993	103.778	19.986	2.640	0.502
844.500	491.223	80.007	19.992	103.795	19.986	2.638	0.499
845.000	491.460	80.009	19.994	103.801	19.988	2.471	0.503
845.500	491.714	80.006	19.993	103.802	19.988	2.460	0.501
846.000	491.964	80.008	19.992	103.807	19.985	2.661	0.498
846.500	492.227	80.007	19.994	103.813	19.989	2.390	0.509
847.000	492.484	80.007	19.992	103.812	19.992	2.136	0.517
847.500	492.755	80.007	19.993	103.817	19.989	2.371	0.524
848.000	492.965	80.006	19.993	103.824	19.992	2.197	0.504
848.500	493.262	80.007	19.994	103.821	19.989	2.364	0.494
849.000	493.524	80.007	19.993	103.814	19.992	2.161	0.533
849.500	493.763	80.006	19.992	103.810	19.993	2.113	0.530
850.000	494.046	80.006	19.993	103.805	19.990	2.328	0.512
850.500	494.273	80.006	19.993	103.800	19.989	2.409	0.516
851.000	494.556	80.008	19.992	103.799	19.991	2.275	0.510
851.500	494.837	80.007	19.994	103.799	19.989	2.390	0.537
852.000	495.069	80.007	19.994	103.794	19.991	2.206	0.538
852.500	495.296	80.006	19.993	103.790	19.990	2.331	0.486
853.000	495.548	80.006	19.993	103.789	19.990	2.329	0.469
853.500	495.809	80.006	19.993	103.789	19.990	2.314	0.496
854.000	496.079	80.006	19.994	103.789	19.990	2.334	0.522
854.500	496.313	80.005	19.993	103.792	19.988	2.467	0.518
855.000	496.568	80.006	19.993	103.797	19.988	2.437	0.497
855.500	496.851	80.006	19.993	103.790	19.989	2.406	0.513
856.000	497.084	80.007	19.994	103.782	19.990	2.317	0.527
856.500	497.372	80.005	19.993	103.774	19.990	2.344	0.519
857.000	497.590	80.006	19.994	103.768	19.987	2.545	0.513
857.500	497.883	80.005	19.994	103.760	19.989	2.388	0.509
858.000	498.102	80.006	19.993	103.758	19.989	2.407	0.511
858.500	498.360	80.005	19.994	103.759	19.988	2.439	0.494
859.000	498.602	80.006	19.994	103.757	19.989	2.356	0.488
859.500	498.858	80.006	19.993	103.755	19.989	2.365	0.499
860.000	499.138	80.004	19.995	103.751	19.989	2.403	0.517
860.500	499.385	80.007	19.993	103.747	19.987	2.557	0.531
861.000	499.641	80.006	19.994	103.744	19.989	2.403	0.515
861.500	499.916	80.006	19.992	103.744	19.990	2.337	0.517
862.000	500.175	80.007	19.994	103.746	19.989	2.398	0.532
862.500	500.435	80.007	19.994	103.750	19.986	2.601	0.527
863.000	500.699	80.006	19.994	103.760	19.985	2.688	0.522
863.501	500.924	80.007	19.993	103.771	19.989	2.430	0.507
864.000	501.194	80.007	19.992	103.778	19.986	2.640	0.492
864.500	501.498	80.007	19.992	103.786	19.986	2.657	0.534
865.000	501.705	80.006	19.992	103.793	19.990	2.331	0.542
865.500	501.936	80.007	19.992	103.796	19.989	2.409	0.474
866.000	502.207	80.008	19.992	103.801	19.986	2.621	0.470
866.500	502.465	80.008	19.994	103.804	19.988	2.471	0.516
867.000	502.706	80.008	19.992	103.801	19.985	2.731	0.514
867.500	502.980	80.008	19.992	103.795	19.987	2.575	0.507
868.000	503.250	80.008	19.992	103.789	19.986	2.645	0.530
868.500	503.504	80.007	19.993	103.777	19.987	2.539	0.534
869.000	503.738	80.007	19.993	103.767	19.989	2.427	0.506
869.500	503.992	80.009	19.992	103.762	19.988	2.448	0.488
870.000	504.267	80.009	19.992	103.761	19.987	2.518	0.508
870.500	504.490	80.009	19.992	103.758	19.986	2.634	0.513
871.000	504.754	80.008	19.993	103.759	19.986	2.655	0.492
871.500	505.011	80.009	19.993	103.762	19.986	2.590	0.504
872.000	505.263	80.006	19.995	103.761	19.986	2.602	0.515
872.500	505.552	80.008	19.993	103.754	19.985	2.663	0.525
873.000	505.734	80.008	19.992	103.747	19.984	2.788	0.506
873.500	506.009	80.009	19.992	103.746	19.984	2.748	0.464
874.000	506.280	80.008	19.991	103.750	19.986	2.608	0.501
874.500	506.548	80.008	19.994	103.757	19.985	2.716	0.543
875.000	506.791	80.007	19.993	103.765	19.986	2.592	0.525
875.500	507.045	80.007	19.993	103.773	19.986	2.596	0.504
876.000	507.296	80.007	19.994	103.777	19.985	2.736	0.501
876.500	507.552	80.007	19.992	103.771	19.986	2.596	0.506
877.000	507.788	80.007	19.993	103.766	19.988	2.444	0.499
877.500	508.057	80.006	19.993	103.773	19.988	2.505	0.499
878.000	508.320	80.007	19.994	103.784	19.986	2.625	0.518
878.500	508.550	80.005	19.994	103.789	19.987	2.528	0.512
879.000	508.798	80.005	19.993	103.797	19.985	2.676	0.486
879.500	509.088	80.006	19.993	103.805	19.989	2.409	0.509
880.000	509.332	80.006	19.992	103.808	19.989	2.399	0.536
880.500	509.598	80.005	19.993	103.810	19.988	2.492	0.522
881.000	509.848	80.006	19.994	103.808	19.988	2.475	0.513
881.500	510.059	80.005	19.994	103.808	19.989	2.422	0.488
882.000	510.348	80.005	19.993	103.802	19.990	2.333	0.481
882.500	510.581	80.005	19.992	103.793	19.988	2.441	0.511
883.000	510.855	80.005	19.993	103.780	19.991	2.217	0.515
883.500	511.108	80.004	19.994	103.773	19.992	2.198	0.517
884.000	511.337	80.006	19.992	103.773	19.989	2.371	0.504
884.500	511.587	80.005	19.992	103.776	19.990	2.325	0.480
885.000	511.862	80.006	19.992	103.780	19.988	2.477	0.502
885.500	512.108	80.006	19.993	103.786	19.992	2.162	0.523
886.000	512.336	80.004	19.993	103.794	19.992	2.176	0.497
886.500	512.556	80.005	19.993	103.793	19.990	2.307	0.461
887.000	512.819	80.005	19.994	103.795	19.991	2.261	0.466
887.500	513.089	80.005	19.993	103.795	19.995	1.961	0.508
888.000	513.361	80.005	19.992	103.789	19.991	2.270	0.537
888.500	513.623	80.004	19.993	103.781	19.992	2.158	0.538
889.000	513.870	80.006	19.992	103.774	19.991	2.234	0.522
889.500	514.122	80.005	19.993	103.767	19.991	2.226	0.504
890.000	514.393	80.004	19.993	103.766	19.990	2.299	0.511
890.500	514.662	80.005	19.992	103.768	19.991	2.233	0.531
891.000	514.924	80.005	19.993	103.772	19.993	2.116	0.535
891.500	515.156	80.006	19.993	103.772	19.988	2.440	0.512
892.000	515.406	80.004	19.994	103.771	19.988	2.469	0.488
892.500	515.669	80.006	19.994	103.771	19.989	2.378	0.498
893.000	515.935	80.005	19.993	103.769	19.990	2.329	0.521
893.500	516.197	80.005	19.993	103.769	19.987	2.549	0.528
894.000	516.407	80.006	19.993	103.776	19.989	2.406	0.500
894.500	516.649	80.005	19.993	103.780	19.990	2.319	0.462
895.000	516.953	80.005	19.993	103.778	19.991	2.220	0.499
895.500	517.150	80.005	19.993	103.777	19.991	2.249	0.524
896.000	517.452	80.005	19.993	103.773	19.989	2.412	0.500
896.500	517.689	80.005	19.994	103.767	19.990	2.348	0.519
897.000	517.939	80.005	19.993	103.761	19.986	2.619	0.513
897.500	518.214	80.004	19.994	103.758	19.992	2.166	0.506
898.000	518.435	80.005	19.994	103.761	19.991	2.234	0.510
898.500	518.720	80.005	19.994	103.766	19.994	2.046	0.501
899.000	518.982	80.004	19.993	103.773	19.990	2.340	0.527
899.500	519.276	80.003	19.993	103.785	19.991	2.225	0.552
900.000	519.513	80.005	19.994	103.803	19.990	2.318	0.543
900.500	519.732	80.006	19.992	103.823	19.991	2.265	0.493
901.000	520.045	80.006	19.994	103.835	19.995	1.971	0.494
901.500	520.283	80.004	19.994	103.836	19.988	2.465	0.542
902.000	520.565	80.006	19.993	103.830	19.989	2.358	0.536
902.500	520.780	80.006	19.994	103.814	19.989	2.430	0.509
903.000	521.049	80.004	19.994	103.791	19.990	2.303	0.490
903.500	521.298	80.004	19.993	103.777	19.991	2.271	0.501
904.000	521.554	80.005	19.994	103.779	19.993	2.113	0.512
904.500	521.832	80.004	19.993	103.784	19.991	2.229	0.520
905.000	522.038	80.004	19.993	103.791	19.989	2.373	0.509
905.500	522.336	80.006	19.994	103.799	19.990	2.342	0.494
906.000	522.560	80.004	19.995	103.799	19.987	2.562	0.513
906.500	522.820	80.006	19.994	103.790	19.990	2.282	0.503
907.000	523.097	80.006	19.994	103.787	19.991	2.227	0.510
907.500	523.345	80.004	19.995	103.786	19.993	2.077	0.531
908.000	523.616	80.005	19.994	103.783	19.989	2.380	0.522
908.500	523.827	80.004	19.994	103.779	19.987	2.576	0.501
909.000	524.119	80.004	19.993	103.778	19.987	2.525	0.493
909.500	524.361	80.004	19.993	103.779	19.992	2.172	0.518
910.000	524.611	80.005	19.993	103.778	19.991	2.265	0.513
910.500	524.847	80.005	19.992	103.772	19.993	2.120	0.489
911.000	525.104	80.005	19.994	103.768	19.991	2.253	0.490
911.500	525.348	80.004	19.993	103.759	19.990	2.306	0.497
912.000	525.624	80.004	19.995	103.745	19.988	2.467	0.510
912.500	525.882	80.004	19.994	103.732	19.989	2.372	0.527
913.000	526.106	80.004	19.994	103.732	19.989	2.372	0.508
913.500	526.358	80.002	19.994	103.736	19.992	2.194	0.479
914.000	526.620	80.004	19.995	103.743	19.992	2.166	0.495
914.500	526.903	80.004	19.994	103.753	19.993	2.120	0.530
915.000	527.148	80.003	19.994	103.762	19.992	2.137	0.537
915.500	527.405	80.003	19.994	103.762	19.992	2.132	0.515
916.000	527.631	80.005	19.994	103.762	19.993	2.122	0.492
916.500	527.912	80.005	19.994	103.768	19.992	2.183	0.495
917.000	528.128	80.004	19.994	103.773	19.994	2.044	0.502
917.500	528.392	80.005	19.993	103.770	19.992	2.173	0.489
918.000	528.697	80.005	19.994	103.769	19.991	2.206	0.524
918.500	528.940	80.004	19.994	103.770	19.993	2.081	0.559
919.000	529.124	80.005	19.995	103.764	19.992	2.126	0.488
919.500	529.446	80.005	19.994	103.757	19.992	2.185	0.467
920.000	529.679	80.004	19.995	103.756	19.990	2.295	0.530
920.500	529.909	80.005	19.995	103.761	19.987	2.532	0.509
921.001	530.172	80.004	19.995	103.768	19.992	2.145	0.478
921.501	530.422	80.006	19.995	103.775	19.992	2.125	0.503
922.000	530.697	80.004	19.994	103.782	19.995	1.967	0.519
922.500	530.925	80.006	19.993	103.789	19.995	1.916	0.514
923.000	531.172	80.005	19.995	103.791	19.994	1.984	0.489
923.500	531.454	80.006	19.994	103.791	19.993	2.069	0.502
924.000	531.700	80.006	19.996	103.791	19.993	2.070	0.528
924.500	531.988	80.007	19.995	103.792	19.995	1.920	0.531
925.000	532.222	80.006	19.993	103.787	19.993	2.106	0.528
925.500	532.477	80.007	19.993	103.782	19.993	2.053	0.506
926.000	532.717	80.006	19.994	103.779	19.994	1.999	0.492
926.500	532.954	80.006	19.993	103.779	19.993	2.065	0.486
927.000	533.253	80.007	19.993	103.776	19.994	1.976	0.507
927.500	533.478	80.008	19.993	103.780	19.993	2.096	0.530
928.000	533.761	80.006	19.995	103.785	19.993	2.060	0.516
928.500	534.025	80.008	19.993	103.782	19.993	2.107	0.527
929.000	534.260	80.007	19.994	103.774	19.993	2.099	0.523
929.500	534.505	80.007	19.993	103.770	19.994	2.035	0.490
930.000	534.802	80.007	19.993	103.764	19.991	2.228	0.511
930.500	535.030	80.006	19.993	103.759	19.992	2.183	0.533
931.000	535.277	80.006	19.994	103.758	19.991	2.247	0.500
931.500	535.513	80.007	19.993	103.758	19.986	2.609	0.479
932.000	535.762	80.007	19.993	103.754	19.994	2.006	0.484
932.500	536.048	80.007	19.993	103.749	19.988	2.448	0.510
933.000	536.279	80.006	19.993	103.749	19.991	2.215	0.526
933.500	536.537	80.006	19.991	103.758	19.989	2.368	0.503
934.000	536.750	80.007	19.993	103.773	19.989	2.423	0.480
934.500	537.045	80.008	19.994	103.791	19.988	2.457	0.490
935.000	537.311	80.006	19.993	103.815	19.989	2.402	0.534
935.500	537.575	80.006	19.993	103.825	19.988	2.448	0.545
936.000	537.805	80.005	19.992	103.826	19.987	2.520	0.512
936.500	538.045	80.007	19.992	103.814	19.988	2.497	0.482
937.000	538.318	80.005	19.993	103.798	19.986	2.660	0.491
937.500	538.582	80.007	19.993	103.779	19.988	2.445	0.525
938.000	538.804	80.006	19.994	103.767	19.985	2.667	0.512
938.500	539.065	80.006	19.993	103.759	19.986	2.604	0.484
939.000	539.282	80.005	19.994	103.762	19.989	2.386	0.481
939.500	539.558	80.006	19.993	103.771	19.987	2.557	0.486
940.000	539.805	80.006	19.994	103.780	19.987	2.533	0.508
940.500	540.077	80.006	19.992	103.787	19.988	2.463	0.521
941.000	540.311	80.007	19.992	103.787	19.985	2.670	0.512
941.500	540.578	80.006	19.993	103.783	19.992	2.149	0.503
942.000	540.808	80.005	19.992	103.786	19.988	2.432	0.499
942.500	541.056	80.006	19.993	103.787	19.993	2.108	0.488
943.000	541.284	80.006	19.994	103.792	19.993	2.078	0.477
943.500	541.541	80.007	19.992	103.801	19.993	2.123	0.481
944.000	541.805	80.006	19.994	103.809	19.994	1.983	0.504
944.500	542.056	80.006	19.993	103.813	19.996	1.883	0.518
945.000	542.308	80.007	19.994	103.814	19.997	1.807	0.508
945.500	542.553	80.006	19.993	103.813	19.995	1.930	0.500
946.000	542.818	80.007	19.993	103.811	19.997	1.750	0.504
946.500	543.064	80.006	19.993	103.809	19.997	1.812	0.510
947.000	543.286	80.007	19.993	103.811	20.001	1.514	0.490
947.500	543.567	80.008	19.994	103.816	19.997	1.772	0.485
948.000	543.800	80.007	19.993	103.828	20.000	1.571	0.508
948.500	544.036	80.006	19.994	103.845	19.996	1.838	0.492
949.000	544.306	80.008	19.993	103.855	19.995	1.899	0.487
949.500	544.552	80.008	19.993	103.855	20.000	1.550	0.511
950.000	544.763	80.008	19.993	103.852	19.996	1.825	0.487
950.500	545.025	80.008	19.992	103.841	19.997	1.806	0.465
951.000	545.273	80.008	19.992	103.823	19.997	1.802	0.492
951.500	545.536	80.007	19.993	103.805	19.996	1.865	0.511
952.000	545.782	80.007	19.992	103.787	19.993	2.066	0.510
952.500	546.009	80.007	19.993	103.768	19.988	2.443	0.491
953.000	546.281	80.007	19.993	103.752	19.992	2.173	0.486
953.500	546.535	80.008	19.994	103.738	19.990	2.321	0.513
954.000	546.797	80.007	19.993	103.726	19.989	2.383	0.521
954.500	547.042	80.007	19.993	103.714	19.990	2.345	0.512
955.000	547.329	80.008	19.993	103.704	19.990	2.285	0.520
955.500	547.597	80.007	19.992	103.698	19.991	2.219	0.543
956.000	547.859	80.007	19.992	103.699	19.990	2.336	0.542
956.500	548.127	80.006	19.993	103.704	19.991	2.247	0.530
957.000	548.391	80.007	19.993	103.714	19.987	2.515	0.531
957.500	548.670	80.007	19.992	103.729	19.990	2.339	0.538
958.000	548.923	80.005	19.993	103.744	19.987	2.525	0.538
958.500	549.183	80.005	19.993	103.746	19.987	2.516	0.522
959.000	549.458	80.006	19.993	103.744	19.990	2.330	0.524
959.500	549.749	80.005	19.994	103.745	19.990	2.311	0.551
960.000	550.019	80.004	19.994	103.737	19.990	2.350	0.563
960.500	550.308	80.005	19.993	103.727	19.987	2.524	0.560
961.000	550.539	80.006	19.991	103.725	19.988	2.456	0.540
961.500	550.779	80.005	19.991	103.733	19.987	2.571	0.496
962.000	551.080	80.005	19.992	103.736	19.987	2.524	0.506
962.500	551.333	80.005	19.992	103.744	19.988	2.450	0.548
963.000	551.628	80.004	19.993	103.760	19.990	2.282	0.551
963.500	551.871	80.005	19.993	103.783	19.988	2.432	0.543
964.000	552.132	80.005	19.993	103.796	19.990	2.303	0.520
964.500	552.413	80.005	19.994	103.804	19.989	2.384	0.523
965.000	552.678	80.005	19.993	103.812	19.990	2.308	0.544
965.500	552.976	80.004	19.993	103.814	19.989	2.412	0.554
966.000	553.236	80.005	19.992	103.806	19.992	2.188	0.560
966.500	553.453	80.004	19.993	103.796	19.991	2.266	0.518
967.000	553.768	80.005	19.994	103.789	19.990	2.298	0.505
967.500	554.032	80.006	19.993	103.787	19.989	2.366	0.555
968.000	554.350	80.004	19.993	103.773	19.990	2.353	0.580
968.500	554.639	80.006	19.992	103.759	19.990	2.328	0.594
969.000	554.892	80.006	19.993	103.748	19.988	2.442	0.575
969.500	555.165	80.005	19.993	103.737	19.991	2.264	0.534
970.000	555.485	80.006	19.993	103.721	19.986	2.606	0.559
970.500	555.741	80.006	19.992	103.733	19.988	2.445	0.585
971.000	556.004	80.006	19.993	103.757	19.989	2.424	0.548
971.500	556.246	80.005	19.993	103.779	19.988	2.471	0.512
972.000	556.543	80.006	19.993	103.789	19.988	2.473	0.522
972.500	556.863	80.006	19.993	103.795	19.987	2.526	0.579
973.000	557.122	80.006	19.992	103.789	19.988	2.482	0.598
973.500	557.406	80.006	19.994	103.779	19.984	2.768	0.561
974.000	557.663	80.006	19.993	103.765	19.989	2.395	0.542
974.500	557.966	80.006	19.992	103.763	19.992	2.201	0.551
975.000	558.255	80.006	19.993	103.769	19.986	2.607	0.576
975.500	558.484	80.006	19.993	103.776	19.990	2.347	0.555
976.000	558.808	80.006	19.994	103.777	19.991	2.251	0.535
976.500	559.085	80.005	19.992	103.785	19.990	2.304	0.577
977.000	559.378	80.006	19.993	103.798	19.989	2.407	0.586
977.500	559.609	80.006	19.992	103.811	19.991	2.255	0.547
978.000	559.901	80.007	19.993	103.816	19.989	2.405	0.523
978.500	560.238	80.006	19.993	103.821	19.990	2.347	0.576
979.000	560.483	80.006	19.993	103.825	19.991	2.208	0.606
979.500	560.753	80.006	19.993	103.821	19.992	2.142	0.549
980.000	561.044	80.007	19.992	103.813	19.993	2.085	0.538
980.500	561.341	80.006	19.993	103.801	19.991	2.267	0.574
981.000	561.608	80.007	19.994	103.790	19.993	2.113	0.576
981.500	561.861	80.006	19.993	103.780	19.992	2.202	0.542
982.000	562.144	80.006	19.993	103.779	19.990	2.305	0.528
982.500	562.458	80.006	19.994	103.779	19.991	2.215	0.567
983.000	562.716	80.006	19.993	103.785	19.994	2.005	0.585
983.500	562.950	80.005	19.993	103.792	19.990	2.312	0.532
984.000	563.275	80.006	19.995	103.800	19.994	2.022	0.526
984.500	563.481	80.006	19.993	103.806	19.995	1.940	0.545
985.000	563.821	80.006	19.994	103.808	19.994	1.992	0.538
985.500	564.066	80.005	19.993	103.812	19.991	2.267	0.566
986.000	564.341	80.007	19.994	103.820	19.989	2.420	0.552
986.500	564.602	80.005	19.993	103.819	19.989	2.397	0.528
987.000	564.898	80.006	19.994	103.807	19.990	2.330	0.547
987.500	565.128	80.005	19.995	103.793	19.989	2.423	0.541
988.000	565.458	80.005	19.994	103.778	19.990	2.303	0.543
988.500	565.735	80.004	19.994	103.763	19.988	2.447	0.584
989.000	565.988	80.005	19.994	103.752	19.993	2.118	0.569
989.500	566.307	80.004	19.993	103.750	19.990	2.349	0.551
990.000	566.517	80.005	19.993	103.752	19.988	2.442	0.550
990.500	566.813	80.005	19.995	103.747	19.988	2.444	0.517
991.000	567.123	80.005	19.994	103.745	19.990	2.291	0.556
991.500	567.355	80.005	19.995	103.746	19.988	2.467	0.574
992.000	567.636	80.005	19.994	103.746	19.988	2.467	0.527
992.500	567.907	80.005	19.993	103.750	19.990	2.346	0.533
993.000	568.189	80.005	19.993	103.765	19.988	2.456	0.553
993.500	568.467	80.006	19.994	103.774	19.987	2.574	0.556
994.000	568.716	80.006	19.994	103.777	19.985	2.699	0.544
994.500	569.042	80.005	19.993	103.777	19.989	2.367	0.552
995.000	569.307	80.006	19.993	103.778	19.992	2.145	0.583
995.500	569.561	80.005	19.993	103.771	19.989	2.424	0.555
996.000	569.827	80.005	19.994	103.763	19.989	2.430	0.519
996.500	570.155	80.003	19.993	103.763	19.992	2.149	0.557
997.000	570.405	80.004	19.993	103.772	19.992	2.198	0.586
997.500	570.678	80.006	19.995	103.787	19.994	2.046	0.551
998.000	570.952	80.005	19.995	103.802	19.992	2.183	0.535
998.500	571.244	80.004	19.995	103.818	19.993	2.115	0.556
999.000	571.460	80.005	19.994	103.828	19.993	2.069	0.537
999.500	571.750	80.005	19.994	103.827	19.992	2.162	0.507
1000.000	571.999	80.005	19.994	103.821	19.991	2.274	0.522
1000.500	572.295	80.006	19.993	103.813	19.990	2.350	0.542
1001.000	572.533	80.006	19.993	103.806	19.991	2.261	0.540
1001.500	572.826	80.005	19.995	103.800	19.992	2.172	0.533
1002.000	573.113	80.006	19.993	103.794	19.992	2.198	0.555
1002.500	573.399	80.004	19.993	103.789	19.991	2.272	0.577
1003.000	573.721	80.006	19.994	103.786	19.991	2.233	0.590
1003.500	573.912	80.006	19.993	103.779	19.992	2.178	0.560
1004.000	574.263	80.005	19.994	103.772	19.997	1.768	0.527
1004.500	574.505	80.005	19.993	103.769	19.995	1.904	0.567
1005.000	574.773	80.006	19.995	103.766	19.997	1.815	0.551
1005.500	575.046	80.006	19.994	103.763	19.993	2.107	0.526
1006.000	575.334	80.005	19.993	103.762	19.994	2.035	0.552
1006.501	575.609	80.006	19.993	103.762	19.993	2.069	0.562
1007.000	575.881	80.007	19.994	103.764	19.991	2.251	0.555
1007.500	576.139	80.006	19.993	103.768	19.992	2.151	0.539
1008.000	576.353	80.007	19.993	103.772	19.993	2.111	0.501
1008.500	576.670	80.005	19.994	103.775	19.991	2.257	0.502
1009.000	576.955	80.006	19.994	103.780	19.990	2.308	0.566
1009.500	577.240	80.007	19.994	103.780	19.988	2.456	0.585
1010.000	577.528	80.006	19.994	103.776	19.989	2.371	0.571
1010.500	577.732	80.007	19.994	103.772	19.989	2.375	0.533
1011.000	578.019	80.006	19.995	103.767	19.992	2.128	0.492
1011.500	578.305	80.006	19.993	103.763	19.991	2.276	0.532
1012.000	578.604	80.007	19.994	103.761	19.992	2.200	0.579
1012.501	578.806	80.006	19.995	103.760	19.987	2.557	0.543
1013.000	579.066	80.005	19.993	103.760	19.987	2.519	0.481
1013.500	579.391	80.007	19.993	103.760	19.991	2.274	0.523
1014.000	579.631	80.005	19.994	103.759	19.987	2.519	0.575
1014.500	579.869	80.006	19.993	103.759	19.989	2.357	0.521
1015.000	580.139	80.005	19.994	103.758	19.988	2.467	0.493
1015.500	580.459	80.006	19.994	103.759	19.992	2.156	0.549
1016.000	580.639	80.006	19.995	103.759	19.988	2.450	0.546
1016.501	580.937	80.005	19.994	103.761	19.992	2.175	0.489
1017.001	581.199	80.006	19.994	103.762	19.993	2.069	0.519
1017.501	581.505	80.005	19.994	103.764	19.987	2.562	0.564
1018.000	581.800	80.005	19.995	103.765	19.988	2.448	0.584
1018.500	582.027	80.005	19.994	103.768	19.991	2.239	0.561
1019.000	582.329	80.004	19.994	103.770	19.994	2.010	0.525
1019.500	582.581	80.007	19.995	103.773	19.988	2.437	0.541
1020.000	582.794	80.005	19.994	103.771	19.995	1.944	0.510
1020.500	583.156	80.005	19.994	103.770	19.998	1.707	0.520
1021.000	583.295	80.007	19.994	103.768	19.979	3.172	0.538
1021.500	583.638	80.006	19.994	103.765	20.000	1.582	0.492
1022.000	583.922	80.006	19.993	103.762	20.005	1.170	0.554
1022.500	584.202	80.006	19.994	103.762	19.987	2.564	0.596
1023.000	584.370	80.006	19.994	103.762	19.991	2.240	0.506
1023.500	584.662	80.006	19.993	103.761	19.991	2.252	0.454
1024.000	584.967	80.006	19.994	103.763	19.988	2.464	0.528
1024.500	585.232	80.006	19.994	103.770	19.992	2.157	0.583
1025.000	585.462	80.006	19.993	103.777	19.989	2.377	0.532
1025.500	585.786	80.006	19.993	103.782	19.988	2.447	0.524
1026.000	586.046	80.007	19.992	103.788	19.990	2.344	0.569
1026.501	586.214	80.007	19.993	103.793	19.991	2.215	0.507
1027.001	586.551	80.008	19.992	103.794	19.994	2.012	0.467
1027.500	586.925	80.006	19.993	103.793	19.989	2.384	0.608
1028.000	587.076	80.007	19.993	103.796	19.990	2.297	0.618
1028.500	587.350	80.007	19.993	103.797	19.994	2.041	0.475
1029.000	587.680	80.006	19.992	103.798	19.995	1.933	0.515
1029.500	588.015	80.008	19.991	103.798	19.991	2.257	0.635
1030.001	588.139	80.007	19.992	103.798	19.993	2.117	0.562
1030.501	588.469	80.009	19.993	103.800	19.993	2.083	0.457
1031.001	588.765	80.007	19.993	103.800	19.992	2.200	0.540
1031.501	588.976	80.009	19.993	103.800	19.993	2.066	0.566
1032.000	589.328	80.007	19.993	103.796	19.991	2.210	0.535
1032.500	589.269	80.009	19.993	103.788	19.991	2.214	0.428
1033.000	590.213	80.008	19.992	103.779	19.991	2.221	0.589
1033.500	589.777	80.007	19.993	103.770	19.988	2.447	0.697
1034.000	590.925	80.009	19.993	103.763	19.991	2.272	0.611
1034.500	590.671	80.006	19.993	103.759	19.994	2.035	0.803
1035.000	590.484	80.007	19.992	103.758	19.993	2.117	0.226
1035.500	591.761	80.007	19.992	103.759	19.991	2.227	0.324
1036.000	592.105	80.009	19.992	103.760	19.993	2.062	1.355
1036.500	591.574	80.008	19.992	103.765	19.994	1.984	0.718
1037.000	592.147	80.008	19.992	103.769	19.995	1.948	-0.072
1037.500	592.303	80.008	19.993	103.768	19.992	2.170	0.386
1038.000	592.446	80.008	19.992	103.768	19.994	1.973	0.514
1038.501	592.855	80.007	19.992	103.766	19.993	2.060	0.425
1039.001	592.971	80.007	19.993	103.760	19.995	1.938	0.538
1039.500	593.269	80.008	19.992	103.756	19.993	2.096	0.470
1040.000	593.596	80.006	19.994	103.756	19.990	2.346	0.519
1040.500	593.775	80.007	19.993	103.757	19.995	1.942	0.565
1041.000	594.316	80.006	19.993	103.757	19.991	2.221	0.614
1041.500	594.459	80.005	19.993	103.757	19.994	2.039	0.702
1042.000	594.672	80.006	19.993	103.757	19.994	2.003	0.520
1042.500	594.845	80.006	19.994	103.757	19.992	2.198	0.371
1043.000	595.308	80.006	19.994	103.757	19.993	2.056	0.511
1043.500	595.379	80.006	19.992	103.760	19.991	2.265	0.585
1044.000	595.748	80.005	19.993	103.763	19.990	2.301	0.488
1044.501	596.028	80.006	19.994	103.769	19.992	2.157	0.545
1045.001	596.271	80.006	19.993	103.775	19.992	2.151	0.586
1045.500	596.518	80.006	19.993	103.777	19.992	2.187	0.506
1046.000	596.806	80.006	19.993	103.775	19.992	2.158	0.512
1046.500	597.061	80.006	19.993	103.772	19.991	2.221	0.540
1047.000	597.433	80.006	19.994	103.764	19.993	2.109	0.585
1047.500	597.519	80.005	19.992	103.751	19.989	2.361	0.542
1048.001	597.846	80.006	19.993	103.746	19.994	2.039	0.435
1048.501	597.998	80.004	19.992	103.745	19.988	2.439	0.446
1049.001	598.408	80.005	19.994	103.751	19.988	2.437	0.521
1049.500	598.637	80.005	19.993	103.761	19.989	2.394	0.601
1050.000	598.909	80.005	19.993	103.776	19.990	2.314	0.570
1050.500	599.177	80.006	19.993	103.782	19.990	2.324	0.520
1051.000	599.462	80.005	19.993	103.790	19.989	2.407	0.546
1051.500	599.619	80.006	19.994	103.788	19.991	2.231	0.497
1052.000	600.002	80.007	19.994	103.784	19.989	2.401	0.491
1052.500	600.155	80.007	19.994	103.778	19.990	2.310	0.538
1053.000	600.520	80.007	19.994	103.776	19.991	2.206	0.527
1053.500	600.740	80.005	19.993	103.768	19.988	2.473	0.552
1054.001	600.943	80.005	19.993	103.765	19.994	2.039	0.504
1054.501	601.270	80.006	19.993	103.761	19.989	2.371	0.476
1055.000	601.477	80.007	19.992	103.758	19.986	2.642	0.532
1055.500	601.749	80.006	19.993	103.757	19.993	2.101	0.507
1056.000	602.026	80.007	19.992	103.763	19.994	2.037	0.514
1056.500	602.307	80.006	19.992	103.769	19.994	1.976	0.553
1057.001	602.553	80.005	19.993	103.777	19.993	2.109	0.542
1057.501	602.767	80.006	19.994	103.784	19.995	1.954	0.493
1058.001	603.021	80.006	19.992	103.792	19.991	2.212	0.464
1058.500	603.283	80.006	19.993	103.793	19.989	2.371	0.492
1059.000	603.600	80.008	19.993	103.786	19.992	2.161	0.548
1059.500	603.835	80.007	19.993	103.780	19.992	2.197	0.565
1060.000	604.040	80.007	19.993	103.772	19.990	2.286	0.496
1060.501	604.340	80.007	19.993	103.765	19.992	2.170	0.473
1061.001	604.609	80.008	19.993	103.758	19.988	2.432	0.537
1061.500	604.851	80.006	19.994	103.758	19.992	2.153	0.540
1062.000	605.109	80.007	19.993	103.758	19.994	1.982	0.506
1062.500	605.343	80.008	19.993	103.758	19.995	1.944	0.496
1063.000	605.628	80.007	19.993	103.760	19.993	2.115	0.505
1063.500	605.886	80.006	19.992	103.760	19.993	2.049	0.531
1064.000	606.095	80.006	19.992	103.760	19.993	2.075	0.505
1064.500	606.413	80.006	19.993	103.761	19.992	2.128	0.497
1065.000	606.691	80.006	19.993	103.767	19.994	2.011	0.562
1065.500	606.955	80.006	19.993	103.773	19.995	1.946	0.569
1066.000	607.189	80.006	19.993	103.779	19.994	2.007	0.520
1066.500	607.462	80.005	19.993	103.782	19.991	2.248	0.503
1067.001	607.753	80.008	19.993	103.782	19.994	1.977	0.536
1067.501	607.971	80.006	19.993	103.776	19.991	2.240	0.536
1068.000	608.262	80.005	19.993	103.762	19.990	2.339	0.509
1068.500	608.472	80.006	19.993	103.748	19.987	2.528	0.505
1069.000	608.756	80.004	19.994	103.743	19.992	2.187	0.498
1069.500	609.014	80.007	19.992	103.743	19.990	2.281	0.518
1070.000	609.272	80.006	19.993	103.745	19.988	2.506	0.529
1070.500	609.542	80.005	19.993	103.751	19.992	2.132	0.522
1071.000	609.805	80.005	19.993	103.759	19.991	2.262	0.530
1071.500	610.129	80.005	19.994	103.761	19.990	2.291	0.560
1072.000	610.347	80.006	19.993	103.761	19.991	2.249	0.564
1072.500	610.606	80.004	19.993	103.761	19.988	2.485	0.509
1073.000	610.889	80.005	19.993	103.759	19.991	2.268	0.510
1073.500	611.145	80.005	19.993	103.759	19.988	2.504	0.540
1074.000	611.399	80.005	19.993	103.757	19.991	2.233	0.525
1074.500	611.683	80.006	19.993	103.757	19.990	2.296	0.524
1075.001	611.937	80.003	19.994	103.758	19.992	2.188	0.538
1075.501	612.207	80.005	19.994	103.760	19.990	2.309	0.531
1076.000	612.492	80.006	19.993	103.761	19.988	2.492	0.539
1076.500	612.766	80.005	19.993	103.762	19.991	2.217	0.557
1077.000	613.005	80.004	19.993	103.763	19.994	2.034	0.536
1077.500	613.279	80.005	19.993	103.760	19.991	2.268	0.513
1078.000	613.531	80.005	19.993	103.757	19.993	2.105	0.519
1078.500	613.802	80.005	19.994	103.757	19.991	2.234	0.525
1079.001	614.091	80.005	19.992	103.758	19.992	2.164	0.542
1079.501	614.337	80.006	19.993	103.765	19.993	2.049	0.547
1080.001	614.578	80.005	19.993	103.777	19.992	2.140	0.511
1080.501	614.863	80.006	19.993	103.799	19.991	2.231	0.506
1081.001	615.121	80.005	19.994	103.826	19.993	2.081	0.534
1081.500	615.394	80.006	19.994	103.860	19.990	2.350	0.537
1082.001	615.611	80.005	19.994	103.886	19.993	2.098	0.511
1082.501	615.882	80.005	19.993	103.897	19.995	1.960	0.489
1083.001	616.188	80.005	19.992	103.883	19.992	2.189	0.532
1083.501	616.442	80.007	19.994	103.849	19.993	2.074	0.569
1084.000	616.685	80.005	19.993	103.806	19.993	2.066	0.528
1084.500	616.962	80.005	19.993	103.765	19.994	2.007	0.509
1085.000	617.206	80.006	19.994	103.735	19.992	2.178	0.521
1085.500	617.465	80.007	19.992	103.723	19.990	2.309	0.512
1086.000	617.736	80.006	19.993	103.732	19.993	2.104	0.516
1086.500	617.983	80.007	19.993	103.749	19.992	2.125	0.524
1087.000	618.277	80.007	19.994	103.772	19.995	1.922	0.530
1087.500	618.533	80.007	19.995	103.797	19.995	1.958	0.546
1088.000	618.783	80.007	19.995	103.815	19.991	2.237	0.528
1088.500	619.044	80.006	19.994	103.814	19.994	2.030	0.508
1089.000	619.337	80.007	19.993	103.805	19.994	2.013	0.533
1089.500	619.577	80.007	19.993	103.785	19.992	2.170	0.544
1090.000	619.819	80.008	19.993	103.763	19.993	2.087	0.508
1090.501	620.080	80.007	19.993	103.746	19.993	2.091	0.492
1091.001	620.347	80.006	19.993	103.745	19.990	2.315	0.516
1091.500	620.635	80.007	19.993	103.746	19.992	2.178	0.542
1092.000	620.875	80.006	19.994	103.751	19.991	2.237	0.541
1092.500	621.124	80.007	19.992	103.756	19.987	2.569	0.508
1093.000	621.388	80.006	19.992	103.754	19.992	2.201	0.501
1093.500	621.636	80.007	19.993	103.746	19.989	2.396	0.512
1094.000	621.886	80.007	19.994	103.737	19.990	2.292	0.505
1094.500	622.146	80.008	19.993	103.728	19.993	2.104	0.504
1095.000	622.432	80.007	19.993	103.724	19.990	2.351	0.528
1095.500	622.658	80.006	19.993	103.728	19.991	2.248	0.529
1096.000	622.914	80.007	19.993	103.728	19.992	2.136	0.497
1096.500	623.175	80.007	19.993	103.730	19.990	2.288	0.500
1097.000	623.439	80.007	19.994	103.738	19.992	2.193	0.521
1097.500	623.661	80.007	19.993	103.743	19.993	2.117	0.506
1098.000	623.934	80.006	19.993	103.739	19.993	2.064	0.490
1098.501	624.215	80.007	19.993	103.742	19.990	2.354	0.524
1099.001	624.463	80.006	19.994	103.745	19.992	2.183	0.542
1099.500	624.717	80.006	19.994	103.743	19.992	2.155	0.516
1100.000	624.942	80.006	19.993	103.742	19.992	2.181	0.490
1100.501	625.207	80.007	19.994	103.742	19.988	2.462	0.484
1101.001	625.456	80.006	19.993	103.738	19.995	1.950	0.502
1101.500	625.756	80.006	19.994	103.735	19.990	2.339	0.531
1102.000	625.955	80.006	19.994	103.735	19.992	2.153	0.524
1102.501	626.231	80.005	19.995	103.736	19.990	2.350	0.487
1103.001	626.486	80.007	19.993	103.742	19.991	2.234	0.503
1103.501	626.733	80.007	19.993	103.743	19.990	2.317	0.517
1104.000	626.995	80.006	19.994	103.741	19.992	2.203	0.506
1104.501	627.261	80.006	19.994	103.738	19.987	2.528	0.519
1105.001	627.480	80.006	19.993	103.737	19.987	2.554	0.506
1105.501	627.746	80.006	19.996	103.736	19.990	2.323	0.484
1106.001	627.995	80.007	19.993	103.736	19.986	2.587	0.500
1106.501	628.257	80.006	19.994	103.743	19.995	1.899	0.513
1107.000	628.482	80.006	19.994	103.749	19.992	2.163	0.499
1107.500	628.724	80.007	19.994	103.751	19.996	1.846	0.477
1108.000	628.992	80.007	19.993	103.753	19.992	2.199	0.488
1108.501	629.259	80.006	19.994	103.761	19.994	2.002	0.523
1109.001	629.533	80.007	19.994	103.761	19.997	1.746	0.538
1109.500	629.737	80.006	19.994	103.760	19.995	1.913	0.510
1110.000	629.982	80.007	19.995	103.760	19.995	1.964	0.463
1110.500	630.249	80.006	19.995	103.759	19.993	2.085	0.480
1111.000	630.474	80.007	19.994	103.757	19.994	2.002	0.502
1111.500	630.778	80.007	19.994	103.757	19.991	2.271	0.511
1112.000	630.999	80.005	19.994	103.759	19.995	1.908	0.527
1112.500	631.239	80.007	19.994	103.766	19.994	2.013	0.493
1113.001	631.510	80.007	19.993	103.775	19.994	1.986	0.486
1113.501	631.745	80.008	19.994	103.785	19.996	1.865	0.509
1114.001	632.035	80.008	19.993	103.800	19.996	1.851	0.516
1114.501	632.295	80.008	19.995	103.807	19.994	2.011	0.537
1115.000	632.504	80.008	19.994	103.807	19.997	1.819	0.509
1115.500	632.764	80.009	19.994	103.802	19.994	2.007	0.469
1116.000	632.981	80.007	19.993	103.792	19.994	2.018	0.473
1116.500	633.225	80.006	19.992	103.774	19.994	1.978	0.469
1117.000	633.488	80.007	19.995	103.760	19.992	2.142	0.485
1117.500	633.765	80.008	19.994	103.746	19.995	1.935	0.524
1118.000	633.995	80.008	19.994	103.739	19.992	2.170	0.523
1118.500	634.244	80.008	19.992	103.734	19.995	1.920	0.493
1119.000	634.515	80.008	19.993	103.730	19.993	2.075	0.500
1119.500	634.715	80.007	19.993	103.727	19.991	2.208	0.495
1120.000	635.004	80.007	19.994	103.725	19.995	1.946	0.479
1120.500	635.225	80.006	19.993	103.721	19.994	1.992	0.500
1121.000	635.505	80.006	19.993	103.721	19.996	1.831	0.506
1121.500	635.715	80.006	19.992	103.729	19.997	1.774	0.496
1122.001	635.948	80.007	19.994	103.737	19.998	1.690	0.466
1122.501	636.187	80.008	19.993	103.741	19.995	1.969	0.457
1123.000	636.462	80.005	19.994	103.747	19.995	1.897	0.493
1123.500	636.667	80.006	19.992	103.747	19.991	2.214	0.497
1124.000	636.880	80.007	19.993	103.747	19.993	2.123	0.449
1124.500	637.175	80.007	19.993	103.748	19.992	2.165	0.463
1125.001	637.364	80.006	19.993	103.755	19.992	2.146	0.496
1125.501	637.594	80.005	19.993	103.764	19.990	2.309	0.451
1126.000	637.909	80.007	19.993	103.774	19.991	2.244	0.482
1126.500	638.114	80.005	19.993	103.772	19.993	2.119	0.533
1127.000	638.356	80.006	19.994	103.766	19.993	2.088	0.484
1127.500	638.626	80.006	19.993	103.761	19.991	2.224	0.480
1128.000	638.891	80.007	19.992	103.753	19.990	2.304	0.523
1128.500	639.106	80.006	19.993	103.749	19.991	2.207	0.507
1129.000	639.345	80.005	19.993	103.753	19.991	2.214	0.467
1129.501	639.567	80.006	19.994	103.762	19.997	1.784	0.458
1130.001	639.770	80.006	19.993	103.764	19.991	2.228	0.443
1130.501	640.035	80.006	19.994	103.759	19.990	2.302	0.447
1131.000	640.274	80.007	19.992	103.751	19.990	2.298	0.486
1131.500	640.505	80.005	19.994	103.745	19.992	2.143	0.486
1132.001	640.794	80.006	19.993	103.742	19.991	2.221	0.495
1132.501	641.023	80.005	19.993	103.741	19.987	2.539	0.519
1133.000	641.268	80.006	19.993	103.744	19.986	2.645	0.496
1133.500	641.466	80.005	19.994	103.746	19.990	2.327	0.459
1134.000	641.746	80.005	19.993	103.741	19.989	2.374	0.460
1134.500	642.003	80.005	19.993	103.731	19.993	2.109	0.507
1135.000	642.224	80.005	19.994	103.724	19.986	2.602	0.508
1135.500	642.487	80.008	19.993	103.721	19.990	2.291	0.481
1136.000	642.718	80.004	19.993	103.721	19.991	2.221	0.489
1136.500	642.951	80.005	19.993	103.726	19.992	2.180	0.479
1137.001	643.147	80.005	19.993	103.738	19.997	1.800	0.446
1137.501	643.380	80.006	19.993	103.754	20.000	1.565	0.429
1138.000	643.584	80.004	19.993	103.769	20.002	1.425	0.433
1138.500	643.849	80.005	19.992	103.788	20.006	1.108	0.453
1139.000	644.057	80.004	19.993	103.809	20.010	0.804	0.471
1139.500	644.312	80.004	19.992	103.822	20.009	0.836	0.468
1140.000	644.559	80.005	19.993	103.826	20.005	1.144	0.483
1140.500	644.753	80.005	19.992	103.824	20.007	1.043	0.471
1141.000	644.989	80.004	19.993	103.814	20.009	0.873	0.435
1141.500	645.235	80.004	19.993	103.799	20.011	0.740	0.456
1142.000	645.511	80.005	19.995	103.788	20.011	0.687	0.502
1142.500	645.715	80.006	19.993	103.781	20.011	0.696	0.501
1143.000	645.972	80.005	19.994	103.781	20.008	0.924	0.471
1143.500	646.223	80.005	19.993	103.785	20.008	0.939	0.485
1144.001	646.440	80.006	19.993	103.788	20.007	1.040	0.488
1144.501	646.599	80.004	19.993	103.788	20.005	1.146	0.422
1145.000	647.049	80.003	19.993	103.788	20.006	1.106	0.492
1145.500	647.138	80.006	19.993	103.780	20.003	1.347	0.574
1146.001	646.951	80.003	19.993	103.773	20.003	1.299	0.221
1146.501	646.992	80.005	19.994	103.770	20.003	1.314	-0.122
1147.001	647.757	80.005	19.992	103.761	20.001	1.513	0.330
1147.501	648.087	80.007	19.993	103.749	19.998	1.733	0.950
1148.000	648.329	80.005	19.994	103.748	20.002	1.432	0.834
1148.500	648.647	80.004	19.995	103.752	19.998	1.716	0.567
1149.000	648.798	80.004	19.994	103.757	19.996	1.825	0.514
1149.500	649.029	80.003	19.994	103.771	19.998	1.722	0.425
1150.000	649.253	80.005	19.992	103.783	19.993	2.121	0.419
1150.500	649.460	80.003	19.992	103.787	19.994	2.007	0.443
1151.000	649.684	80.006	19.992	103.780	19.994	2.024	0.430
1151.500	649.959	80.005	19.993	103.767	19.995	1.906	0.465
1152.000	650.252	80.003	19.994	103.752	19.993	2.092	0.534
1152.500	650.505	80.005	19.994	103.741	19.991	2.257	0.557
1153.000	650.711	80.004	19.994	103.734	19.992	2.143	0.503
1153.500	650.924	80.005	19.992	103.733	19.990	2.316	0.439
1154.000	651.178	80.004	19.992	103.737	19.989	2.390	0.443
1154.500	651.436	80.004	19.993	103.744	19.988	2.472	0.490
1155.001	651.658	80.004	19.992	103.748	19.990	2.297	0.496
1155.501	651.900	80.004	19.993	103.753	19.989	2.411	0.472
1156.000	652.115	80.006	19.993	103.762	19.991	2.208	0.461
1156.500	652.405	80.003	19.992	103.771	19.988	2.470	0.481
1157.000	652.622	80.004	19.992	103.774	19.987	2.525	0.506
1157.500	652.863	80.005	19.994	103.780	19.989	2.372	0.483
1158.000	653.105	80.003	19.992	103.787	19.990	2.345	0.470
1158.500	653.342	80.005	19.993	103.783	19.990	2.351	0.480
1159.000	653.587	80.004	19.992	103.779	19.991	2.258	0.480
1159.500	653.859	80.005	19.992	103.777	19.992	2.174	0.500
1160.000	654.084	80.004	19.992	103.770	19.990	2.284	0.507
1160.500	654.326	80.005	19.993	103.762	19.995	1.927	0.482
1161.000	654.538	80.003	19.992	103.759	19.994	2.039	0.460
1161.500	654.824	80.005	19.993	103.761	19.994	2.032	0.476
1162.000	655.080	80.005	19.992	103.768	19.995	1.905	0.520
1162.500	655.287	80.004	19.994	103.774	19.994	2.042	0.503
1163.000	655.575	80.006	19.992	103.776	19.995	1.958	0.480
1163.500	655.796	80.006	19.992	103.778	19.996	1.888	0.502
1164.000	656.034	80.005	19.993	103.775	19.994	1.988	0.484
1164.500	656.314	80.006	19.992	103.768	19.992	2.144	0.489
1165.000	656.533	80.006	19.993	103.761	19.989	2.358	0.508
1165.500	656.805	80.005	19.993	103.760	19.993	2.060	0.495
1166.000	657.042	80.006	19.992	103.759	19.993	2.079	0.500
1166.500	657.300	80.006	19.993	103.759	19.994	2.045	0.503
1167.000	657.506	80.006	19.993	103.753	19.992	2.164	0.480
1167.500	657.770	80.005	19.993	103.748	19.990	2.339	0.466
1168.000	658.018	80.007	19.993	103.740	19.994	2.018	0.491
1168.500	658.265	80.006	19.993	103.732	19.992	2.193	0.504
1169.000	658.531	80.008	19.993	103.727	19.991	2.216	0.505
1169.500	658.795	80.006	19.994	103.731	19.990	2.335	0.522
1170.000	659.046	80.005	19.994	103.734	19.987	2.568	0.522
1170.500	659.301	80.007	19.994	103.742	19.990	2.295	0.511
1171.000	659.512	80.007	19.994	103.749	19.988	2.432	0.486
1171.500	659.804	80.006	19.993	103.751	19.986	2.591	0.484
1172.000	660.061	80.005	19.994	103.745	19.986	2.629	0.525
1172.500	660.277	80.006	19.995	103.735	19.987	2.564	0.511
1173.000	660.570	80.006	19.994	103.725	19.986	2.625	0.491
1173.500	660.842	80.006	19.995	103.717	19.987	2.566	0.537
1174.000	661.075	80.007	19.995	103.718	19.990	2.289	0.535
1174.500	661.354	80.006	19.994	103.727	19.979	3.193	0.509
1175.000	661.570	80.005	19.994	103.738	19.981	3.021	0.504
1175.500	661.827	80.005	19.994	103.749	19.990	2.355	0.484
1176.000	662.142	80.006	19.993	103.757	19.982	2.894	0.523
1176.500	662.373	80.003	19.993	103.760	19.983	2.881	0.559
1177.000	662.639	80.004	19.994	103.757	19.988	2.496	0.522
1177.500	662.906	80.005	19.994	103.757	19.988	2.502	0.514
1178.000	663.157	80.006	19.995	103.756	19.986	2.601	0.525
1178.500	663.425	80.005	19.995	103.755	19.987	2.529	0.518
1179.000	663.643	80.005	19.994	103.755	19.986	2.612	0.503
1179.500	663.942	80.005	19.994	103.756	19.988	2.489	0.502
1180.000	664.168	80.005	19.995	103.757	19.989	2.402	0.521
1180.500	664.438	80.005	19.995	103.756	19.987	2.546	0.510
1181.000	664.697	80.006	19.994	103.757	19.989	2.356	0.513
1181.500	664.959	80.005	19.994	103.757	19.987	2.522	0.525
1182.000	665.227	80.006	19.994	103.757	19.990	2.321	0.525
1182.500	665.506	80.005	19.994	103.757	19.989	2.361	0.538
1183.001	665.764	80.006	19.993	103.760	19.987	2.542	0.541
1183.501	666.013	80.006	19.994	103.765	19.986	2.631	0.522
1184.001	666.260	80.005	19.994	103.772	19.990	2.349	0.502
1184.501	666.566	80.006	19.995	103.781	19.989	2.368	0.525
1185.001	666.831	80.005	19.993	103.789	19.988	2.431	0.562
1185.501	667.068	80.006	19.993	103.794	19.992	2.196	0.537
1186.000	667.356	80.007	19.993	103.796	19.991	2.271	0.514
1186.500	667.601	80.006	19.993	103.796	19.987	2.514	0.530
1187.000	667.864	80.007	19.993	103.789	19.992	2.151	0.521
1187.501	668.144	80.005	19.993	103.781	19.994	2.026	0.525
1188.001	668.543	80.006	19.994	103.774	19.991	2.278	0.611
1188.500	668.570	80.007	19.993	103.765	19.995	1.933	0.553
1189.000	668.573	80.006	19.992	103.755	19.989	2.409	0.228
1189.501	669.465	80.007	19.993	103.749	19.992	2.138	0.462
1190.001	669.335	80.006	19.993	103.743	19.993	2.123	0.828
1190.500	669.666	80.007	19.993	103.741	19.991	2.259	0.482
1191.000	669.989	80.007	19.994	103.745	19.992	2.159	0.428
1191.501	670.216	80.006	19.993	103.756	19.996	1.867	0.602
1192.001	670.483	80.006	19.993	103.765	19.989	2.358	0.521
1192.500	670.725	80.008	19.994	103.778	19.989	2.398	0.501
1193.000	670.971	80.007	19.994	103.783	19.990	2.305	0.499
1193.501	671.247	80.007	19.993	103.776	19.985	2.680	0.505
1194.001	671.525	80.008	19.994	103.761	19.987	2.563	0.538
1194.500	671.783	80.007	19.993	103.743	19.986	2.591	0.545
1195.000	672.036	80.009	19.993	103.723	19.986	2.650	0.524
1195.500	672.298	80.008	19.994	103.708	19.990	2.333	0.513
1196.000	672.546	80.007	19.993	103.704	19.986	2.593	0.512
1196.500	672.792	80.006	19.993	103.705	19.986	2.642	0.502
1197.000	673.064	80.007	19.993	103.717	19.990	2.281	0.506
1197.500	673.309	80.006	19.993	103.731	19.989	2.416	0.518
1198.000	673.583	80.006	19.993	103.747	19.992	2.145	0.518
1198.500	673.846	80.006	19.995	103.757	19.990	2.296	0.528
1199.001	674.115	80.005	19.995	103.764	19.992	2.173	0.534
1199.501	674.370	80.006	19.994	103.764	19.989	2.431	0.528
1200.000	674.613	80.007	19.992	103.764	19.990	2.301	0.511
1200.500	674.898	80.004	19.994	103.759	19.990	2.303	0.513
1201.000	675.145	80.006	19.993	103.757	19.992	2.163	0.530
1201.500	675.416	80.006	19.994	103.756	19.989	2.362	0.525
1202.000	675.708	80.006	19.993	103.757	19.990	2.292	0.541
1202.500	676.012	80.004	19.994	103.754	19.990	2.326	0.580
1203.000	676.230	80.004	19.994	103.755	19.989	2.396	0.559
1203.500	676.494	80.005	19.995	103.755	19.991	2.210	0.502
1204.001	676.758	80.004	19.994	103.757	19.991	2.265	0.505
1204.501	677.029	80.003	19.994	103.757	19.990	2.307	0.531
1205.000	677.275	80.004	19.995	103.761	19.990	2.303	0.526
1205.500	677.522	80.003	19.994	103.760	19.990	2.284	0.505
1206.000	677.788	80.004	19.994	103.763	19.988	2.497	0.503
1206.500	678.055	80.004	19.994	103.770	19.993	2.049	0.523
1207.001	678.333	80.003	19.995	103.777	19.987	2.558	0.539
1207.501	678.584	80.004	19.995	103.785	19.993	2.117	0.537
1208.000	678.855	80.004	19.995	103.792	19.992	2.129	0.525
1208.500	679.157	80.003	19.995	103.797	19.997	1.816	0.548
1209.000	679.274	80.003	19.995	103.797	19.996	1.895	0.496
1209.500	679.585	80.004	19.995	103.792	19.997	1.783	0.423
1210.000	679.842	80.004	19.994	103.784	19.996	1.846	0.498
1210.501	680.115	80.003	19.993	103.777	19.995	1.903	0.549
1211.001	680.374	80.002	19.994	103.768	19.995	1.901	0.531
1211.500	680.602	80.004	19.993	103.753	19.996	1.857	0.509
1212.000	680.915	80.003	19.993	103.744	19.994	2.005	0.514
1212.500	681.122	80.004	19.994	103.737	19.994	1.983	0.531
1213.000	681.420	80.004	19.994	103.735	19.992	2.131	0.512
1213.500	681.672	80.005	19.994	103.737	19.994	1.975	0.527
1214.000	681.907	80.005	19.993	103.744	19.991	2.210	0.519
1214.500	682.187	80.004	19.994	103.752	19.993	2.087	0.501
1215.000	682.462	80.005	19.993	103.756	19.990	2.309	0.535
1215.501	682.765	80.005	19.993	103.757	19.992	2.150	0.566
1216.001	682.947	80.005	19.993	103.754	19.989	2.394	0.532
1216.500	683.213	80.005	19.994	103.747	19.993	2.051	0.467
1217.000	683.483	80.006	19.993	103.740	19.991	2.273	0.492
1217.500	683.727	80.005	19.993	103.735	19.989	2.356	0.525
1218.001	684.004	80.006	19.993	103.729	19.993	2.121	0.518
1218.501	684.246	80.005	19.993	103.729	19.990	2.280	0.521
1219.001	684.504	80.006	19.993	103.734	19.989	2.365	0.510
1219.500	684.795	80.006	19.992	103.738	19.989	2.365	0.524
1220.000	685.036	80.005	19.993	103.740	19.988	2.483	0.540
1220.500	685.297	80.006	19.993	103.743	19.989	2.388	0.517
1221.001	685.542	80.004	19.993	103.745	19.988	2.506	0.504
1221.501	685.834	80.006	19.992	103.747	19.988	2.434	0.522
1222.000	686.068	80.006	19.994	103.745	19.984	2.760	0.532
1222.500	686.388	80.004	19.993	103.743	19.988	2.500	0.540
1223.000	686.642	80.004	19.993	103.741	19.990	2.337	0.564
1223.500	686.906	80.005	19.993	103.735	19.990	2.293	0.546
1224.000	687.157	80.006	19.994	103.730	19.989	2.417	0.517
1224.500	687.467	80.005	19.993	103.732	19.990	2.343	0.538
1225.001	687.718	80.005	19.994	103.734	19.988	2.474	0.561
1225.501	687.955	80.004	19.992	103.735	19.989	2.419	0.525
1226.000	688.226	80.004	19.994	103.735	19.990	2.296	0.498
1226.500	688.441	80.005	19.993	103.735	19.993	2.077	0.497
1227.000	688.677	80.003	19.994	103.736	19.989	2.405	0.469
1227.500	689.003	80.005	19.994	103.742	19.988	2.443	0.506
1228.000	689.254	80.004	19.993	103.747	19.990	2.294	0.569
1228.500	689.497	80.005	19.992	103.753	19.991	2.256	0.536
1229.000	689.743	80.005	19.993	103.759	19.991	2.243	0.492
1229.500	690.017	80.006	19.994	103.762	19.989	2.357	0.504
1230.000	690.242	80.006	19.993	103.763	19.992	2.195	0.510
1230.501	690.542	80.004	19.994	103.764	19.989	2.419	0.512
1231.001	690.785	80.004	19.992	103.764	19.990	2.332	0.534
1231.501	691.037	80.004	19.994	103.763	19.993	2.093	0.519
1232.001	691.292	80.004	19.993	103.762	19.992	2.195	0.501
1232.501	691.574	80.004	19.993	103.761	19.993	2.096	0.523
1233.000	691.825	80.003	19.993	103.759	19.993	2.111	0.535
1233.500	692.068	80.004	19.994	103.759	19.992	2.156	0.513
1234.001	692.371	80.003	19.993	103.759	19.992	2.135	0.520
1234.501	692.596	80.005	19.994	103.756	19.995	1.900	0.538
1235.000	692.891	80.004	19.993	103.749	19.994	2.027	0.524
1235.500	693.137	80.004	19.994	103.742	19.994	2.048	0.531
1236.000	693.375	80.004	19.994	103.740	19.992	2.202	0.513
1236.500	693.625	80.003	19.993	103.739	19.994	1.988	0.486
1237.000	693.905	80.004	19.995	103.738	19.994	2.022	0.509
1237.500	694.194	80.003	19.996	103.743	19.993	2.068	0.550
1238.001	694.412	80.004	19.995	103.749	19.993	2.109	0.538
1238.501	694.692	80.003	19.994	103.745	19.992	2.191	0.502
1239.000	694.893	80.004	19.995	103.739	19.996	1.893	0.489
1239.500	695.188	80.004	19.993	103.735	19.992	2.185	0.489
1240.000	695.434	80.004	19.995	103.731	19.993	2.089	0.519
1240.500	695.739	80.005	19.994	103.726	19.993	2.096	0.546
1241.000	695.987	80.004	19.994	103.724	19.994	2.003	0.552
1241.500	696.202	80.003	19.993	103.722	19.996	1.887	0.508
1242.000	696.467	80.004	19.993	103.721	19.996	1.876	0.471
1242.500	696.743	80.003	19.993	103.723	19.996	1.857	0.511
1243.000	697.015	80.003	19.995	103.735	19.997	1.768	0.545
1243.500	697.276	80.004	19.994	103.755	20.000	1.553	0.540
1244.001	697.517	80.004	19.993	103.780	19.998	1.715	0.518
1244.501	697.800	80.007	19.993	103.805	19.998	1.707	0.513
1245.001	698.028	80.005	19.993	103.819	20.001	1.500	0.517
1245.500	698.283	80.005	19.993	103.821	19.999	1.650	0.496
1246.000	698.553	80.006	19.993	103.815	20.000	1.578	0.504
1246.500	698.856	80.005	19.993	103.800	19.996	1.854	0.550
1247.000	699.095	80.006	19.992	103.784	19.998	1.689	0.557
1247.500	699.350	80.006	19.994	103.775	19.996	1.863	0.518
1248.000	699.597	80.007	19.991	103.767	19.997	1.755	0.498
1248.500	699.874	80.006	19.992	103.760	19.998	1.675	0.513
1249.000	700.103	80.006	19.991	103.753	19.996	1.831	0.515
1249.501	700.394	80.005	19.992	103.750	19.997	1.759	0.513
1250.001	700.661	80.007	19.992	103.750	19.997	1.751	0.539
1250.501	700.930	80.006	19.993	103.748	19.997	1.800	0.547
1251.001	701.160	80.006	19.994	103.747	19.994	2.047	0.518
1251.500	701.415	80.007	19.992	103.753	19.994	2.015	0.492
1252.001	701.649	80.006	19.993	103.756	19.995	1.969	0.487
1252.501	701.918	80.006	19.991	103.755	19.996	1.889	0.496
1253.000	702.192	80.007	19.993	103.756	19.997	1.819	0.523
1253.500	702.445	80.007	19.992	103.762	19.997	1.798	0.535
1254.000	702.709	80.007	19.994	103.766	19.993	2.070	0.522
1254.500	702.987	80.006	19.993	103.765	19.996	1.881	0.529
1255.000	703.281	80.007	19.993	103.765	19.999	1.640	0.557
1255.500	703.548	80.006	19.992	103.764	19.994	2.016	0.566
1256.000	703.780	80.006	19.993	103.756	19.995	1.969	0.530
1256.500	704.072	80.006	19.993	103.746	19.995	1.924	0.511
1257.000	704.327	80.006	19.992	103.740	19.997	1.790	0.536
1257.500	704.585	80.006	19.993	103.733	19.994	2.037	0.530
1258.000	704.861	80.006	19.992	103.726	19.994	2.037	0.523
1258.500	705.087	80.005	19.993	103.722	19.991	2.245	0.518
1259.000	705.340	80.006	19.992	103.721	19.994	1.987	0.491
1259.500	705.632	80.006	19.993	103.724	19.996	1.875	0.512
1260.000	705.878	80.006	19.992	103.727	19.995	1.914	0.541
1260.500	706.135	80.005	19.992	103.732	19.994	1.984	0.521
1261.000	706.385	80.006	19.993	103.740	19.994	2.022	0.505
1261.501	706.606	80.006	19.994	103.747	19.993	2.054	0.489
1262.001	706.902	80.006	19.993	103.749	19.993	2.065	0.494
1262.500	707.154	80.004	19.994	103.753	19.993	2.082	0.532
1263.000	707.406	80.006	19.993	103.756	19.994	1.974	0.526
1263.500	707.653	80.005	19.993	103.757	19.992	2.136	0.501
1264.000	707.922	80.005	19.993	103.772	19.996	1.842	0.507
1264.500	708.214	80.005	19.994	103.797	19.995	1.969	0.538
1265.000	708.426	80.005	19.992	103.818	19.994	2.043	0.533
1265.500	708.710	80.006	19.993	103.825	19.994	2.041	0.500
1266.000	708.966	80.005	19.993	103.812	19.994	2.016	0.518
1266.500	709.270	80.005	19.994	103.775	19.990	2.301	0.550
1267.000	709.492	80.005	19.993	103.735	19.993	2.067	0.543
1267.500	709.743	80.006	19.994	103.697	19.992	2.172	0.499
1268.000	710.013	80.006	19.993	103.672	19.993	2.103	0.497
1268.500	710.281	80.005	19.994	103.669	19.991	2.255	0.530
1269.000	710.556	80.006	19.994	103.677	19.991	2.267	0.541
1269.500	710.780	80.004	19.994	103.685	19.992	2.187	0.521
1270.000	711.044	80.007	19.994	103.699	19.994	2.022	0.493
1270.500	711.310	80.006	19.993	103.715	19.995	1.920	0.509
1271.000	711.554	80.005	19.995	103.731	19.996	1.871	0.521
1271.500	711.795	80.008	19.994	103.749	19.998	1.727	0.498
1272.000	712.015	80.006	19.994	103.767	19.997	1.753	0.473
1272.501	712.303	80.005	19.994	103.778	19.997	1.768	0.484
1273.001	712.528	80.006	19.993	103.782	19.996	1.837	0.510
1273.501	712.823	80.007	19.993	103.781	19.996	1.892	0.517
1274.000	713.092	80.007	19.993	103.776	19.996	1.831	0.542
1274.500	713.285	80.007	19.994	103.769	19.996	1.876	0.513
1275.000	713.547	80.008	19.993	103.761	19.997	1.751	0.459
1275.500	713.810	80.006	19.994	103.759	19.998	1.715	0.490
1276.000	714.058	80.006	19.993	103.760	19.995	1.906	0.518
1276.500	714.335	80.006	19.993	103.762	19.996	1.880	0.518
1277.000	714.573	80.006	19.994	103.762	20.000	1.523	0.520
1277.500	714.808	80.007	19.994	103.765	19.997	1.796	0.494
1278.000	715.102	80.007	19.994	103.770	19.998	1.741	0.501
1278.500	715.376	80.006	19.993	103.772	19.998	1.719	0.548
1279.000	715.613	80.008	19.993	103.772	19.997	1.810	0.539
1279.500	715.846	80.007	19.994	103.772	19.998	1.675	0.491
1280.000	716.126	80.007	19.994	103.768	19.998	1.711	0.491
1280.500	716.341	80.007	19.993	103.758	19.997	1.764	0.503
1281.000	716.617	80.007	19.993	103.750	19.996	1.876	0.493
1281.500	716.869	80.007	19.993	103.743	19.997	1.755	0.510
1282.000	717.078	80.007	19.994	103.738	19.998	1.684	0.495
1282.500	717.365	80.006	19.994	103.730	19.996	1.857	0.478
1283.000	717.598	80.005	19.993	103.727	19.998	1.700	0.508
1283.500	717.846	80.005	19.993	103.725	19.996	1.891	0.501
1284.000	718.085	80.005	19.993	103.725	20.000	1.584	0.484
1284.500	718.355	80.004	19.994	103.725	19.998	1.717	0.498
1285.000	718.605	80.004	19.994	103.732	19.998	1.677	0.514
1285.500	718.845	80.003	19.993	103.737	19.996	1.851	0.506
1286.000	719.108	80.004	19.994	103.743	19.995	1.931	0.497
1286.500	719.345	80.003	19.993	103.750	19.995	1.948	0.502
1287.000	719.567	80.005	19.994	103.758	19.995	1.916	0.480
1287.500	719.799	80.003	19.994	103.758	19.996	1.842	0.456
1288.000	720.082	80.004	19.994	103.761	19.995	1.920	0.484
1288.500	720.270	80.003	19.994	103.762	19.994	2.015	0.492
1289.000	720.566	80.003	19.994	103.756	19.997	1.787	0.477
1289.501	720.834	80.004	19.993	103.751	19.995	1.966	0.524
1290.001	721.012	80.004	19.994	103.751	19.996	1.850	0.505
1290.501	721.286	80.004	19.994	103.750	20.000	1.565	0.449
1291.000	721.553	80.004	19.994	103.749	19.998	1.721	0.497
1291.500	721.771	80.002	19.995	103.755	20.000	1.559	0.513
1292.001	722.046	80.003	19.993	103.758	20.001	1.493	0.489
1292.501	722.269	80.003	19.994	103.757	19.994	2.009	0.495
1293.000	722.489	80.003	19.995	103.757	19.998	1.694	0.470
1293.500	722.776	80.005	19.994	103.758	19.996	1.850	0.475
1294.001	722.992	80.003	19.995	103.758	19.999	1.601	0.505
1294.501	723.254	80.003	19.994	103.757	19.999	1.635	0.491
1295.000	723.494	80.002	19.995	103.756	19.996	1.878	0.490
1295.501	723.723	80.005	19.995	103.755	19.996	1.865	0.485
1296.001	723.961	80.005	19.995	103.754	19.995	1.897	0.468
1296.500	724.234	80.004	19.993	103.753	19.997	1.806	0.489
1297.001	724.456	80.003	19.996	103.747	19.996	1.853	0.504
1297.501	724.707	80.004	19.997	103.748	19.998	1.711	0.484
1298.001	724.981	80.004	19.996	103.749	19.997	1.791	0.498
1298.500	725.201	80.004	19.994	103.745	19.994	2.009	0.509
1299.000	725.481	80.003	19.995	103.738	19.996	1.838	0.497
1299.500	725.735	80.004	19.995	103.737	19.997	1.781	0.517
1300.000	725.932	80.004	19.995	103.730	19.993	2.112	0.493
1300.500	726.174	80.003	19.996	103.728	19.994	1.992	0.445
1301.000	726.447	80.003	19.995	103.728	19.993	2.100	0.476
1301.500	726.714	80.006	19.994	103.732	19.996	1.842	0.527
1302.000	726.952	80.004	19.994	103.737	19.994	2.028	0.523
1302.500	727.183	80.005	19.994	103.744	19.993	2.085	0.488
1303.000	727.444	80.004	19.995	103.746	19.999	1.592	0.480
1303.500	727.718	80.005	19.994	103.743	19.995	1.944	0.513
1304.001	727.985	80.007	19.994	103.739	19.996	1.834	0.538
1304.501	728.269	80.004	19.994	103.735	19.994	2.047	0.546
1305.000	728.510	80.005	19.994	103.735	19.993	2.064	0.538
1305.501	728.747	80.004	19.994	103.735	19.995	1.935	0.502
1306.001	729.045	80.005	19.994	103.741	19.996	1.880	0.507
1306.500	729.249	80.003	19.994	103.749	19.994	2.026	0.518
1307.000	729.535	80.004	19.994	103.756	19.993	2.071	0.496
1307.500	729.790	80.006	19.994	103.756	19.993	2.119	0.516
1308.000	730.035	80.005	19.994	103.754	19.993	2.051	0.521
1308.501	730.287	80.005	19.994	103.753	19.992	2.142	0.499
1309.001	730.542	80.005	19.993	103.753	19.991	2.257	0.502
1309.500	730.805	80.005	19.993	103.752	19.994	2.001	0.512
1310.000	731.048	80.004	19.993	103.746	19.993	2.119	0.512
1310.501	731.308	80.005	19.993	103.742	19.992	2.147	0.505
1311.001	731.575	80.005	19.993	103.739	19.994	2.011	0.516
1311.500	731.845	80.003	19.994	103.738	19.995	1.921	0.532
1312.000	732.117	80.005	19.994	103.735	19.991	2.246	0.539
1312.500	732.351	80.004	19.993	103.736	19.995	1.897	0.524
1313.000	732.686	80.005	19.993	103.743	19.995	1.916	0.538
1313.500	732.878	80.005	19.992	103.744	19.992	2.143	0.548
1314.001	733.126	80.004	19.993	103.747	19.995	1.921	0.483
1314.501	733.405	80.004	19.995	103.753	19.995	1.927	0.484
1315.000	733.674	80.005	19.993	103.756	19.993	2.087	0.538
1315.500	733.935	80.005	19.993	103.756	19.993	2.066	0.539
1316.000	734.113	80.005	19.994	103.759	19.993	2.112	0.484
1316.501	734.531	80.004	19.993	103.759	19.993	2.085	0.517
1317.001	734.804	80.004	19.993	103.757	19.995	1.969	0.643
1317.501	734.991	80.004	19.993	103.759	19.997	1.793	0.576
1318.001	735.260	80.004	19.992	103.758	19.996	1.884	0.458
1318.500	735.530	80.004	19.994	103.754	19.998	1.724	0.497
1319.001	735.786	80.006	19.993	103.755	19.993	2.073	0.532
1319.501	736.036	80.005	19.993	103.755	19.994	1.986	0.516
1320.000	736.290	80.004	19.994	103.753	19.995	1.967	0.505
1320.501	736.554	80.005	19.992	103.755	19.996	1.869	0.511
1321.001	736.842	80.005	19.993	103.757	19.997	1.812	0.536
1321.501	737.050	80.004	19.994	103.757	19.995	1.920	0.524
1322.001	737.342	80.005	19.993	103.759	19.993	2.085	0.498
1322.501	737.609	80.005	19.993	103.764	19.994	2.024	0.529
1323.000	737.836	80.006	19.994	103.771	19.994	2.005	0.527
1323.500	738.130	80.005	19.993	103.773	19.994	2.028	0.508
1324.000	738.384	80.005	19.995	103.773	19.995	1.907	0.535
1324.500	738.643	80.005	19.993	103.770	19.994	1.973	0.531
1325.000	738.921	80.005	19.993	103.765	19.995	1.897	0.525
1325.501	739.230	80.004	19.992	103.756	19.999	1.656	0.561
1326.001	739.436	80.005	19.994	103.752	19.996	1.850	0.551
1326.501	739.688	80.005	19.993	103.746	19.995	1.945	0.487
1327.000	739.945	80.005	19.993	103.739	19.994	1.973	0.484
1327.500	740.223	80.006	19.994	103.739	19.993	2.093	0.522
1328.000	740.477	80.005	19.993	103.739	19.992	2.170	0.533
1328.500	740.744	80.005	19.994	103.743	19.996	1.884	0.526
1329.000	740.997	80.006	19.993	103.750	19.995	1.920	0.521
1329.500	741.259	80.005	19.994	103.751	19.992	2.202	0.518
1330.000	741.519	80.006	19.993	103.751	19.994	2.034	0.518
1330.500	741.747	80.006	19.992	103.751	19.996	1.874	0.505
1331.000	742.024	80.006	19.993	103.750	19.993	2.104	0.497
1331.500	742.265	80.005	19.992	103.748	19.993	2.119	0.512
1332.000	742.562	80.007	19.992	103.753	19.992	2.155	0.528
1332.500	742.805	80.006	19.993	103.750	19.993	2.087	0.539
1333.000	743.064	80.005	19.993	103.747	19.994	2.009	0.521
1333.500	743.250	80.006	19.994	103.745	19.996	1.825	0.474
1334.000	743.542	80.006	19.993	103.742	19.992	2.195	0.462
1334.500	743.813	80.005	19.993	103.735	19.994	2.022	0.520
1335.001	744.040	80.006	19.994	103.731	19.994	2.037	0.530
1335.501	744.295	80.006	19.993	103.729	19.993	2.075	0.490
1336.000	744.540	80.006	19.994	103.730	19.998	1.732	0.491
1336.500	744.779	80.006	19.994	103.734	19.995	1.954	0.492
1337.000	745.059	80.007	19.992	103.735	19.994	2.015	0.501
1337.500	745.310	80.005	19.993	103.735	19.993	2.123	0.525
1338.000	745.570	80.006	19.993	103.737	19.994	2.034	0.521
