Sample ID:	C:\MCC\MCC Cal\Test\Masonite_New_grinder_MCC_30K_min_220328_R2.txt
Sample Weight (mg):	4.72
Heating Rate (C/s):	0.5
Combustor Temp (C):	900
N2 Flow Rate (cc/min):	80
O2 Flow Rate (cc/min):	20
Calibration File:	C:\MCC\MCC Cal\Coeff1 JN10440_30_210304.txt.txt
T Correction Coefficients:	0	1.024463	0
Time Shift (s):	14
*
Time (s)	Temperature (C)	N2 flow rate (cc/min)	O2 flow rate (cc/min)	Flow Rate (cc/min)	Oxygen (%)	HRR (W/g)	Heating rate (C/s)
0.000	108.982	80.006	19.993	103.602	20.048	0.495	0.049
0.499	108.981	80.007	19.994	103.601	20.049	0.486	0.017
1.000	108.961	80.008	19.994	103.601	20.050	0.355	-0.014
1.500	108.962	80.025	19.996	103.601	20.050	0.389	-0.020
2.000	108.927	80.011	19.997	103.601	20.048	0.495	-0.027
2.500	108.972	80.006	19.994	103.606	20.047	0.621	-0.012
3.000	108.960	80.004	19.994	103.607	20.050	0.387	0.021
3.500	108.950	80.005	19.992	103.607	20.049	0.448	0.006
4.000	108.941	80.006	19.994	103.607	20.047	0.594	-0.020
4.500	108.939	80.006	19.994	103.607	20.052	0.218	-0.015
5.000	108.977	80.007	19.992	103.605	20.051	0.340	0.012
5.500	108.950	80.007	19.992	103.611	20.052	0.268	0.024
6.000	108.946	80.007	19.993	103.619	20.051	0.345	-0.010
6.500	108.944	80.005	19.992	103.627	20.052	0.285	-0.019
7.000	108.945	80.006	19.991	103.637	20.047	0.607	-0.004
7.500	108.943	80.006	19.993	103.646	20.050	0.404	-0.000
8.000	108.944	80.006	19.992	103.648	20.047	0.596	-0.000
8.500	108.949	80.009	19.994	103.650	20.047	0.598	0.002
9.000	108.954	80.006	19.994	103.652	20.047	0.615	0.007
9.500	108.945	80.004	19.994	103.653	20.046	0.634	0.003
10.000	108.925	80.006	19.991	103.651	20.047	0.564	-0.017
10.500	108.959	80.005	19.994	103.651	20.044	0.770	-0.007
11.000	108.943	80.005	19.993	103.654	20.049	0.468	0.017
11.500	108.933	80.006	19.993	103.652	20.047	0.610	-0.003
12.001	108.940	80.006	19.993	103.649	20.045	0.705	-0.014
12.500	108.977	80.005	19.993	103.650	20.043	0.840	0.021
13.000	108.971	80.003	19.994	103.652	20.043	0.863	0.037
13.500	108.957	80.004	19.993	103.654	20.044	0.789	0.005
14.001	108.955	80.006	19.993	103.660	20.043	0.867	-0.018
14.500	108.998	80.004	19.992	103.668	20.042	0.966	0.013
15.000	108.997	80.005	19.993	103.673	20.039	1.122	0.041
15.500	109.016	80.005	19.993	103.678	20.038	1.208	0.030
16.000	108.989	80.005	19.992	103.684	20.039	1.116	0.005
16.500	108.974	80.005	19.994	103.674	20.043	0.865	-0.025
17.000	108.976	80.005	19.992	103.658	20.037	1.299	-0.027
17.500	109.031	80.005	19.993	103.645	20.038	1.228	0.022
18.000	109.053	80.006	19.993	103.635	20.036	1.378	0.067
18.500	109.054	80.006	19.993	103.625	20.036	1.365	0.050
19.000	109.086	80.005	19.995	103.636	20.038	1.182	0.028
19.500	109.100	80.003	19.995	103.663	20.034	1.471	0.039
20.000	109.118	80.004	19.993	103.707	20.035	1.389	0.039
20.500	109.175	80.005	19.995	103.738	20.036	1.359	0.054
21.000	109.153	80.005	19.993	103.765	20.030	1.729	0.055
21.500	109.138	80.006	19.993	103.786	20.037	1.296	-0.001
22.000	109.177	80.005	19.994	103.794	20.032	1.615	-0.006
22.500	109.174	80.005	19.992	103.787	20.035	1.427	0.030
23.000	109.244	80.004	19.994	103.786	20.035	1.435	0.051
23.500	109.279	80.004	19.994	103.787	20.030	1.731	0.086
24.000	109.299	80.004	19.997	103.797	20.032	1.591	0.081
24.500	109.311	80.002	19.999	103.808	20.029	1.828	0.044
25.000	109.361	80.005	19.994	103.815	20.031	1.689	0.047
25.500	109.453	80.006	19.991	103.827	20.030	1.786	0.102
26.000	109.480	80.004	19.994	103.844	20.031	1.670	0.130
26.500	109.487	80.006	19.994	103.852	20.027	1.984	0.077
27.000	109.532	80.003	19.997	103.859	20.024	2.140	0.043
27.500	109.588	80.007	19.993	103.860	20.026	2.039	0.077
28.000	109.664	80.003	19.997	103.852	20.025	2.077	0.116
28.500	109.698	80.011	19.992	103.833	20.023	2.263	0.121
29.000	109.726	80.004	19.994	103.818	20.022	2.290	0.086
29.500	109.821	80.006	19.992	103.804	20.023	2.229	0.092
30.000	109.836	80.005	19.993	103.797	20.023	2.230	0.116
30.500	109.911	80.008	19.993	103.794	20.023	2.247	0.100
31.000	110.018	80.005	19.993	103.795	20.027	1.999	0.136
31.500	110.050	80.004	19.992	103.794	20.021	2.389	0.161
32.000	110.112	80.005	19.994	103.792	20.025	2.134	0.117
32.499	110.152	80.004	19.994	103.790	20.022	2.334	0.098
32.999	110.186	80.005	19.993	103.790	20.024	2.143	0.088
33.499	110.280	80.004	19.993	103.790	20.022	2.317	0.100
33.999	110.378	80.005	19.993	103.790	20.022	2.330	0.160
34.499	110.434	80.005	19.993	103.788	20.023	2.274	0.173
34.999	110.496	80.006	19.992	103.781	20.022	2.282	0.136
35.499	110.579	80.004	19.993	103.774	20.023	2.238	0.131
35.999	110.621	80.005	19.994	103.766	20.017	2.655	0.135
36.499	110.706	80.004	19.994	103.762	20.022	2.323	0.126
36.999	110.732	80.004	19.993	103.765	20.022	2.304	0.119
37.499	110.842	80.004	19.994	103.771	20.024	2.175	0.124
37.999	110.925	80.005	19.993	103.771	20.022	2.316	0.164
38.499	110.990	80.003	19.993	103.771	20.019	2.549	0.170
38.999	111.087	80.005	19.994	103.769	20.018	2.568	0.155
39.499	111.147	80.004	19.993	103.770	20.019	2.551	0.160
40.000	111.229	80.003	19.994	103.776	20.017	2.658	0.150
40.500	111.328	80.000	19.989	103.792	20.019	2.490	0.162
41.000	111.386	80.004	19.992	103.809	20.018	2.564	0.169
41.500	111.448	80.005	19.993	103.837	20.019	2.505	0.138
41.999	111.537	80.006	19.992	103.866	20.018	2.574	0.136
42.499	111.620	80.005	19.994	103.882	20.016	2.695	0.162
42.999	111.721	80.004	19.993	103.878	20.015	2.792	0.178
43.500	111.815	80.006	19.994	103.864	20.014	2.836	0.189
44.000	111.921	80.005	19.993	103.843	20.015	2.811	0.198
44.499	112.013	80.005	19.993	103.812	20.012	2.989	0.199
44.999	112.072	80.005	19.994	103.783	20.012	2.987	0.174
45.499	112.188	80.005	19.994	103.772	20.010	3.134	0.163
45.999	112.307	80.005	19.993	103.774	20.011	3.074	0.205
46.499	112.393	80.004	19.991	103.775	20.012	2.966	0.220
47.000	112.479	80.006	19.995	103.784	20.012	2.989	0.189
47.500	112.546	80.007	19.992	103.801	20.011	3.078	0.163
48.000	112.649	80.007	19.995	103.822	20.011	3.069	0.162
48.500	112.798	80.006	19.993	103.842	20.011	3.099	0.211
48.999	112.895	80.005	19.995	103.861	20.017	2.685	0.249
49.499	112.974	80.008	19.994	103.875	20.010	3.105	0.211
49.999	113.075	80.005	19.992	103.887	20.013	2.915	0.178
50.499	113.208	80.006	19.993	103.890	20.012	3.029	0.207
50.999	113.315	80.006	19.994	103.894	20.013	2.908	0.237
51.499	113.431	80.006	19.994	103.895	20.012	2.992	0.231
51.999	113.521	80.007	19.994	103.892	20.012	3.010	0.214
52.500	113.644	80.006	19.993	103.889	20.014	2.845	0.210
53.000	113.722	80.005	19.996	103.891	20.013	2.907	0.207
53.499	113.873	80.006	19.995	103.886	20.015	2.801	0.215
53.999	114.001	80.007	19.994	103.881	20.014	2.862	0.254
54.499	114.100	80.006	19.994	103.875	20.010	3.115	0.253
54.999	114.216	80.006	19.994	103.864	20.012	3.008	0.221
55.499	114.326	80.005	19.994	103.854	20.012	2.969	0.220
56.000	114.433	80.007	19.994	103.849	20.010	3.138	0.222
56.501	114.578	80.005	19.994	103.840	20.007	3.321	0.235
57.000	114.699	80.006	19.994	103.833	20.009	3.232	0.258
57.499	114.839	80.005	19.994	103.830	20.006	3.390	0.263
57.999	114.962	80.006	19.994	103.829	20.006	3.409	0.263
58.500	115.114	80.006	19.994	103.828	20.006	3.430	0.269
59.000	115.169	80.005	19.993	103.834	20.003	3.596	0.241
59.499	115.326	80.004	19.991	103.842	20.007	3.360	0.209
59.999	115.478	80.008	19.994	103.845	20.007	3.368	0.260
60.500	115.646	80.008	19.994	103.850	20.004	3.545	0.315
61.000	115.721	80.007	19.995	103.856	20.004	3.579	0.281
61.500	115.847	80.003	19.996	103.856	20.003	3.584	0.222
62.000	116.023	80.004	19.995	103.859	20.004	3.546	0.252
62.499	116.169	80.005	19.993	103.862	20.002	3.683	0.312
62.999	116.293	80.006	19.995	103.858	20.002	3.670	0.296
63.499	116.422	80.006	19.993	103.852	20.001	3.784	0.261
63.999	116.595	80.005	19.992	103.848	20.003	3.624	0.278
64.499	116.753	80.005	19.993	103.843	20.002	3.720	0.317
64.999	116.906	80.000	19.997	103.843	20.004	3.581	0.321
65.499	117.052	80.005	19.992	103.850	20.002	3.680	0.305
65.999	117.194	80.004	19.994	103.856	20.003	3.609	0.293
66.499	117.349	80.007	19.992	103.862	20.005	3.512	0.292
66.999	117.483	80.006	19.993	103.867	20.005	3.472	0.293
67.499	117.633	80.006	19.994	103.874	20.004	3.546	0.287
67.999	117.787	80.007	19.993	103.881	20.005	3.496	0.294
68.500	117.964	80.006	19.992	103.887	20.009	3.238	0.318
69.000	118.137	80.006	19.991	103.896	20.005	3.468	0.341
69.499	118.272	80.008	19.992	103.904	20.003	3.645	0.329
69.999	118.443	80.008	19.993	103.908	20.004	3.542	0.307
70.499	118.620	80.007	19.993	103.911	20.008	3.306	0.327
70.999	118.757	80.007	19.992	103.913	20.005	3.498	0.331
71.499	118.911	80.006	19.993	103.911	20.008	3.293	0.303
71.999	119.054	80.007	19.994	103.907	20.007	3.344	0.294
72.499	119.215	80.006	19.993	103.899	20.005	3.494	0.300
72.999	119.374	80.008	19.994	103.892	20.006	3.418	0.312
73.500	119.550	80.008	19.992	103.888	20.003	3.597	0.328
74.000	119.756	80.007	19.994	103.889	20.006	3.399	0.358
74.500	119.932	80.008	19.993	103.893	20.005	3.500	0.382
75.001	120.080	80.007	19.994	103.900	20.006	3.433	0.353
75.500	120.267	80.008	19.992	103.904	20.001	3.745	0.329
75.999	120.464	80.007	19.993	103.905	20.006	3.424	0.359
76.499	120.612	80.008	19.993	103.903	20.005	3.482	0.365
76.999	120.768	80.009	19.991	103.896	20.005	3.484	0.325
77.499	120.918	80.006	19.994	103.889	20.008	3.268	0.305
77.999	121.130	80.008	19.993	103.887	20.005	3.452	0.333
78.499	121.338	80.008	19.993	103.885	20.006	3.429	0.391
78.999	121.467	80.008	19.993	103.886	20.004	3.578	0.379
79.499	121.693	80.007	19.993	103.890	20.003	3.631	0.346
79.999	121.860	80.008	19.992	103.889	20.005	3.449	0.374
80.499	122.090	80.007	19.994	103.888	20.003	3.599	0.395
80.999	122.256	80.006	19.994	103.889	20.002	3.715	0.397
81.500	122.453	80.008	19.991	103.884	20.003	3.584	0.380
82.000	122.645	80.006	19.992	103.878	20.005	3.474	0.376
82.499	122.813	80.007	19.992	103.878	20.006	3.383	0.374
82.999	123.014	80.005	19.993	103.878	20.005	3.508	0.365
83.499	123.157	80.007	19.992	103.879	20.005	3.457	0.356
83.999	123.348	80.005	19.992	103.880	20.004	3.526	0.339
84.499	123.549	80.006	19.994	103.880	19.999	3.876	0.364
84.999	123.748	80.005	19.993	103.879	20.005	3.505	0.396
85.499	123.945	80.004	19.993	103.880	20.003	3.582	0.398
85.999	124.182	80.005	19.992	103.876	20.002	3.717	0.415
86.500	124.331	80.004	19.993	103.874	20.003	3.645	0.410
87.000	124.519	80.005	19.994	103.873	20.000	3.814	0.361
87.499	124.677	80.004	19.993	103.868	20.000	3.831	0.341
87.999	124.881	80.006	19.992	103.866	20.002	3.704	0.354
88.499	125.065	80.006	19.993	103.868	19.999	3.862	0.375
88.999	125.301	80.006	19.994	103.867	20.002	3.693	0.404
89.499	125.466	80.005	19.993	103.866	20.001	3.782	0.411
89.999	125.669	80.004	19.993	103.877	20.002	3.699	0.385
90.500	125.866	80.006	19.993	103.881	20.002	3.720	0.384
91.000	126.080	80.004	19.993	103.882	20.003	3.644	0.405
91.499	126.285	80.007	19.994	103.886	20.003	3.646	0.415
91.999	126.480	80.004	19.994	103.892	20.004	3.536	0.410
92.499	126.666	80.006	19.993	103.891	20.004	3.572	0.391
92.999	126.856	80.005	19.993	103.895	20.005	3.509	0.378
93.499	127.047	80.004	19.992	103.900	20.005	3.482	0.378
93.999	127.241	80.006	19.994	103.904	20.006	3.417	0.383
94.499	127.464	80.005	19.993	103.909	20.006	3.423	0.401
94.999	127.685	80.005	19.992	103.913	20.001	3.750	0.430
95.500	127.871	80.003	19.994	103.911	20.004	3.542	0.425
96.000	128.086	80.005	19.993	103.904	20.001	3.788	0.403
96.499	128.267	80.005	19.994	103.897	20.004	3.520	0.398
97.000	128.474	80.006	19.993	103.891	20.004	3.550	0.392
97.500	128.676	80.005	19.991	103.888	20.006	3.380	0.399
97.999	128.859	80.004	19.994	103.883	20.004	3.555	0.397
98.499	129.148	80.006	19.994	103.882	20.001	3.751	0.429
98.999	129.356	80.007	19.993	103.885	20.005	3.452	0.484
99.499	129.564	80.004	19.992	103.890	20.004	3.559	0.456
99.999	129.762	80.004	19.997	103.893	20.002	3.669	0.411
100.499	129.956	80.007	19.993	103.905	20.001	3.741	0.399
100.999	130.174	80.005	19.994	103.918	20.001	3.737	0.402
101.500	130.366	80.006	19.994	103.923	20.004	3.560	0.411
102.001	130.577	80.006	19.992	103.923	20.002	3.697	0.407
102.500	130.758	80.005	19.995	103.924	20.003	3.582	0.398
102.999	130.997	80.006	19.994	103.920	20.002	3.702	0.406
103.500	131.204	80.008	19.992	103.915	20.003	3.605	0.433
104.000	131.442	80.006	19.993	103.914	20.002	3.694	0.445
104.500	131.701	80.006	19.993	103.909	20.002	3.681	0.471
105.000	131.923	80.006	19.993	103.903	20.002	3.698	0.489
105.499	132.107	80.006	19.993	103.902	20.000	3.852	0.443
105.999	132.330	80.007	19.993	103.900	20.002	3.683	0.406
106.499	132.546	80.005	19.993	103.895	20.002	3.683	0.423
106.999	132.720	80.004	19.993	103.900	20.002	3.666	0.415
107.499	132.932	80.006	19.994	103.900	20.003	3.592	0.388
107.999	133.234	80.005	19.994	103.889	20.002	3.674	0.450
108.499	133.426	80.006	19.994	103.882	20.007	3.333	0.504
108.999	133.626	80.006	19.993	103.882	20.003	3.640	0.443
109.499	133.781	80.005	19.993	103.874	20.000	3.796	0.373
109.999	134.035	80.006	19.993	103.872	20.002	3.657	0.382
110.499	134.290	80.006	19.993	103.872	20.000	3.843	0.459
110.999	134.529	80.004	19.993	103.869	20.000	3.856	0.502
111.499	134.731	80.005	19.992	103.868	19.999	3.923	0.468
111.999	134.948	80.005	19.993	103.867	19.997	3.998	0.430
112.499	135.168	80.005	19.993	103.867	20.001	3.779	0.428
112.999	135.367	80.004	19.992	103.872	19.996	4.083	0.428
113.500	135.612	80.004	19.994	103.875	19.999	3.912	0.432
114.000	135.818	80.005	19.995	103.881	20.001	3.747	0.448
114.499	136.061	80.006	19.994	103.887	20.001	3.724	0.450
114.999	136.269	80.002	19.993	103.887	20.002	3.711	0.450
115.499	136.514	80.003	19.993	103.888	20.000	3.836	0.452
116.000	136.738	80.003	19.994	103.890	19.999	3.880	0.461
116.501	136.978	80.003	19.994	103.888	20.000	3.821	0.467
117.001	137.241	80.005	19.994	103.887	20.004	3.527	0.484
117.500	137.455	80.004	19.993	103.888	20.002	3.720	0.490
117.999	137.688	80.005	19.993	103.893	20.007	3.359	0.462
118.500	137.903	80.005	19.995	103.899	20.003	3.643	0.448
119.001	138.125	80.004	19.993	103.898	20.004	3.516	0.442
119.500	138.318	80.002	19.993	103.899	20.003	3.603	0.426
120.000	138.604	80.003	19.995	103.905	20.003	3.644	0.447
120.500	138.819	80.003	19.997	103.910	20.001	3.719	0.490
120.999	139.080	80.006	19.996	103.914	20.002	3.690	0.489
121.499	139.249	80.004	19.995	103.910	20.004	3.564	0.454
121.999	139.540	80.003	19.995	103.902	20.002	3.677	0.445
122.499	139.754	80.003	19.993	103.892	20.001	3.763	0.482
122.999	140.006	80.004	19.994	103.875	20.000	3.807	0.485
123.499	140.213	80.005	19.993	103.856	20.000	3.827	0.463
123.999	140.468	80.004	19.993	103.850	20.000	3.789	0.461
124.499	140.711	80.005	19.994	103.854	20.002	3.676	0.480
124.999	140.911	80.003	19.993	103.864	20.000	3.797	0.470
125.499	141.145	80.005	19.994	103.872	20.001	3.748	0.439
125.999	141.380	80.005	19.993	103.868	20.005	3.468	0.452
126.499	141.630	80.004	19.993	103.868	20.003	3.632	0.477
126.999	141.821	80.004	19.994	103.872	20.003	3.604	0.463
127.499	142.066	80.003	19.993	103.875	20.001	3.723	0.438
127.999	142.329	80.005	19.994	103.889	20.002	3.713	0.471
128.500	142.599	80.005	19.992	103.917	20.003	3.633	0.520
129.000	142.828	80.006	19.994	103.940	20.004	3.529	0.516
129.500	143.084	80.006	19.992	103.935	20.000	3.797	0.492
130.000	143.309	80.007	19.993	103.911	20.000	3.812	0.483
130.500	143.537	80.004	19.992	103.880	20.003	3.640	0.468
131.000	143.809	80.005	19.993	103.852	20.004	3.555	0.477
131.500	144.064	80.006	19.993	103.831	20.003	3.636	0.513
132.000	144.291	80.006	19.994	103.835	19.999	3.880	0.505
132.500	144.553	80.006	19.993	103.855	20.001	3.727	0.486
133.000	144.796	80.006	19.993	103.879	20.001	3.777	0.497
133.500	144.995	80.006	19.994	103.893	20.000	3.817	0.473
134.000	145.247	80.006	19.992	103.898	20.004	3.566	0.447
134.500	145.517	80.006	19.993	103.888	20.001	3.730	0.486
135.000	145.774	80.006	19.993	103.873	20.004	3.548	0.524
135.500	145.955	80.006	19.993	103.855	20.003	3.644	0.482
136.000	146.193	80.006	19.993	103.850	20.003	3.639	0.429
136.500	146.457	80.005	19.993	103.860	20.004	3.576	0.461
137.000	146.710	80.006	19.993	103.882	20.002	3.659	0.509
137.500	146.949	80.006	19.992	103.904	20.004	3.560	0.504
138.000	147.207	80.006	19.994	103.929	20.001	3.776	0.494
138.500	147.434	80.006	19.993	103.940	20.001	3.765	0.491
139.000	147.733	80.006	19.993	103.939	20.005	3.490	0.505
139.500	147.962	80.005	19.992	103.923	20.005	3.468	0.527
140.000	148.197	80.005	19.994	103.909	20.003	3.635	0.496
140.500	148.416	80.006	19.992	103.893	20.006	3.432	0.459
141.000	148.652	80.004	19.994	103.882	20.005	3.480	0.455
141.500	148.940	80.005	19.993	103.874	20.006	3.430	0.489
142.000	149.166	80.006	19.994	103.874	20.005	3.468	0.519
142.500	149.440	80.005	19.994	103.868	20.005	3.471	0.507
143.000	149.654	80.006	19.993	103.858	20.005	3.474	0.494
143.500	149.892	80.005	19.993	103.851	20.004	3.527	0.470
144.000	150.120	80.004	19.994	103.854	20.006	3.379	0.459
144.500	150.422	80.005	19.993	103.862	20.004	3.521	0.498
145.000	150.669	80.005	19.994	103.873	20.005	3.508	0.540
145.500	150.899	80.005	19.994	103.891	20.004	3.550	0.513
146.000	151.131	80.006	19.994	103.906	20.001	3.749	0.470
146.500	151.350	80.004	19.994	103.909	20.003	3.594	0.457
147.000	151.620	80.004	19.995	103.896	20.003	3.606	0.470
147.500	151.857	80.005	19.994	103.880	20.006	3.405	0.498
148.000	152.139	80.004	19.995	103.864	20.004	3.515	0.513
148.500	152.368	80.005	19.996	103.852	20.006	3.442	0.515
149.000	152.624	80.005	19.993	103.845	20.005	3.467	0.497
149.500	152.830	80.005	19.994	103.849	20.004	3.545	0.474
150.000	153.122	80.007	19.993	103.858	20.002	3.655	0.480
150.500	153.329	80.006	19.995	103.878	20.004	3.552	0.498
151.000	153.573	80.006	19.995	103.891	20.004	3.580	0.475
151.500	153.811	80.006	19.995	103.899	20.004	3.517	0.467
152.000	154.059	80.007	19.996	103.902	20.005	3.494	0.484
152.500	154.310	80.007	19.994	103.907	20.004	3.527	0.492
153.000	154.553	80.007	19.994	103.895	20.002	3.659	0.497
153.500	154.833	80.007	19.994	103.875	20.004	3.557	0.508
154.000	155.053	80.006	19.994	103.853	20.006	3.432	0.511
154.500	155.318	80.007	19.992	103.827	20.002	3.699	0.493
155.000	155.530	80.006	19.996	103.796	20.002	3.701	0.482
155.500	155.766	80.009	19.994	103.777	20.000	3.846	0.463
156.000	156.011	80.007	19.993	103.776	20.006	3.412	0.464
156.500	156.311	80.007	19.994	103.796	20.002	3.658	0.513
157.000	156.532	80.007	19.992	103.820	19.999	3.874	0.533
157.500	156.777	80.007	19.994	103.845	20.003	3.633	0.493
158.000	157.047	80.007	19.993	103.864	20.002	3.707	0.490
158.500	157.293	80.009	19.993	103.882	20.004	3.578	0.515
159.000	157.564	80.008	19.993	103.888	20.002	3.710	0.517
159.500	157.809	80.008	19.992	103.902	20.003	3.626	0.517
160.000	158.044	80.006	19.992	103.921	20.003	3.628	0.498
160.500	158.285	80.007	19.993	103.929	20.004	3.544	0.479
161.000	158.546	80.008	19.992	103.912	20.003	3.595	0.489
161.500	158.784	80.008	19.993	103.886	20.002	3.705	0.500
162.000	159.045	80.007	19.992	103.877	20.001	3.732	0.499
162.500	159.298	80.008	19.993	103.875	20.001	3.732	0.506
163.000	159.557	80.006	19.993	103.859	20.002	3.658	0.513
163.500	159.755	80.008	19.993	103.848	20.003	3.637	0.485
164.000	160.014	80.006	19.993	103.849	20.001	3.722	0.457
164.500	160.303	80.006	19.993	103.827	20.002	3.657	0.502
165.000	160.534	80.006	19.993	103.794	20.004	3.533	0.534
165.500	160.808	80.006	19.992	103.795	20.005	3.462	0.513
166.000	161.076	80.005	19.992	103.817	20.002	3.648	0.523
166.500	161.303	80.006	19.993	103.836	20.003	3.635	0.518
167.000	161.518	80.005	19.993	103.863	20.002	3.657	0.469
167.500	161.811	80.004	19.993	103.895	20.002	3.666	0.475
168.000	162.053	80.004	19.992	103.925	20.001	3.761	0.521
168.500	162.296	80.005	19.992	103.938	20.003	3.603	0.510
169.000	162.536	80.004	19.994	103.935	20.003	3.581	0.484
169.500	162.795	80.004	19.993	103.926	20.002	3.663	0.491
170.000	163.045	80.005	19.993	103.912	20.002	3.693	0.504
170.500	163.283	80.003	19.992	103.898	20.002	3.713	0.498
171.000	163.548	80.003	19.993	103.887	20.000	3.801	0.495
171.500	163.760	80.004	19.992	103.885	20.003	3.646	0.490
172.000	164.063	80.004	19.992	103.878	20.005	3.500	0.496
172.500	164.281	80.003	19.992	103.871	20.001	3.785	0.518
173.000	164.539	80.004	19.993	103.867	20.003	3.647	0.498
173.500	164.825	80.004	19.992	103.873	20.001	3.774	0.510
174.000	165.092	80.003	19.993	103.872	20.000	3.790	0.549
174.500	165.316	80.004	19.993	103.870	20.002	3.683	0.522
175.000	165.595	80.003	19.994	103.863	20.000	3.819	0.497
175.500	165.844	80.005	19.993	103.855	20.000	3.807	0.516
176.000	166.072	80.004	19.993	103.841	19.995	4.191	0.503
176.500	166.311	80.003	19.993	103.829	19.997	4.045	0.472
177.000	166.565	80.004	19.994	103.829	19.999	3.866	0.480
177.500	166.821	80.005	19.993	103.837	19.997	4.011	0.502
178.000	167.067	80.005	19.994	103.843	19.999	3.891	0.506
178.500	167.352	80.005	19.993	103.842	19.996	4.075	0.517
179.000	167.610	80.004	19.993	103.841	19.996	4.115	0.537
179.500	167.823	80.004	19.992	103.842	20.001	3.752	0.507
180.000	168.065	80.004	19.994	103.851	19.997	4.013	0.463
180.500	168.311	80.006	19.995	103.852	19.998	3.940	0.472
181.000	168.545	80.004	19.994	103.853	19.998	3.973	0.484
181.500	168.776	80.004	19.995	103.870	20.000	3.845	0.472
182.000	169.067	80.004	19.994	103.889	19.997	4.004	0.493
182.500	169.278	80.004	19.996	103.882	19.999	3.882	0.512
183.000	169.586	80.005	19.994	103.868	19.998	3.939	0.511
183.500	169.830	80.004	19.994	103.884	19.996	4.109	0.536
184.000	170.066	80.004	19.993	103.894	19.998	3.972	0.516
184.500	170.321	80.003	19.994	103.878	19.997	4.003	0.485
185.000	170.569	80.005	19.994	103.866	20.000	3.839	0.497
185.500	170.843	80.002	19.992	103.881	20.000	3.843	0.512
186.000	171.049	80.005	19.993	103.875	19.999	3.886	0.501
186.500	171.322	80.004	19.994	103.846	19.995	4.179	0.480
187.000	171.535	80.004	19.994	103.843	19.999	3.905	0.483
187.500	171.799	80.004	19.993	103.855	19.999	3.884	0.482
188.000	172.070	80.005	19.994	103.855	19.999	3.921	0.506
188.500	172.308	80.004	19.992	103.853	19.997	4.041	0.522
189.000	172.549	80.004	19.991	103.869	19.999	3.922	0.494
189.500	172.851	80.004	19.993	103.887	19.999	3.914	0.511
190.000	173.057	80.004	19.993	103.899	20.000	3.847	0.525
190.500	173.352	80.005	19.992	103.905	19.998	3.984	0.504
191.000	173.563	80.004	19.993	103.911	19.995	4.167	0.504
191.500	173.800	80.004	19.993	103.901	19.998	3.933	0.477
192.000	174.089	80.004	19.993	103.877	19.999	3.883	0.487
192.500	174.344	80.005	19.994	103.854	19.999	3.909	0.535
193.000	174.548	80.004	19.992	103.830	19.997	4.048	0.501
193.500	174.817	80.005	19.991	103.813	19.998	3.959	0.466
194.000	175.085	80.004	19.993	103.822	19.998	3.963	0.505
194.500	175.299	80.003	19.993	103.832	19.999	3.855	0.510
195.000	175.545	80.003	19.993	103.838	19.996	4.085	0.471
195.500	175.778	80.004	19.993	103.844	19.996	4.081	0.469
196.000	176.047	80.005	19.993	103.847	19.998	3.931	0.490
196.500	176.299	80.005	19.992	103.836	19.994	4.260	0.512
197.000	176.514	80.003	19.993	103.832	19.998	3.963	0.494
197.500	176.782	80.004	19.992	103.833	19.997	4.047	0.475
198.000	177.024	80.003	19.992	103.832	19.997	4.025	0.497
198.500	177.299	80.003	19.993	103.834	19.996	4.120	0.514
199.000	177.506	80.004	19.993	103.848	19.994	4.259	0.500
199.500	177.801	80.004	19.991	103.865	19.996	4.092	0.492
200.000	178.028	80.003	19.993	103.886	19.994	4.211	0.512
200.500	178.272	80.004	19.992	103.905	19.995	4.160	0.496
201.000	178.509	80.004	19.993	103.910	19.998	3.925	0.476
201.500	178.777	80.004	19.993	103.894	19.997	4.014	0.493
202.000	179.035	80.006	19.994	103.863	20.000	3.807	0.516
202.500	179.260	80.003	19.993	103.826	19.997	4.009	0.505
203.000	179.531	80.005	19.993	103.795	19.993	4.334	0.490
203.500	179.732	80.004	19.994	103.781	19.995	4.181	0.484
204.000	179.987	80.003	19.993	103.788	19.998	3.977	0.464
204.500	180.200	80.004	19.993	103.803	19.992	4.380	0.462
205.000	180.491	80.005	19.994	103.815	19.993	4.307	0.486
205.500	180.704	80.005	19.992	103.818	19.993	4.320	0.504
206.000	180.984	80.004	19.993	103.815	19.992	4.402	0.498
206.500	181.195	80.005	19.994	103.808	19.993	4.302	0.492
207.000	181.480	80.004	19.993	103.804	19.993	4.313	0.494
207.500	181.725	80.004	19.993	103.807	19.991	4.420	0.513
208.000	181.989	80.005	19.993	103.813	19.993	4.319	0.519
208.500	182.243	80.005	19.993	103.821	19.993	4.326	0.514
209.000	182.468	80.005	19.993	103.830	19.993	4.306	0.499
209.500	182.716	80.005	19.993	103.837	19.994	4.220	0.476
210.000	182.975	80.006	19.994	103.837	19.995	4.133	0.490
210.500	183.180	80.006	19.991	103.834	19.997	4.018	0.485
211.000	183.477	80.006	19.993	103.835	19.995	4.177	0.483
211.500	183.686	80.006	19.993	103.839	20.001	3.738	0.504
212.000	183.902	80.005	19.994	103.843	19.999	3.912	0.466
212.500	184.162	80.006	19.993	103.849	19.995	4.156	0.451
213.000	184.431	80.005	19.994	103.853	19.996	4.089	0.503
213.500	184.666	80.006	19.993	103.853	19.994	4.241	0.516
214.000	184.926	80.006	19.994	103.846	19.997	4.031	0.499
214.500	185.216	80.007	19.992	103.837	19.996	4.075	0.523
215.000	185.411	80.005	19.992	103.825	19.997	4.047	0.517
215.500	185.682	80.006	19.994	103.811	19.998	3.978	0.475
216.000	185.935	80.006	19.993	103.799	19.998	3.928	0.495
216.500	186.205	80.006	19.994	103.797	20.000	3.846	0.524
217.000	186.450	80.007	19.994	103.806	19.996	4.089	0.520
217.500	186.698	80.007	19.994	103.828	19.999	3.854	0.504
218.000	186.953	80.006	19.994	103.851	19.996	4.109	0.498
218.500	187.196	80.006	19.993	103.865	19.999	3.911	0.500
219.000	187.462	80.006	19.994	103.861	20.001	3.757	0.504
219.500	187.636	80.006	19.993	103.845	20.000	3.788	0.474
220.000	187.909	80.005	19.994	103.824	20.002	3.704	0.444
220.500	188.137	80.006	19.992	103.818	19.999	3.891	0.474
221.000	188.368	80.006	19.993	103.830	20.000	3.811	0.480
221.500	188.662	80.006	19.993	103.846	19.999	3.876	0.492
222.000	188.874	80.005	19.994	103.842	19.998	3.980	0.515
222.500	189.144	80.007	19.992	103.825	19.996	4.115	0.494
223.000	189.378	80.006	19.994	103.803	19.997	4.029	0.493
223.500	189.614	80.006	19.994	103.778	19.996	4.064	0.487
224.000	189.856	80.007	19.993	103.766	19.997	4.020	0.473
224.500	190.118	80.006	19.994	103.779	19.992	4.377	0.491
225.000	190.391	80.006	19.993	103.800	19.997	4.036	0.520
225.500	190.634	80.007	19.992	103.809	19.995	4.195	0.525
226.000	190.844	80.006	19.993	103.805	19.995	4.172	0.484
226.500	191.140	80.006	19.994	103.799	19.993	4.295	0.480
227.000	191.400	80.006	19.994	103.787	19.997	4.036	0.532
227.500	191.596	80.006	19.994	103.775	19.998	3.968	0.506
228.000	191.871	80.006	19.994	103.774	19.995	4.162	0.463
228.501	192.104	80.006	19.994	103.781	19.995	4.181	0.490
229.001	192.381	80.006	19.994	103.785	19.998	3.958	0.509
229.500	192.628	80.007	19.993	103.788	19.994	4.220	0.516
230.000	192.842	80.006	19.994	103.795	19.996	4.079	0.492
230.500	193.111	80.005	19.995	103.799	19.995	4.194	0.473
231.000	193.349	80.006	19.993	103.798	19.992	4.347	0.495
231.500	193.574	80.006	19.993	103.801	19.995	4.131	0.485
232.000	193.836	80.006	19.994	103.809	19.994	4.242	0.474
232.500	194.140	80.006	19.993	103.816	19.992	4.391	0.527
233.000	194.370	80.006	19.994	103.812	19.992	4.354	0.551
233.500	194.633	80.007	19.995	103.805	19.996	4.094	0.514
234.000	194.857	80.006	19.994	103.800	19.994	4.239	0.489
234.500	195.118	80.006	19.995	103.806	19.994	4.255	0.486
235.000	195.349	80.006	19.994	103.810	19.995	4.189	0.489
235.500	195.579	80.007	19.993	103.832	19.994	4.225	0.477
236.000	195.860	80.007	19.994	103.875	19.996	4.077	0.486
236.500	196.077	80.007	19.994	103.904	19.995	4.175	0.505
237.000	196.297	80.009	19.994	103.895	19.998	3.974	0.468
237.500	196.569	80.008	19.995	103.881	19.998	3.926	0.464
238.000	196.797	80.006	19.993	103.879	19.997	4.049	0.496
238.500	197.022	80.007	19.993	103.877	19.996	4.079	0.476
239.000	197.310	80.006	19.993	103.872	19.994	4.244	0.483
239.500	197.553	80.006	19.992	103.870	19.999	3.913	0.522
240.000	197.739	80.007	19.994	103.874	20.000	3.799	0.481
240.500	198.018	80.006	19.996	103.870	20.000	3.844	0.447
241.000	198.274	80.008	19.995	103.849	19.998	3.942	0.500
241.500	198.544	80.007	19.995	103.825	19.998	3.981	0.530
242.000	198.782	80.007	19.995	103.815	19.999	3.894	0.517
242.500	199.031	80.006	19.995	103.812	19.998	3.955	0.498
243.000	199.275	80.006	19.994	103.796	20.001	3.749	0.490
243.500	199.504	80.006	19.994	103.777	20.000	3.823	0.482
244.000	199.738	80.006	19.995	103.778	19.998	3.952	0.468
244.500	200.007	80.007	19.995	103.800	19.993	4.294	0.483
245.000	200.214	80.005	19.994	103.819	19.993	4.263	0.489
245.500	200.480	80.006	19.995	103.830	19.990	4.488	0.475
246.000	200.684	80.006	19.995	103.844	19.990	4.478	0.472
246.500	200.959	80.005	19.993	103.850	19.989	4.597	0.475
247.000	201.182	80.003	19.995	103.843	19.987	4.722	0.488
247.500	201.434	80.003	19.994	103.835	19.990	4.515	0.486
248.000	201.680	80.004	19.994	103.835	19.992	4.354	0.486
248.500	201.908	80.005	19.994	103.829	19.992	4.365	0.486
249.000	202.164	80.005	19.994	103.817	19.989	4.568	0.479
249.500	202.401	80.003	19.994	103.801	19.991	4.472	0.489
250.000	202.624	80.004	19.994	103.792	19.987	4.691	0.476
250.500	202.890	80.004	19.993	103.785	19.990	4.494	0.474
251.000	203.117	80.003	19.994	103.781	19.989	4.556	0.491
251.500	203.357	80.005	19.993	103.784	19.995	4.165	0.480
252.000	203.650	80.004	19.994	103.790	19.993	4.306	0.500
252.500	203.861	80.005	19.992	103.785	19.993	4.270	0.518
253.000	204.113	80.006	19.994	103.781	19.992	4.334	0.483
253.500	204.363	80.005	19.995	103.783	19.992	4.367	0.482
254.000	204.603	80.004	19.994	103.779	19.989	4.593	0.496
254.500	204.822	80.005	19.993	103.768	19.988	4.622	0.475
255.000	205.094	80.003	19.993	103.761	19.989	4.575	0.475
255.500	205.348	80.004	19.992	103.757	19.993	4.265	0.508
256.000	205.555	80.005	19.992	103.756	19.990	4.471	0.494
256.500	205.832	80.003	19.993	103.768	19.992	4.391	0.473
257.000	206.053	80.005	19.992	103.790	19.997	4.008	0.491
257.500	206.272	80.004	19.993	103.822	19.999	3.915	0.469
258.000	206.548	80.004	19.993	103.864	19.998	3.949	0.468
258.500	206.796	80.004	19.993	103.912	19.998	3.954	0.510
259.000	207.034	80.004	19.993	103.964	19.999	3.912	0.505
259.500	207.267	80.005	19.992	104.008	19.999	3.859	0.478
260.000	207.500	80.003	19.993	104.026	20.000	3.821	0.468
260.500	207.744	80.003	19.993	104.013	19.998	3.979	0.472
261.000	207.987	80.003	19.993	103.973	19.995	4.191	0.482
261.500	208.263	80.004	19.993	103.915	19.994	4.206	0.503
262.000	208.497	80.003	19.993	103.856	19.994	4.239	0.514
262.500	208.705	80.004	19.993	103.810	19.992	4.376	0.476
263.000	208.998	80.004	19.993	103.783	19.993	4.288	0.472
263.500	209.229	80.004	19.995	103.771	19.991	4.417	0.513
264.000	209.430	80.006	19.993	103.770	19.992	4.355	0.478
264.500	209.733	80.005	19.994	103.777	19.993	4.300	0.468
265.000	209.937	80.004	19.993	103.786	19.993	4.326	0.506
265.500	210.217	80.006	19.993	103.791	19.993	4.282	0.496
266.000	210.436	80.004	19.994	103.792	19.992	4.349	0.491
266.500	210.703	80.005	19.992	103.788	19.990	4.490	0.492
267.000	210.979	80.005	19.993	103.781	19.988	4.620	0.514
267.500	211.210	80.005	19.993	103.775	19.991	4.406	0.525
268.000	211.402	80.004	19.992	103.775	19.992	4.364	0.465
268.500	211.648	80.005	19.994	103.780	19.993	4.325	0.430
269.000	211.855	80.005	19.994	103.792	19.990	4.499	0.445
269.500	212.169	80.006	19.994	103.803	19.988	4.659	0.487
270.000	212.381	80.005	19.992	103.809	19.994	4.222	0.524
270.500	212.645	80.005	19.994	103.812	19.993	4.317	0.501
271.000	212.876	80.004	19.993	103.818	19.995	4.142	0.485
271.500	213.159	80.005	19.994	103.821	19.993	4.275	0.504
272.000	213.402	80.005	19.993	103.836	19.996	4.123	0.520
272.500	213.645	80.004	19.993	103.846	19.996	4.100	0.506
273.000	213.885	80.004	19.993	103.851	19.992	4.345	0.485
273.500	214.132	80.004	19.993	103.849	19.997	4.045	0.485
274.000	214.371	80.004	19.993	103.852	19.995	4.150	0.486
274.500	214.603	80.005	19.994	103.849	19.996	4.095	0.479
275.000	214.858	80.005	19.994	103.857	19.996	4.083	0.479
275.500	215.113	80.004	19.994	103.873	19.997	4.041	0.498
276.000	215.326	80.004	19.993	103.890	19.991	4.404	0.489
276.500	215.573	80.004	19.995	103.898	19.994	4.256	0.464
277.000	215.835	80.006	19.994	103.906	19.994	4.224	0.484
277.500	216.133	80.004	19.994	103.900	19.994	4.218	0.535
278.000	216.323	80.005	19.994	103.882	19.994	4.250	0.524
278.500	216.594	80.005	19.993	103.859	19.995	4.185	0.475
279.000	216.830	80.004	19.994	103.836	19.990	4.508	0.484
279.500	217.093	80.004	19.994	103.817	19.990	4.507	0.503
280.000	217.346	80.004	19.994	103.811	19.993	4.294	0.508
280.500	217.569	80.005	19.993	103.810	19.992	4.353	0.496
281.000	217.829	80.002	19.993	103.818	19.992	4.361	0.479
281.500	218.085	80.003	19.994	103.824	19.989	4.568	0.499
282.000	218.304	80.004	19.994	103.821	19.993	4.321	0.495
282.500	218.561	80.005	19.994	103.810	19.991	4.461	0.475
283.000	218.804	80.005	19.993	103.802	19.991	4.419	0.489
283.500	219.060	80.004	19.993	103.799	19.990	4.517	0.500
284.000	219.331	80.004	19.993	103.801	19.989	4.561	0.513
284.500	219.627	80.004	19.994	103.805	19.987	4.729	0.547
285.000	219.843	80.004	19.993	103.815	19.989	4.591	0.539
285.500	220.109	80.005	19.992	103.818	19.985	4.858	0.497
286.000	220.314	80.006	19.993	103.813	19.988	4.617	0.477
286.500	220.570	80.005	19.993	103.805	19.990	4.507	0.466
287.000	220.805	80.005	19.994	103.807	19.992	4.363	0.476
287.500	221.037	80.004	19.994	103.813	19.989	4.543	0.479
288.000	221.310	80.004	19.994	103.828	19.990	4.490	0.486
288.500	221.540	80.006	19.993	103.858	19.989	4.575	0.504
289.000	221.811	80.006	19.993	103.891	19.991	4.447	0.502
289.500	222.052	80.006	19.993	103.898	19.987	4.725	0.506
290.000	222.314	80.005	19.993	103.886	19.990	4.489	0.508
290.500	222.537	80.006	19.993	103.859	19.989	4.582	0.495
291.000	222.788	80.005	19.993	103.812	19.986	4.795	0.479
291.500	223.043	80.006	19.993	103.764	19.989	4.559	0.490
292.000	223.268	80.007	19.992	103.734	19.990	4.483	0.493
292.500	223.537	80.005	19.992	103.726	19.987	4.703	0.487
293.000	223.746	80.007	19.993	103.738	19.988	4.661	0.486
293.500	223.973	80.006	19.993	103.751	19.986	4.746	0.457
294.000	224.240	80.006	19.993	103.760	19.989	4.595	0.465
294.500	224.491	80.006	19.993	103.778	19.988	4.654	0.506
295.000	224.696	80.008	19.993	103.794	19.988	4.612	0.487
295.500	224.974	80.007	19.993	103.803	19.988	4.663	0.469
296.000	225.207	80.006	19.993	103.821	19.988	4.641	0.497
296.500	225.465	80.007	19.993	103.843	19.986	4.755	0.501
297.000	225.740	80.007	19.992	103.856	19.987	4.713	0.512
297.500	225.977	80.006	19.994	103.863	19.984	4.907	0.522
298.000	226.219	80.008	19.991	103.867	19.984	4.890	0.495
298.500	226.458	80.006	19.992	103.862	19.986	4.797	0.480
299.000	226.683	80.006	19.993	103.855	19.988	4.673	0.473
299.500	226.959	80.005	19.993	103.848	19.984	4.887	0.483
300.000	227.211	80.007	19.994	103.841	19.984	4.942	0.514
300.500	227.464	80.007	19.995	103.838	19.984	4.933	0.516
301.000	227.691	80.009	19.991	103.838	19.983	5.006	0.493
301.500	227.955	80.006	19.994	103.839	19.987	4.694	0.486
302.000	228.222	80.007	19.995	103.836	19.987	4.735	0.511
302.500	228.479	80.006	19.994	103.829	19.985	4.869	0.527
303.000	228.722	80.006	19.992	103.819	19.989	4.610	0.512
303.500	228.958	80.005	19.993	103.818	19.988	4.665	0.490
304.000	229.218	80.005	19.993	103.813	19.989	4.571	0.487
304.500	229.481	80.005	19.994	103.809	19.986	4.782	0.510
305.000	229.748	80.005	19.992	103.816	19.988	4.659	0.527
305.500	230.013	80.005	19.994	103.821	19.984	4.911	0.531
306.000	230.244	80.006	19.993	103.818	19.987	4.710	0.514
306.500	230.469	80.006	19.994	103.821	19.986	4.790	0.476
307.000	230.745	80.006	19.994	103.824	19.986	4.780	0.479
307.500	230.985	80.005	19.993	103.825	19.984	4.925	0.509
308.000	231.253	80.005	19.992	103.834	19.985	4.866	0.512
308.500	231.495	80.005	19.994	103.837	19.986	4.771	0.509
309.000	231.748	80.005	19.994	103.832	19.983	4.993	0.503
309.500	231.994	80.005	19.994	103.828	19.985	4.833	0.497
310.000	232.191	80.005	19.995	103.819	19.984	4.883	0.470
310.500	232.438	80.006	19.994	103.805	19.986	4.780	0.443
311.000	232.625	80.005	19.995	103.805	19.983	5.012	0.439
311.500	232.934	80.006	19.994	103.812	19.987	4.701	0.465
312.000	233.183	80.007	19.994	103.826	19.983	4.978	0.527
312.500	233.453	80.006	19.994	103.838	19.983	4.959	0.538
313.000	233.672	80.006	19.993	103.853	19.985	4.814	0.504
313.500	233.923	80.005	19.994	103.866	19.984	4.942	0.479
314.000	234.157	80.006	19.994	103.867	19.985	4.868	0.477
314.500	234.413	80.006	19.993	103.856	19.984	4.935	0.488
315.000	234.645	80.007	19.993	103.845	19.986	4.791	0.489
315.500	234.901	80.007	19.993	103.830	19.981	5.105	0.488
316.000	235.171	80.006	19.993	103.813	19.982	5.036	0.507
316.500	235.398	80.007	19.993	103.803	19.980	5.210	0.512
317.000	235.659	80.007	19.994	103.800	19.980	5.174	0.492
317.500	235.941	80.008	19.994	103.801	19.982	5.063	0.515
318.000	236.190	80.006	19.994	103.805	19.979	5.278	0.537
318.500	236.424	80.009	19.993	103.807	19.976	5.458	0.507
319.000	236.654	80.007	19.992	103.807	19.978	5.298	0.474
319.500	236.910	80.007	19.993	103.807	19.977	5.405	0.475
320.000	237.172	80.006	19.994	103.802	19.979	5.262	0.502
320.500	237.428	80.007	19.992	103.797	19.977	5.391	0.518
321.000	237.659	80.007	19.993	103.797	19.978	5.360	0.503
321.500	237.907	80.008	19.992	103.802	19.977	5.419	0.483
322.000	238.156	80.008	19.993	103.806	19.978	5.358	0.488
322.500	238.392	80.006	19.992	103.809	19.979	5.254	0.491
323.000	238.639	80.007	19.993	103.806	19.978	5.314	0.484
323.500	238.879	80.007	19.993	103.800	19.979	5.290	0.485
324.000	239.153	80.007	19.992	103.795	19.977	5.394	0.500
324.500	239.406	80.006	19.993	103.799	19.980	5.173	0.521
325.000	239.609	80.006	19.993	103.809	19.976	5.434	0.491
325.500	239.877	80.007	19.993	103.821	19.979	5.265	0.463
326.000	240.131	80.006	19.993	103.831	19.976	5.451	0.497
326.500	240.339	80.007	19.993	103.837	19.978	5.340	0.492
327.000	240.595	80.006	19.992	103.830	19.977	5.368	0.463
327.500	240.856	80.007	19.993	103.836	19.978	5.360	0.490
328.000	241.126	80.006	19.994	103.847	19.974	5.600	0.524
328.500	241.375	80.005	19.994	103.862	19.977	5.425	0.525
329.000	241.643	80.005	19.994	103.872	19.974	5.628	0.518
329.500	241.838	80.005	19.993	103.865	19.973	5.665	0.490
330.000	242.121	80.005	19.994	103.859	19.974	5.597	0.470
330.500	242.365	80.002	19.994	103.854	19.972	5.748	0.502
331.000	242.637	80.005	19.994	103.847	19.973	5.681	0.522
331.500	242.862	80.005	19.994	103.854	19.976	5.439	0.507
332.000	243.113	80.004	19.995	103.875	19.974	5.628	0.487
332.500	243.412	80.004	19.994	103.879	19.974	5.585	0.513
333.000	243.634	80.004	19.996	103.866	19.972	5.749	0.535
333.500	243.896	80.004	19.995	103.848	19.975	5.557	0.502
334.000	244.142	80.003	19.995	103.822	19.967	6.100	0.496
334.500	244.392	80.004	19.994	103.806	19.969	5.981	0.502
335.000	244.624	80.005	19.995	103.793	19.966	6.134	0.489
335.500	244.918	80.004	19.994	103.791	19.964	6.267	0.504
336.000	245.127	80.003	19.994	103.795	19.965	6.229	0.514
336.500	245.414	80.002	19.994	103.798	19.958	6.701	0.499
337.000	245.658	80.004	19.995	103.795	19.959	6.647	0.514
337.500	245.915	80.003	19.994	103.789	19.959	6.612	0.516
338.000	246.152	80.004	19.995	103.781	19.957	6.808	0.497
338.500	246.397	80.002	19.994	103.765	19.960	6.576	0.488
339.000	246.661	80.003	19.995	103.749	19.960	6.608	0.495
339.500	246.902	80.003	19.995	103.737	19.957	6.802	0.507
340.000	247.159	80.003	19.995	103.734	19.955	6.910	0.502
340.500	247.407	80.004	19.993	103.740	19.955	6.925	0.501
341.000	247.664	80.004	19.995	103.753	19.952	7.088	0.505
341.500	247.915	80.004	19.995	103.772	19.952	7.147	0.507
342.000	248.125	80.003	19.995	103.794	19.954	7.004	0.485
342.500	248.390	80.004	19.994	103.817	19.952	7.105	0.468
343.000	248.635	80.003	19.994	103.836	19.954	6.990	0.492
343.500	248.886	80.004	19.995	103.853	19.950	7.263	0.503
344.000	249.168	80.005	19.994	103.862	19.953	7.070	0.514
344.500	249.385	80.004	19.995	103.854	19.953	7.069	0.516
345.000	249.703	80.003	19.994	103.841	19.950	7.226	0.517
345.500	249.918	80.005	19.995	103.822	19.953	7.077	0.534
346.000	250.172	80.004	19.994	103.803	19.951	7.220	0.501
346.500	250.445	80.005	19.994	103.783	19.949	7.308	0.498
347.000	250.698	80.004	19.993	103.777	19.950	7.240	0.527
347.500	250.911	80.005	19.993	103.784	19.952	7.136	0.496
348.000	251.195	80.004	19.993	103.811	19.951	7.171	0.482
348.500	251.438	80.005	19.992	103.847	19.953	7.046	0.512
349.000	251.710	80.005	19.993	103.891	19.954	6.957	0.520
349.500	251.949	80.004	19.992	103.946	19.952	7.093	0.513
350.000	252.184	80.005	19.993	103.995	19.953	7.065	0.493
350.500	252.442	80.005	19.993	104.018	19.951	7.167	0.483
351.000	252.684	80.006	19.993	104.009	19.950	7.223	0.496
351.500	252.926	80.006	19.993	103.981	19.946	7.521	0.492
352.000	253.168	80.005	19.993	103.939	19.943	7.707	0.484
352.500	253.423	80.004	19.992	103.892	19.943	7.764	0.491
353.000	253.691	80.004	19.992	103.850	19.946	7.536	0.510
353.500	253.896	80.004	19.993	103.829	19.944	7.697	0.498
354.000	254.178	80.005	19.993	103.824	19.945	7.635	0.480
354.500	254.433	80.005	19.994	103.838	19.941	7.906	0.512
355.000	254.729	80.004	19.994	103.876	19.939	7.981	0.544
355.500	254.959	80.006	19.993	103.913	19.940	7.976	0.539
356.000	255.202	80.005	19.993	103.938	19.939	7.991	0.500
356.500	255.462	80.006	19.992	103.946	19.940	7.961	0.488
357.000	255.712	80.005	19.993	103.932	19.938	8.061	0.506
357.500	255.952	80.005	19.992	103.884	19.934	8.331	0.500
358.000	256.199	80.006	19.993	103.833	19.933	8.425	0.489
358.500	256.454	80.006	19.994	103.806	19.929	8.712	0.494
359.000	256.685	80.005	19.993	103.792	19.929	8.674	0.494
359.500	256.929	80.004	19.993	103.781	19.930	8.614	0.481
360.000	257.175	80.005	19.995	103.775	19.927	8.827	0.482
360.500	257.400	80.006	19.995	103.774	19.927	8.804	0.481
361.000	257.650	80.006	19.993	103.770	19.927	8.796	0.473
361.500	257.922	80.005	19.995	103.770	19.924	9.014	0.498
362.000	258.178	80.005	19.995	103.781	19.924	9.023	0.525
362.500	258.440	80.003	19.995	103.805	19.921	9.218	0.523
363.000	258.677	80.004	19.993	103.842	19.926	8.916	0.508
363.500	258.948	80.004	19.995	103.878	19.921	9.218	0.504
364.000	259.168	80.005	19.993	103.905	19.921	9.228	0.500
364.500	259.451	80.003	19.994	103.925	19.920	9.322	0.497
365.000	259.653	80.004	19.994	103.934	19.919	9.363	0.494
365.500	259.901	80.005	19.994	103.934	19.919	9.380	0.467
366.000	260.132	80.005	19.993	103.926	19.921	9.231	0.464
366.500	260.373	80.004	19.993	103.910	19.917	9.546	0.475
367.000	260.669	80.004	19.994	103.879	19.915	9.625	0.505
367.500	260.872	80.005	19.993	103.859	19.913	9.774	0.518
368.000	261.142	80.004	19.994	103.849	19.909	10.064	0.486
368.500	261.393	80.003	19.992	103.847	19.911	9.932	0.497
369.000	261.626	80.004	19.993	103.841	19.908	10.112	0.502
369.500	261.871	80.003	19.993	103.837	19.909	10.072	0.481
370.000	262.108	80.005	19.993	103.832	19.907	10.181	0.481
370.500	262.343	80.004	19.994	103.824	19.907	10.191	0.477
371.000	262.607	80.005	19.993	103.802	19.904	10.431	0.485
371.500	262.836	80.004	19.992	103.804	19.906	10.297	0.496
372.000	263.111	80.004	19.993	103.816	19.902	10.565	0.499
372.500	263.338	80.004	19.992	103.817	19.903	10.459	0.503
373.000	263.592	80.006	19.992	103.809	19.899	10.729	0.492
373.500	263.861	80.005	19.992	103.822	19.899	10.771	0.502
374.000	264.101	80.006	19.993	103.839	19.899	10.774	0.516
374.500	264.334	80.005	19.993	103.860	19.896	10.950	0.492
375.000	264.593	80.006	19.994	103.883	19.895	11.019	0.483
375.500	264.834	80.005	19.993	103.898	19.893	11.187	0.495
376.000	265.097	80.007	19.994	103.893	19.890	11.387	0.502
376.500	265.323	80.006	19.993	103.866	19.888	11.545	0.497
377.000	265.582	80.008	19.993	103.834	19.886	11.657	0.487
377.500	265.822	80.006	19.992	103.813	19.883	11.862	0.492
378.000	266.085	80.006	19.992	103.798	19.883	11.889	0.501
378.500	266.299	80.007	19.992	103.786	19.879	12.133	0.490
379.000	266.553	80.007	19.993	103.780	19.878	12.204	0.472
379.500	266.802	80.006	19.993	103.772	19.876	12.373	0.485
380.000	267.104	80.006	19.992	103.769	19.876	12.327	0.527
380.500	267.289	80.007	19.993	103.783	19.876	12.358	0.519
381.000	267.561	80.007	19.992	103.825	19.876	12.325	0.472
381.500	267.791	80.007	19.993	103.876	19.869	12.794	0.479
382.000	268.032	80.006	19.993	103.916	19.873	12.544	0.486
382.500	268.281	80.006	19.993	103.923	19.873	12.547	0.481
383.000	268.525	80.006	19.992	103.904	19.870	12.712	0.492
383.500	268.786	80.006	19.993	103.872	19.870	12.757	0.499
384.000	269.045	80.006	19.992	103.850	19.868	12.889	0.512
384.500	269.315	80.007	19.993	103.839	19.867	12.934	0.524
385.000	269.558	80.006	19.993	103.842	19.868	12.869	0.521
385.500	269.824	80.006	19.993	103.852	19.865	13.099	0.511
386.000	270.064	80.006	19.992	103.863	19.862	13.256	0.508
386.500	270.322	80.005	19.992	103.872	19.861	13.357	0.502
387.000	270.642	80.005	19.993	103.891	19.858	13.561	0.538
387.500	270.860	80.004	19.992	103.920	19.859	13.508	0.558
388.000	271.123	80.005	19.993	103.953	19.859	13.519	0.510
388.500	271.364	80.005	19.993	103.982	19.856	13.705	0.492
389.000	271.642	80.005	19.992	103.989	19.851	14.063	0.512
389.500	271.893	80.006	19.993	103.984	19.852	14.003	0.524
390.000	272.113	80.005	19.992	103.962	19.847	14.317	0.500
390.500	272.365	80.005	19.993	103.937	19.849	14.214	0.472
391.000	272.616	80.005	19.993	103.905	19.843	14.566	0.488
391.500	272.889	80.005	19.994	103.879	19.838	14.951	0.513
392.000	273.129	80.006	19.994	103.860	19.838	14.982	0.518
392.500	273.361	80.005	19.993	103.852	19.837	15.047	0.493
393.000	273.599	80.005	19.993	103.843	19.834	15.193	0.471
393.500	273.794	80.004	19.994	103.837	19.831	15.401	0.452
394.000	274.104	80.006	19.993	103.836	19.829	15.595	0.469
394.500	274.317	80.004	19.994	103.829	19.825	15.871	0.514
395.000	274.566	80.006	19.993	103.821	19.826	15.750	0.493
395.500	274.847	80.007	19.993	103.816	19.824	15.933	0.496
396.000	275.123	80.007	19.993	103.813	19.818	16.350	0.543
396.500	275.364	80.006	19.993	103.815	19.814	16.593	0.536
397.000	275.628	80.006	19.993	103.822	19.814	16.621	0.511
397.500	275.873	80.006	19.993	103.826	19.812	16.707	0.507
398.000	276.100	80.007	19.993	103.830	19.811	16.827	0.490
398.500	276.353	80.006	19.993	103.830	19.809	16.976	0.476
399.000	276.585	80.006	19.993	103.829	19.803	17.357	0.483
399.500	276.867	80.007	19.993	103.826	19.804	17.257	0.500
400.000	277.110	80.007	19.993	103.815	19.799	17.642	0.519
400.500	277.329	80.006	19.993	103.808	19.799	17.629	0.493
401.000	277.593	80.006	19.993	103.819	19.797	17.762	0.472
401.500	277.809	80.006	19.992	103.835	19.795	17.908	0.482
402.000	278.056	80.006	19.994	103.847	19.795	17.883	0.472
402.500	278.308	80.007	19.993	103.870	19.792	18.105	0.481
403.000	278.614	80.007	19.995	103.896	19.791	18.159	0.528
403.500	278.819	80.007	19.994	103.914	19.789	18.276	0.534
404.000	279.083	80.007	19.994	103.922	19.789	18.284	0.490
404.500	279.314	80.008	19.994	103.937	19.787	18.431	0.482
405.000	279.598	80.008	19.993	103.954	19.787	18.423	0.505
405.500	279.811	80.008	19.993	103.953	19.781	18.851	0.506
406.000	280.079	80.006	19.992	103.935	19.784	18.681	0.490
406.500	280.307	80.007	19.992	103.909	19.780	18.947	0.489
407.000	280.542	80.007	19.993	103.886	19.776	19.223	0.479
407.500	280.796	80.006	19.994	103.872	19.779	18.994	0.476
408.000	281.051	80.008	19.994	103.881	19.774	19.373	0.499
408.500	281.331	80.006	19.993	103.905	19.769	19.704	0.522
409.000	281.513	80.005	19.993	103.930	19.766	19.889	0.499
409.500	281.783	80.006	19.994	103.948	19.767	19.832	0.456
410.000	282.053	80.006	19.993	103.951	19.766	19.893	0.495
410.500	282.303	80.006	19.992	103.932	19.761	20.259	0.530
411.000	282.552	80.006	19.993	103.912	19.761	20.272	0.510
411.500	282.785	80.005	19.993	103.916	19.760	20.321	0.491
412.000	283.065	80.006	19.994	103.925	19.755	20.681	0.498
412.500	283.316	80.005	19.993	103.918	19.750	20.982	0.522
413.000	283.535	80.005	19.993	103.918	19.751	20.934	0.500
413.500	283.828	80.005	19.993	103.918	19.749	21.091	0.491
414.000	284.015	80.005	19.994	103.897	19.749	21.093	0.496
414.500	284.275	80.005	19.994	103.869	19.745	21.363	0.463
415.000	284.536	80.005	19.995	103.864	19.742	21.568	0.484
415.500	284.771	80.004	19.994	103.867	19.739	21.726	0.509
416.000	285.036	80.004	19.994	103.883	19.737	21.859	0.498
416.500	285.277	80.005	19.993	103.904	19.735	22.021	0.503
417.000	285.531	80.004	19.995	103.914	19.731	22.266	0.501
417.500	285.776	80.005	19.994	103.913	19.728	22.530	0.497
418.000	286.038	80.005	19.994	103.902	19.729	22.445	0.503
418.500	286.264	80.005	19.993	103.887	19.726	22.632	0.497
419.000	286.512	80.004	19.994	103.877	19.727	22.590	0.481
419.500	286.801	80.004	19.993	103.887	19.725	22.720	0.505
420.000	287.060	80.003	19.995	103.902	19.727	22.592	0.542
420.500	287.296	80.005	19.995	103.920	19.724	22.755	0.522
421.000	287.512	80.004	19.994	103.921	19.724	22.793	0.474
421.500	287.776	80.005	19.995	103.914	19.719	23.088	0.466
422.000	288.037	80.005	19.995	103.912	19.716	23.295	0.502
422.500	288.281	80.004	19.995	103.921	19.719	23.090	0.515
423.000	288.512	80.005	19.994	103.930	19.718	23.207	0.490
423.500	288.770	80.004	19.994	103.944	19.711	23.685	0.482
424.000	289.000	80.004	19.994	103.950	19.713	23.508	0.488
424.500	289.287	80.004	19.994	103.947	19.713	23.516	0.502
425.000	289.494	80.004	19.994	103.935	19.709	23.834	0.506
425.500	289.767	80.005	19.995	103.929	19.709	23.847	0.487
426.000	290.001	80.003	19.995	103.915	19.703	24.242	0.494
426.500	290.218	80.004	19.994	103.906	19.702	24.311	0.479
427.000	290.466	80.004	19.994	103.897	19.700	24.429	0.457
427.500	290.735	80.004	19.995	103.888	19.702	24.304	0.491
428.000	290.976	80.003	19.995	103.880	19.703	24.201	0.514
428.500	291.242	80.005	19.994	103.900	19.701	24.339	0.509
429.000	291.470	80.005	19.995	103.932	19.698	24.581	0.500
429.500	291.716	80.005	19.994	103.950	19.695	24.749	0.484
430.000	291.997	80.005	19.994	103.959	19.695	24.779	0.501
430.500	292.228	80.004	19.994	103.963	19.692	24.952	0.519
431.000	292.453	80.004	19.994	103.945	19.690	25.108	0.483
431.500	292.720	80.004	19.995	103.914	19.691	25.028	0.474
432.000	292.918	80.005	19.995	103.904	19.689	25.198	0.479
432.500	293.250	80.005	19.994	103.897	19.687	25.286	0.498
433.000	293.436	80.005	19.995	103.894	19.686	25.372	0.524
433.500	293.724	80.004	19.994	103.896	19.683	25.569	0.496
434.000	293.983	80.004	19.995	103.902	19.682	25.630	0.510
434.500	294.246	80.004	19.994	103.903	19.678	25.912	0.535
435.000	294.447	80.005	19.994	103.913	19.676	26.050	0.494
435.500	294.723	80.003	19.994	103.923	19.677	25.995	0.471
436.000	294.968	80.004	19.995	103.931	19.674	26.233	0.499
436.500	295.281	80.004	19.994	103.939	19.673	26.274	0.539
437.000	295.489	80.005	19.995	103.935	19.670	26.487	0.539
437.500	295.706	80.004	19.994	103.928	19.670	26.482	0.473
438.000	295.988	80.004	19.995	103.921	19.665	26.801	0.462
438.500	296.228	80.004	19.993	103.913	19.665	26.864	0.510
439.000	296.486	80.005	19.994	103.906	19.664	26.879	0.510
439.500	296.707	80.005	19.994	103.909	19.659	27.261	0.489
440.000	296.961	80.004	19.995	103.912	19.661	27.124	0.477
440.500	297.192	80.005	19.993	103.907	19.661	27.083	0.480
441.000	297.461	80.004	19.993	103.903	19.661	27.101	0.492
441.500	297.710	80.005	19.993	103.901	19.658	27.317	0.509
442.000	297.978	80.005	19.993	103.896	19.658	27.355	0.518
442.500	298.247	80.004	19.992	103.894	19.656	27.475	0.527
443.000	298.465	80.005	19.994	103.897	19.655	27.517	0.512
443.500	298.734	80.004	19.993	103.899	19.654	27.586	0.487
444.000	298.967	80.005	19.994	103.902	19.654	27.576	0.494
444.500	299.239	80.005	19.993	103.907	19.654	27.564	0.504
445.000	299.469	80.004	19.993	103.905	19.654	27.560	0.504
445.500	299.735	80.004	19.994	103.907	19.649	27.950	0.499
446.000	299.960	80.004	19.994	103.909	19.649	27.969	0.493
446.500	300.212	80.003	19.993	103.911	19.647	28.081	0.484
447.000	300.478	80.004	19.994	103.911	19.646	28.170	0.498
447.500	300.713	80.004	19.993	103.915	19.644	28.283	0.510
448.000	300.966	80.004	19.994	103.916	19.644	28.288	0.495
448.500	301.209	80.004	19.993	103.918	19.643	28.328	0.492
449.000	301.440	80.004	19.994	103.915	19.645	28.216	0.485
449.500	301.695	80.004	19.994	103.909	19.643	28.329	0.480
450.000	301.910	80.003	19.992	103.908	19.643	28.338	0.478
450.500	302.185	80.003	19.992	103.907	19.640	28.584	0.480
451.000	302.416	80.004	19.993	103.907	19.643	28.326	0.498
451.500	302.688	80.003	19.995	103.919	19.639	28.616	0.504
452.000	302.959	80.005	19.992	103.936	19.641	28.454	0.523
452.500	303.178	80.004	19.992	103.952	19.640	28.558	0.517
453.000	303.430	80.005	19.991	103.969	19.641	28.471	0.481
453.500	303.669	80.004	19.994	103.982	19.641	28.507	0.481
454.000	303.929	80.004	19.993	103.982	19.643	28.335	0.495
454.500	304.198	80.004	19.994	103.971	19.642	28.450	0.514
455.000	304.479	80.005	19.993	103.953	19.643	28.343	0.540
455.500	304.696	80.006	19.992	103.932	19.640	28.545	0.525
456.000	304.950	80.006	19.993	103.914	19.640	28.578	0.484
456.500	305.200	80.006	19.993	103.914	19.638	28.663	0.487
457.000	305.468	80.006	19.993	103.921	19.637	28.772	0.511
457.500	305.727	80.004	19.993	103.921	19.637	28.760	0.522
458.000	305.976	80.006	19.993	103.918	19.636	28.852	0.517
458.500	306.248	80.006	19.993	103.913	19.636	28.810	0.515
459.000	306.462	80.006	19.992	103.907	19.636	28.790	0.504
459.500	306.683	80.005	19.993	103.907	19.633	29.017	0.461
460.000	306.975	80.007	19.994	103.921	19.633	29.038	0.474
460.500	307.215	80.007	19.993	103.945	19.633	29.026	0.522
461.000	307.436	80.006	19.992	103.965	19.634	28.943	0.496
461.500	307.700	80.007	19.993	103.965	19.635	28.897	0.474
462.000	307.972	80.007	19.992	103.956	19.633	29.026	0.510
462.500	308.231	80.007	19.994	103.943	19.634	28.944	0.533
463.000	308.481	80.007	19.992	103.927	19.631	29.189	0.520
463.500	308.737	80.005	19.994	103.918	19.630	29.219	0.507
464.000	309.012	80.008	19.993	103.929	19.630	29.235	0.518
464.500	309.235	80.005	19.994	103.939	19.629	29.294	0.515
465.000	309.510	80.005	19.994	103.940	19.627	29.429	0.499
465.500	309.724	80.005	19.993	103.933	19.626	29.502	0.494
466.000	310.037	80.006	19.992	103.919	19.626	29.493	0.508
466.500	310.242	80.007	19.993	103.898	19.620	29.903	0.522
467.000	310.522	80.006	19.994	103.886	19.622	29.799	0.501
467.500	310.778	80.006	19.992	103.886	19.617	30.151	0.511
468.000	311.030	80.005	19.993	103.889	19.618	30.043	0.522
468.500	311.297	80.005	19.992	103.893	19.620	29.941	0.513
469.000	311.551	80.007	19.993	103.894	19.615	30.294	0.520
469.500	311.799	80.005	19.994	103.895	19.615	30.300	0.512
470.000	312.100	80.004	19.994	103.891	19.616	30.231	0.526
470.500	312.360	80.004	19.993	103.894	19.616	30.231	0.555
471.000	312.594	80.005	19.994	103.893	19.613	30.452	0.528
471.500	312.853	80.006	19.993	103.892	19.613	30.409	0.493
472.000	313.085	80.006	19.993	103.886	19.611	30.577	0.491
472.500	313.378	80.005	19.993	103.884	19.610	30.642	0.508
473.000	313.615	80.006	19.994	103.885	19.609	30.700	0.528
473.500	313.876	80.005	19.993	103.892	19.613	30.411	0.514
474.000	314.152	80.006	19.993	103.902	19.611	30.526	0.517
474.500	314.373	80.007	19.993	103.916	19.606	30.894	0.517
475.000	314.673	80.006	19.994	103.925	19.607	30.845	0.509
475.500	314.898	80.007	19.994	103.924	19.608	30.744	0.523
476.000	315.159	80.007	19.992	103.923	19.602	31.129	0.505
476.500	315.428	80.006	19.994	103.921	19.606	30.917	0.508
477.000	315.670	80.007	19.993	103.914	19.604	31.050	0.520
477.500	315.923	80.006	19.993	103.917	19.605	30.987	0.504
478.000	316.157	80.008	19.992	103.927	19.603	31.118	0.491
478.500	316.453	80.007	19.993	103.938	19.602	31.169	0.508
479.000	316.667	80.008	19.992	103.954	19.599	31.399	0.520
479.500	316.916	80.006	19.991	103.972	19.599	31.363	0.486
480.000	317.188	80.009	19.994	103.986	19.598	31.434	0.492
480.500	317.410	80.009	19.994	103.999	19.600	31.319	0.508
481.000	317.656	80.006	19.994	104.004	19.595	31.660	0.481
481.500	317.959	80.008	19.994	103.997	19.594	31.697	0.508
482.000	318.187	80.007	19.993	103.987	19.595	31.666	0.540
482.500	318.491	80.008	19.992	103.976	19.594	31.724	0.532
483.000	318.700	80.008	19.993	103.960	19.590	31.994	0.523
483.500	318.939	80.007	19.994	103.947	19.586	32.253	0.481
484.000	319.218	80.008	19.993	103.937	19.585	32.374	0.483
484.500	319.453	80.007	19.993	103.929	19.583	32.451	0.516
485.000	319.724	80.007	19.992	103.920	19.585	32.369	0.510
485.500	319.955	80.007	19.992	103.916	19.578	32.807	0.504
486.000	320.214	80.009	19.993	103.912	19.581	32.643	0.496
486.500	320.424	80.007	19.992	103.912	19.579	32.753	0.480
487.000	320.698	80.009	19.992	103.912	19.577	32.881	0.477
487.500	320.992	80.008	19.992	103.917	19.575	33.046	0.526
488.000	321.220	80.007	19.993	103.923	19.574	33.104	0.545
488.500	321.458	80.008	19.994	103.928	19.570	33.414	0.494
489.000	321.728	80.005	19.994	103.933	19.569	33.437	0.487
489.500	321.986	80.006	19.992	103.940	19.569	33.433	0.518
490.000	322.203	80.006	19.993	103.943	19.566	33.665	0.501
490.500	322.488	80.006	19.993	103.945	19.564	33.768	0.489
491.000	322.720	80.006	19.994	103.954	19.563	33.861	0.510
491.500	322.979	80.007	19.994	103.957	19.558	34.171	0.504
492.000	323.201	80.005	19.993	103.952	19.556	34.351	0.486
492.500	323.442	80.006	19.994	103.948	19.556	34.324	0.472
493.000	323.689	80.004	19.994	103.947	19.557	34.278	0.476
493.500	323.994	80.005	19.994	103.942	19.553	34.564	0.520
494.000	324.203	80.005	19.993	103.943	19.549	34.840	0.533
494.500	324.475	80.004	19.993	103.949	19.548	34.890	0.498
495.000	324.711	80.004	19.993	103.953	19.544	35.137	0.494
495.500	324.921	80.005	19.992	103.955	19.543	35.252	0.477
496.000	325.212	80.004	19.994	103.955	19.543	35.215	0.474
496.500	325.472	80.005	19.994	103.954	19.541	35.386	0.526
497.000	325.710	80.003	19.995	103.959	19.539	35.481	0.525
497.500	325.937	80.005	19.993	103.965	19.538	35.540	0.481
498.000	326.216	80.004	19.993	103.965	19.533	35.900	0.485
498.500	326.429	80.004	19.994	103.971	19.531	36.089	0.499
499.000	326.685	80.003	19.993	103.979	19.530	36.117	0.481
499.500	326.912	80.005	19.994	103.979	19.528	36.245	0.476
500.000	327.169	80.005	19.994	103.973	19.525	36.475	0.483
500.500	327.415	80.004	19.995	103.972	19.521	36.779	0.493
501.000	327.687	80.003	19.994	103.966	19.519	36.912	0.511
501.500	327.919	80.005	19.994	103.958	19.518	36.941	0.512
502.000	328.142	80.004	19.994	103.954	19.513	37.285	0.480
502.500	328.432	80.004	19.994	103.954	19.513	37.336	0.483
503.000	328.652	80.004	19.993	103.955	19.512	37.369	0.511
503.500	328.925	80.005	19.993	103.956	19.508	37.641	0.502
504.000	329.123	80.004	19.993	103.959	19.503	37.975	0.482
504.500	329.379	80.005	19.993	103.961	19.503	37.987	0.463
505.000	329.639	80.006	19.993	103.968	19.499	38.267	0.485
505.500	329.877	80.004	19.994	103.973	19.497	38.423	0.507
506.000	330.132	80.005	19.994	103.977	19.496	38.450	0.495
506.500	330.392	80.005	19.994	103.974	19.497	38.388	0.504
507.000	330.627	80.004	19.993	103.971	19.490	38.862	0.506
507.500	330.885	80.006	19.992	103.964	19.488	39.037	0.494
508.000	331.129	80.004	19.993	103.960	19.485	39.203	0.497
508.500	331.348	80.004	19.993	103.958	19.480	39.595	0.483
509.000	331.604	80.004	19.993	103.965	19.481	39.521	0.469
509.500	331.871	80.005	19.993	103.973	19.476	39.827	0.499
510.000	332.063	80.004	19.993	103.981	19.475	39.929	0.491
510.500	332.322	80.004	19.994	103.988	19.470	40.263	0.455
511.000	332.604	80.004	19.993	103.992	19.466	40.556	0.496
511.500	332.851	80.004	19.993	103.997	19.461	40.857	0.535
512.000	333.097	80.006	19.993	104.002	19.458	41.060	0.511
512.500	333.334	80.005	19.993	104.002	19.454	41.360	0.488
513.000	333.552	80.005	19.994	103.999	19.451	41.597	0.469
513.500	333.858	80.004	19.994	103.999	19.450	41.626	0.489
514.000	334.100	80.005	19.994	104.000	19.445	42.006	0.536
514.500	334.302	80.005	19.994	103.995	19.441	42.280	0.496
515.000	334.547	80.004	19.993	103.995	19.437	42.514	0.445
515.500	334.812	80.004	19.994	103.997	19.433	42.838	0.478
516.000	335.044	80.004	19.994	103.992	19.427	43.244	0.503
516.500	335.321	80.005	19.994	103.981	19.424	43.388	0.503
517.000	335.541	80.004	19.993	103.973	19.422	43.532	0.503
517.500	335.786	80.005	19.993	103.966	19.414	44.145	0.482
518.000	335.993	80.004	19.994	103.959	19.411	44.309	0.459
518.500	336.253	80.004	19.994	103.959	19.404	44.842	0.459
519.000	336.494	80.005	19.994	103.967	19.402	44.958	0.484
519.500	336.724	80.004	19.994	103.975	19.396	45.387	0.486
520.000	336.988	80.005	19.994	103.975	19.391	45.745	0.483
520.500	337.259	80.004	19.995	103.978	19.386	46.098	0.515
521.000	337.505	80.005	19.994	103.983	19.385	46.158	0.526
521.500	337.761	80.004	19.993	103.983	19.380	46.475	0.509
522.000	337.994	80.004	19.994	103.985	19.378	46.650	0.496
522.500	338.217	80.005	19.994	103.995	19.371	47.077	0.473
523.000	338.482	80.004	19.994	104.006	19.366	47.437	0.472
523.500	338.723	80.003	19.994	104.012	19.359	47.877	0.497
524.000	338.948	80.004	19.995	104.020	19.354	48.261	0.486
524.500	339.169	80.003	19.994	104.031	19.347	48.755	0.456
525.000	339.424	80.002	19.995	104.042	19.347	48.782	0.461
525.500	339.680	80.003	19.995	104.043	19.341	49.138	0.493
526.000	339.899	80.003	19.994	104.036	19.338	49.404	0.493
526.500	340.157	80.002	19.995	104.028	19.336	49.535	0.476
527.000	340.397	80.004	19.995	104.010	19.329	50.021	0.488
527.500	340.658	80.004	19.994	103.995	19.325	50.271	0.500
528.000	340.863	80.004	19.994	103.997	19.316	50.864	0.484
528.500	341.177	80.003	19.995	104.011	19.316	50.852	0.493
529.000	341.394	80.003	19.995	104.020	19.309	51.335	0.525
529.500	341.603	80.003	19.995	104.036	19.304	51.701	0.478
530.000	341.855	80.004	19.995	104.053	19.299	52.029	0.443
530.500	342.101	80.005	19.995	104.067	19.296	52.261	0.479
531.000	342.378	80.004	19.995	104.075	19.288	52.769	0.511
531.500	342.586	80.004	19.995	104.089	19.282	53.245	0.505
532.000	342.850	80.004	19.995	104.096	19.276	53.624	0.479
532.500	343.056	80.004	19.994	104.088	19.270	54.034	0.471
533.000	343.302	80.006	19.994	104.071	19.261	54.661	0.461
533.500	343.509	80.004	19.994	104.055	19.255	55.069	0.452
534.000	343.758	80.006	19.995	104.045	19.251	55.360	0.454
534.500	344.024	80.004	19.994	104.042	19.247	55.676	0.486
535.000	344.284	80.005	19.993	104.049	19.242	56.043	0.521
535.500	344.502	80.005	19.994	104.065	19.228	56.987	0.502
536.000	344.774	80.007	19.993	104.078	19.224	57.250	0.484
536.500	344.979	80.005	19.993	104.081	19.219	57.577	0.483
537.000	345.231	80.005	19.992	104.080	19.215	57.904	0.468
537.500	345.463	80.005	19.993	104.078	19.206	58.476	0.471
538.000	345.733	80.007	19.993	104.070	19.198	59.022	0.493
538.500	345.956	80.006	19.994	104.067	19.192	59.408	0.497
539.000	346.202	80.006	19.993	104.073	19.186	59.832	0.481
539.500	346.462	80.006	19.992	104.075	19.179	60.360	0.488
540.000	346.721	80.009	19.993	104.073	19.171	60.904	0.513
540.500	346.955	80.007	19.996	104.065	19.165	61.334	0.506
541.000	347.197	80.007	19.995	104.055	19.159	61.735	0.484
541.500	347.446	80.006	19.995	104.042	19.151	62.295	0.483
542.000	347.674	80.007	19.994	104.040	19.142	62.934	0.484
542.500	347.966	80.005	19.994	104.051	19.137	63.274	0.498
543.000	348.239	80.007	19.994	104.066	19.128	63.895	0.543
543.500	348.437	80.007	19.994	104.078	19.122	64.247	0.518
544.000	348.672	80.007	19.994	104.091	19.113	64.916	0.452
544.500	348.916	80.006	19.994	104.101	19.111	65.060	0.456
545.000	349.171	80.005	19.994	104.109	19.103	65.606	0.490
545.500	349.418	80.005	19.994	104.119	19.094	66.253	0.501
546.000	349.661	80.006	19.994	104.138	19.087	66.736	0.496
546.500	349.918	80.006	19.993	104.155	19.077	67.395	0.495
547.000	350.180	80.007	19.993	104.163	19.070	67.917	0.510
547.500	350.420	80.005	19.993	104.157	19.065	68.227	0.511
548.000	350.659	80.006	19.991	104.149	19.055	68.947	0.491
548.500	350.898	80.006	19.994	104.138	19.047	69.480	0.478
549.000	351.154	80.007	19.993	104.123	19.039	70.022	0.486
549.500	351.399	80.006	19.994	104.118	19.032	70.514	0.498
550.000	351.643	80.006	19.993	104.122	19.025	71.018	0.495
550.500	351.905	80.006	19.993	104.135	19.016	71.662	0.497
551.000	352.116	80.007	19.993	104.146	19.007	72.266	0.489
551.500	352.378	80.005	19.994	104.160	18.999	72.783	0.473
552.000	352.681	80.007	19.992	104.173	18.993	73.210	0.519
552.500	352.869	80.007	19.994	104.179	18.984	73.801	0.528
553.000	353.163	80.005	19.994	104.166	18.976	74.395	0.486
553.500	353.390	80.006	19.993	104.158	18.971	74.709	0.501
554.000	353.637	80.006	19.993	104.154	18.960	75.452	0.497
554.500	353.890	80.006	19.994	104.154	18.951	76.058	0.487
555.000	354.161	80.006	19.993	104.161	18.940	76.836	0.512
555.500	354.337	80.006	19.994	104.174	18.931	77.452	0.485
556.000	354.641	80.006	19.994	104.181	18.924	77.919	0.464
556.500	354.899	80.006	19.994	104.190	18.919	78.322	0.522
557.000	355.099	80.007	19.994	104.203	18.910	78.898	0.510
557.500	355.377	80.005	19.993	104.212	18.901	79.522	0.468
558.000	355.623	80.006	19.994	104.220	18.893	80.092	0.501
558.500	355.864	80.005	19.994	104.230	18.881	80.964	0.506
559.000	356.142	80.007	19.993	104.236	18.877	81.242	0.503
559.500	356.354	80.007	19.994	104.232	18.867	81.921	0.504
560.000	356.618	80.006	19.993	104.234	18.860	82.390	0.483
560.500	356.845	80.007	19.993	104.243	18.850	83.075	0.483
561.000	357.130	80.007	19.993	104.252	18.842	83.589	0.501
561.500	357.347	80.006	19.992	104.249	18.833	84.220	0.507
562.000	357.588	80.006	19.993	104.242	18.823	84.947	0.480
562.500	357.814	80.007	19.993	104.231	18.814	85.540	0.463
563.000	358.079	80.007	19.993	104.216	18.806	86.129	0.479
563.500	358.348	80.008	19.993	104.200	18.795	86.852	0.512
564.000	358.554	80.007	19.993	104.195	18.785	87.509	0.504
564.500	358.801	80.007	19.992	104.201	18.776	88.127	0.464
565.000	359.059	80.007	19.994	104.201	18.769	88.659	0.479
565.500	359.292	80.007	19.994	104.199	18.760	89.307	0.498
566.000	359.585	80.007	19.992	104.196	18.755	89.623	0.509
566.500	359.842	80.008	19.992	104.198	18.744	90.448	0.538
567.000	360.075	80.007	19.993	104.198	18.738	90.832	0.519
567.500	360.322	80.008	19.992	104.206	18.732	91.248	0.485
568.000	360.536	80.008	19.992	104.213	18.722	91.937	0.470
568.500	360.778	80.007	19.994	104.223	18.712	92.577	0.459
569.000	361.033	80.007	19.993	104.230	18.703	93.230	0.477
569.500	361.283	80.007	19.993	104.235	18.698	93.582	0.501
570.000	361.532	80.005	19.992	104.234	18.693	93.919	0.502
570.500	361.774	80.006	19.992	104.231	18.682	94.644	0.495
571.000	362.019	80.006	19.993	104.223	18.679	94.906	0.489
571.500	362.265	80.007	19.993	104.213	18.669	95.635	0.489
572.000	362.508	80.007	19.993	104.205	18.661	96.169	0.490
572.500	362.730	80.006	19.993	104.208	18.658	96.375	0.477
573.000	362.965	80.007	19.994	104.218	18.649	97.001	0.461
573.500	363.218	80.004	19.992	104.226	18.644	97.336	0.473
574.000	363.505	80.005	19.993	104.228	18.639	97.658	0.514
574.500	363.774	80.004	19.994	104.231	18.633	98.054	0.548
575.000	364.015	80.004	19.993	104.226	18.629	98.317	0.533
575.500	364.270	80.004	19.994	104.218	18.626	98.534	0.503
576.000	364.481	80.004	19.993	104.232	18.619	99.007	0.481
576.500	364.738	80.006	19.994	104.258	18.614	99.358	0.467
577.000	364.981	80.004	19.994	104.281	18.608	99.749	0.484
577.500	365.212	80.005	19.993	104.305	18.602	100.185	0.487
578.000	365.434	80.005	19.994	104.313	18.602	100.213	0.464
578.500	365.711	80.005	19.992	104.298	18.597	100.558	0.476
579.000	365.950	80.005	19.993	104.278	18.597	100.502	0.507
579.500	366.208	80.004	19.991	104.259	18.591	100.911	0.507
580.000	366.460	80.006	19.993	104.240	18.586	101.273	0.504
580.500	366.689	80.005	19.993	104.241	18.586	101.219	0.495
581.000	366.970	80.005	19.993	104.251	18.581	101.618	0.495
581.500	367.221	80.004	19.992	104.269	18.581	101.605	0.521
582.000	367.502	80.005	19.993	104.295	18.577	101.836	0.532
582.500	367.740	80.003	19.993	104.321	18.577	101.823	0.525
583.000	367.968	80.003	19.993	104.321	18.574	102.061	0.493
583.500	368.237	80.004	19.993	104.312	18.575	101.940	0.482
584.000	368.459	80.003	19.991	104.305	18.575	101.946	0.494
584.500	368.691	80.002	19.992	104.289	18.572	102.185	0.472
585.000	368.974	80.003	19.993	104.262	18.575	101.989	0.484
585.500	369.218	80.004	19.995	104.255	18.571	102.260	0.520
586.000	369.465	80.004	19.994	104.252	18.573	102.105	0.509
586.500	369.736	80.004	19.993	104.242	18.575	101.903	0.505
587.000	369.966	80.003	19.994	104.245	18.575	101.907	0.509
587.500	370.197	80.003	19.993	104.262	18.578	101.694	0.481
588.000	370.488	80.003	19.994	104.265	18.582	101.392	0.492
588.500	370.716	80.003	19.993	104.276	18.584	101.270	0.521
589.000	370.969	80.005	19.994	104.281	18.586	101.121	0.500
589.500	371.207	80.005	19.994	104.268	18.590	100.803	0.486
590.000	371.489	80.004	19.993	104.247	18.589	100.912	0.505
590.500	371.683	80.004	19.994	104.240	18.597	100.332	0.499
591.000	372.000	80.005	19.993	104.231	18.600	100.172	0.494
591.500	372.233	80.004	19.994	104.223	18.602	100.025	0.530
592.000	372.546	80.005	19.995	104.216	18.609	99.552	0.548
592.500	372.802	80.004	19.995	104.210	18.615	99.097	0.558
593.000	373.020	80.004	19.995	104.200	18.620	98.826	0.521
593.500	373.302	80.006	19.994	104.191	18.627	98.285	0.487
594.000	373.569	80.004	19.994	104.182	18.633	97.897	0.525
594.500	373.817	80.005	19.994	104.181	18.644	97.146	0.532
595.000	374.077	80.005	19.995	104.190	18.649	96.719	0.512
595.500	374.332	80.004	19.993	104.204	18.654	96.329	0.512
596.000	374.595	80.005	19.994	104.206	18.662	95.747	0.516
596.500	374.867	80.004	19.994	104.197	18.673	95.002	0.526
597.000	375.087	80.005	19.992	104.177	18.680	94.518	0.513
597.500	375.366	80.005	19.994	104.152	18.690	93.841	0.495
598.000	375.650	80.005	19.994	104.127	18.698	93.270	0.531
598.500	375.895	80.004	19.994	104.109	18.709	92.538	0.546
599.000	376.137	80.007	19.992	104.095	18.723	91.623	0.508
599.500	376.415	80.004	19.993	104.085	18.732	91.021	0.504
600.000	376.685	80.005	19.994	104.071	18.745	90.173	0.534
600.500	376.961	80.005	19.994	104.070	18.760	89.148	0.547
601.000	377.180	80.006	19.994	104.070	18.773	88.259	0.520
601.500	377.465	80.005	19.994	104.075	18.787	87.221	0.500
602.000	377.708	80.004	19.994	104.078	18.803	86.076	0.516
602.500	377.975	80.004	19.995	104.085	18.817	85.124	0.519
603.000	378.222	80.004	19.992	104.085	18.834	83.928	0.512
603.500	378.483	80.006	19.993	104.095	18.850	82.794	0.511
604.000	378.790	80.005	19.994	104.108	18.863	81.852	0.538
604.500	379.019	80.004	19.994	104.111	18.880	80.690	0.552
605.000	379.281	80.005	19.993	104.100	18.894	79.733	0.514
605.500	379.511	80.004	19.994	104.073	18.908	78.799	0.492
606.000	379.803	80.003	19.994	104.031	18.928	77.408	0.507
606.500	380.059	80.005	19.994	103.984	18.940	76.577	0.535
607.000	380.310	80.003	19.993	103.953	18.958	75.358	0.528
607.500	380.565	80.003	19.992	103.940	18.978	74.017	0.506
608.000	380.844	80.004	19.994	103.943	18.996	72.754	0.520
608.500	381.105	80.004	19.993	103.953	19.014	71.518	0.537
609.000	381.352	80.004	19.993	103.966	19.033	70.242	0.524
609.500	381.636	80.003	19.993	103.989	19.053	68.873	0.520
610.000	381.884	80.004	19.993	104.021	19.074	67.383	0.531
610.500	382.167	80.002	19.994	104.049	19.092	66.161	0.531
611.000	382.409	80.004	19.994	104.073	19.113	64.692	0.528
611.500	382.679	80.004	19.995	104.084	19.128	63.656	0.518
612.000	382.916	80.003	19.994	104.066	19.149	62.196	0.509
612.500	383.182	80.005	19.994	104.033	19.163	61.212	0.505
613.000	383.446	80.004	19.994	103.988	19.181	60.006	0.517
613.500	383.681	80.004	19.993	103.935	19.200	58.719	0.514
614.000	383.960	80.004	19.993	103.889	19.222	57.253	0.506
614.500	384.177	80.004	19.995	103.850	19.239	56.075	0.505
615.000	384.443	80.003	19.994	103.816	19.258	54.768	0.489
615.500	384.727	80.003	19.994	103.801	19.278	53.392	0.516
616.000	384.986	80.004	19.994	103.809	19.294	52.341	0.547
616.500	385.242	80.004	19.994	103.836	19.318	50.647	0.529
617.000	385.511	80.003	19.995	103.861	19.334	49.554	0.520
617.500	385.723	80.004	19.995	103.870	19.353	48.243	0.503
618.000	386.021	80.003	19.995	103.871	19.370	47.064	0.495
618.500	386.254	80.006	19.994	103.867	19.388	45.842	0.520
619.000	386.499	80.004	19.995	103.852	19.409	44.403	0.504
619.500	386.769	80.006	19.994	103.849	19.423	43.445	0.497
620.000	387.009	80.005	19.994	103.861	19.444	42.012	0.513
620.500	387.265	80.005	19.995	103.870	19.458	41.044	0.503
621.000	387.487	80.006	19.994	103.867	19.476	39.808	0.487
621.500	387.733	80.007	19.994	103.857	19.491	38.741	0.473
622.000	388.049	80.005	19.994	103.840	19.509	37.566	0.515
622.500	388.295	80.004	19.995	103.822	19.521	36.726	0.562
623.000	388.497	80.005	19.993	103.801	19.536	35.680	0.505
623.500	388.807	80.005	19.995	103.791	19.554	34.434	0.480
624.000	389.086	80.005	19.994	103.797	19.568	33.466	0.551
624.500	389.310	80.006	19.993	103.820	19.584	32.372	0.546
625.000	389.581	80.005	19.994	103.853	19.598	31.423	0.500
625.500	389.822	80.004	19.992	103.890	19.618	30.063	0.503
626.000	390.086	80.007	19.993	103.908	19.629	29.254	0.508
626.500	390.307	80.006	19.993	103.910	19.645	28.208	0.495
627.000	390.570	80.005	19.993	103.896	19.658	27.305	0.485
627.500	390.835	80.006	19.993	103.866	19.671	26.416	0.506
628.000	391.086	80.005	19.992	103.834	19.683	25.581	0.522
628.500	391.336	80.006	19.992	103.816	19.691	25.044	0.509
629.000	391.566	80.007	19.992	103.811	19.705	24.041	0.490
629.500	391.868	80.007	19.992	103.811	19.715	23.353	0.506
630.000	392.109	80.004	19.993	103.820	19.727	22.546	0.538
630.500	392.367	80.006	19.994	103.836	19.735	21.946	0.521
631.000	392.631	80.005	19.994	103.846	19.745	21.292	0.510
631.500	392.900	80.005	19.993	103.856	19.756	20.574	0.528
632.000	393.163	80.005	19.993	103.864	19.763	20.072	0.533
632.500	393.398	80.003	19.994	103.871	19.771	19.486	0.516
633.000	393.672	80.006	19.992	103.870	19.782	18.794	0.503
633.500	393.945	80.006	19.992	103.874	19.790	18.204	0.527
634.000	394.193	80.005	19.992	103.874	19.793	17.984	0.534
634.500	394.459	80.005	19.993	103.874	19.804	17.284	0.518
635.000	394.694	80.005	19.993	103.872	19.812	16.726	0.507
635.500	394.953	80.006	19.993	103.867	19.817	16.403	0.498
636.000	395.190	80.005	19.993	103.854	19.820	16.201	0.495
636.500	395.466	80.005	19.993	103.838	19.829	15.530	0.505
637.000	395.698	80.004	19.994	103.816	19.833	15.300	0.510
637.500	395.962	80.006	19.992	103.794	19.837	15.020	0.502
638.000	396.227	80.006	19.994	103.783	19.844	14.487	0.513
638.500	396.479	80.006	19.993	103.781	19.849	14.187	0.523
639.000	396.762	80.004	19.992	103.776	19.849	14.146	0.526
639.500	396.998	80.006	19.993	103.772	19.855	13.790	0.527
640.000	397.266	80.003	19.993	103.758	19.862	13.294	0.511
640.500	397.535	80.005	19.992	103.737	19.862	13.254	0.521
641.000	397.797	80.004	19.994	103.713	19.867	12.912	0.534
641.500	398.056	80.006	19.992	103.697	19.868	12.889	0.526
642.000	398.291	80.006	19.993	103.692	19.870	12.720	0.508
642.500	398.565	80.006	19.994	103.701	19.872	12.618	0.502
643.000	398.806	80.006	19.993	103.717	19.876	12.327	0.512
643.500	399.060	80.006	19.991	103.733	19.879	12.112	0.505
644.000	399.338	80.004	19.994	103.746	19.883	11.836	0.513
644.500	399.572	80.008	19.992	103.755	19.883	11.827	0.522
645.000	399.826	80.005	19.993	103.763	19.887	11.571	0.500
645.500	400.108	80.006	19.993	103.772	19.891	11.286	0.512
646.000	400.332	80.006	19.993	103.780	19.892	11.250	0.521
646.500	400.622	80.007	19.992	103.789	19.893	11.138	0.510
647.000	400.887	80.007	19.993	103.797	19.898	10.850	0.535
647.500	401.140	80.006	19.992	103.800	19.900	10.660	0.537
648.000	401.389	80.007	19.993	103.798	19.900	10.698	0.510
648.500	401.669	80.006	19.992	103.794	19.902	10.557	0.516
649.000	401.908	80.007	19.994	103.786	19.903	10.488	0.524
649.500	402.145	80.007	19.992	103.775	19.908	10.096	0.497
650.000	402.414	80.007	19.992	103.768	19.912	9.885	0.491
650.500	402.665	80.007	19.992	103.762	19.909	10.071	0.513
651.000	402.941	80.005	19.994	103.758	19.910	10.019	0.523
651.500	403.208	80.006	19.994	103.756	19.912	9.842	0.535
652.000	403.467	80.006	19.992	103.758	19.914	9.724	0.535
652.500	403.677	80.008	19.992	103.758	19.915	9.641	0.497
653.000	403.961	80.006	19.993	103.755	19.916	9.608	0.481
653.500	404.183	80.007	19.993	103.749	19.915	9.667	0.500
654.000	404.452	80.006	19.993	103.745	19.918	9.431	0.499
654.500	404.735	80.006	19.993	103.739	19.923	9.098	0.521
655.000	404.964	80.005	19.993	103.736	19.923	9.107	0.532
655.500	405.222	80.005	19.992	103.745	19.924	9.039	0.500
656.000	405.476	80.005	19.993	103.776	19.923	9.107	0.500
656.500	405.740	80.005	19.992	103.819	19.925	8.953	0.515
657.000	405.980	80.005	19.994	103.854	19.929	8.699	0.511
657.500	406.272	80.004	19.993	103.875	19.927	8.843	0.518
658.000	406.503	80.005	19.994	103.878	19.929	8.692	0.528
658.500	406.775	80.006	19.994	103.862	19.926	8.860	0.513
659.000	407.016	80.006	19.994	103.832	19.925	8.995	0.508
659.500	407.271	80.004	19.992	103.806	19.925	8.931	0.505
660.000	407.508	80.004	19.994	103.781	19.923	9.097	0.494
660.500	407.767	80.006	19.994	103.755	19.925	8.994	0.493
661.000	408.021	80.006	19.994	103.734	19.927	8.822	0.504
661.500	408.302	80.005	19.994	103.717	19.927	8.856	0.524
662.000	408.540	80.005	19.994	103.710	19.931	8.542	0.527
662.500	408.799	80.005	19.996	103.721	19.929	8.691	0.508
663.000	409.054	80.005	19.994	103.745	19.932	8.511	0.506
663.500	409.307	80.004	19.993	103.766	19.934	8.367	0.511
664.000	409.583	80.006	19.993	103.777	19.931	8.540	0.518
664.500	409.795	80.005	19.994	103.781	19.935	8.280	0.508
665.000	410.046	80.004	19.993	103.776	19.932	8.517	0.476
665.500	410.314	80.007	19.994	103.768	19.931	8.540	0.491
666.000	410.585	80.006	19.995	103.764	19.932	8.505	0.529
666.500	410.839	80.006	19.992	103.766	19.934	8.329	0.532
667.000	411.076	80.004	19.994	103.765	19.934	8.363	0.508
667.500	411.357	80.005	19.994	103.762	19.931	8.556	0.505
668.000	411.609	80.004	19.992	103.768	19.933	8.414	0.526
668.500	411.842	80.005	19.994	103.766	19.934	8.323	0.509
669.000	412.080	80.006	19.992	103.760	19.935	8.249	0.478
669.500	412.337	80.006	19.992	103.768	19.935	8.290	0.483
670.000	412.607	80.004	19.993	103.784	19.940	7.967	0.511
670.500	412.818	80.005	19.995	103.795	19.938	8.077	0.504
671.000	413.112	80.005	19.993	103.807	19.938	8.061	0.493
671.500	413.373	80.006	19.993	103.823	19.938	8.076	0.530
672.000	413.636	80.005	19.992	103.831	19.939	8.015	0.539
672.500	413.871	80.005	19.995	103.830	19.941	7.894	0.510
673.000	414.091	80.004	19.994	103.831	19.941	7.897	0.476
673.500	414.323	80.005	19.992	103.839	19.943	7.756	0.453
674.000	414.583	80.003	19.993	103.839	19.945	7.578	0.472
674.500	414.839	80.004	19.994	103.831	19.946	7.519	0.505
675.000	415.085	80.004	19.993	103.825	19.942	7.791	0.509
675.500	415.370	80.005	19.993	103.809	19.946	7.542	0.516
676.000	415.629	80.006	19.992	103.781	19.944	7.623	0.538
676.500	415.845	80.005	19.993	103.759	19.943	7.693	0.509
677.000	416.128	80.005	19.994	103.744	19.944	7.645	0.487
677.500	416.382	80.005	19.994	103.736	19.944	7.670	0.518
678.000	416.652	80.005	19.993	103.736	19.944	7.631	0.530
678.500	416.879	80.005	19.994	103.748	19.946	7.554	0.510
679.000	417.160	80.005	19.993	103.770	19.949	7.347	0.502
679.500	417.399	80.006	19.994	103.801	19.948	7.381	0.514
680.000	417.635	80.004	19.994	103.820	19.949	7.298	0.498
680.500	417.905	80.005	19.994	103.835	19.949	7.341	0.491
681.000	418.159	80.005	19.994	103.842	19.950	7.218	0.516
681.500	418.427	80.005	19.995	103.843	19.945	7.573	0.523
682.000	418.659	80.005	19.993	103.827	19.950	7.275	0.510
682.500	418.915	80.005	19.993	103.803	19.947	7.435	0.494
683.000	419.164	80.005	19.993	103.776	19.949	7.304	0.497
683.500	419.407	80.006	19.993	103.759	19.949	7.334	0.499
684.000	419.669	80.005	19.994	103.751	19.945	7.585	0.498
684.500	419.947	80.005	19.994	103.746	19.946	7.493	0.522
685.000	420.163	80.005	19.993	103.749	19.947	7.428	0.517
685.500	420.425	80.006	19.995	103.753	19.947	7.449	0.486
686.000	420.696	80.005	19.994	103.745	19.947	7.452	0.506
686.500	420.963	80.003	19.993	103.721	19.947	7.481	0.536
687.000	421.179	80.003	19.994	103.711	19.948	7.393	0.510
687.500	421.462	80.005	19.993	103.717	19.946	7.556	0.491
688.000	421.701	80.004	19.994	103.724	19.947	7.465	0.511
688.500	421.961	80.005	19.994	103.734	19.944	7.677	0.511
689.000	422.219	80.003	19.995	103.750	19.946	7.509	0.508
689.500	422.410	80.004	19.993	103.753	19.945	7.565	0.483
690.000	422.681	80.003	19.994	103.752	19.947	7.442	0.455
690.500	422.951	80.004	19.994	103.757	19.947	7.443	0.502
691.000	423.229	80.004	19.995	103.768	19.949	7.323	0.545
691.500	423.452	80.004	19.994	103.777	19.944	7.630	0.525
692.000	423.689	80.003	19.994	103.784	19.948	7.388	0.480
692.500	423.945	80.003	19.994	103.786	19.948	7.398	0.477
693.000	424.194	80.003	19.994	103.782	19.950	7.280	0.499
693.500	424.455	80.004	19.993	103.773	19.947	7.452	0.507
694.000	424.686	80.005	19.994	103.765	19.952	7.088	0.501
694.500	424.938	80.006	19.993	103.761	19.950	7.241	0.488
695.000	425.203	80.004	19.994	103.764	19.948	7.395	0.500
695.500	425.395	80.005	19.994	103.781	19.950	7.225	0.487
696.000	425.676	80.005	19.994	103.799	19.950	7.226	0.465
696.500	425.898	80.005	19.993	103.807	19.951	7.196	0.488
697.000	426.178	80.004	19.993	103.818	19.954	6.997	0.502
697.500	426.431	80.005	19.994	103.829	19.956	6.834	0.518
698.000	426.667	80.006	19.993	103.821	19.952	7.122	0.511
698.500	426.906	80.005	19.993	103.811	19.955	6.922	0.482
699.000	427.161	80.005	19.993	103.814	19.952	7.104	0.484
699.500	427.406	80.005	19.994	103.807	19.952	7.085	0.497
700.000	427.617	80.007	19.994	103.794	19.949	7.311	0.478
700.500	427.881	80.006	19.993	103.778	19.949	7.300	0.465
701.000	428.139	80.005	19.994	103.760	19.953	7.020	0.499
701.500	428.371	80.005	19.993	103.747	19.955	6.934	0.506
702.000	428.588	80.006	19.994	103.743	19.951	7.144	0.470
702.500	428.863	80.006	19.993	103.752	19.953	7.055	0.471
703.000	429.077	80.005	19.994	103.771	19.951	7.172	0.491
703.500	429.343	80.006	19.994	103.782	19.958	6.711	0.484
704.000	429.591	80.006	19.994	103.785	19.956	6.868	0.497
704.500	429.804	80.006	19.993	103.788	19.955	6.885	0.487
705.000	430.058	80.006	19.992	103.780	19.955	6.909	0.463
705.500	430.303	80.006	19.993	103.768	19.957	6.795	0.483
706.000	430.540	80.005	19.993	103.770	19.959	6.612	0.491
706.500	430.790	80.005	19.995	103.778	19.959	6.649	0.485
707.000	431.042	80.007	19.992	103.791	19.958	6.729	0.495
707.500	431.279	80.006	19.994	103.799	19.957	6.766	0.496
708.000	431.545	80.006	19.993	103.809	19.961	6.480	0.495
708.500	431.784	80.005	19.993	103.818	19.959	6.614	0.503
709.000	432.027	80.005	19.994	103.825	19.960	6.546	0.493
709.500	432.237	80.004	19.994	103.822	19.960	6.589	0.468
710.000	432.498	80.005	19.993	103.811	19.960	6.597	0.462
710.500	432.723	80.005	19.993	103.789	19.961	6.521	0.479
711.000	432.994	80.004	19.993	103.767	19.958	6.724	0.491
711.500	433.225	80.006	19.994	103.745	19.958	6.673	0.499
712.000	433.472	80.003	19.995	103.725	19.959	6.617	0.490
712.500	433.728	80.004	19.994	103.718	19.958	6.692	0.490
713.000	433.937	80.005	19.993	103.729	19.959	6.609	0.484
713.500	434.194	80.004	19.994	103.743	19.963	6.365	0.466
714.000	434.479	80.004	19.994	103.757	19.962	6.394	0.504
714.500	434.694	80.004	19.994	103.771	19.959	6.601	0.521
715.000	434.950	80.004	19.994	103.780	19.957	6.740	0.485
715.500	435.206	80.005	19.993	103.782	19.962	6.416	0.492
716.000	435.402	80.005	19.994	103.775	19.964	6.317	0.482
716.500	435.676	80.005	19.993	103.767	19.969	5.975	0.461
717.000	435.950	80.004	19.993	103.765	19.965	6.195	0.509
717.500	436.199	80.005	19.995	103.773	19.968	6.045	0.536
718.000	436.437	80.005	19.994	103.788	19.970	5.881	0.505
718.500	436.714	80.005	19.995	103.797	19.969	5.976	0.501
719.000	436.945	80.005	19.995	103.808	19.972	5.742	0.511
719.500	437.198	80.004	19.994	103.818	19.970	5.864	0.496
720.000	437.431	80.004	19.995	103.824	19.972	5.771	0.485
720.500	437.716	80.006	19.996	103.825	19.973	5.638	0.502
721.000	437.926	80.005	19.996	103.832	19.971	5.798	0.506
721.500	438.179	80.006	19.995	103.829	19.974	5.592	0.479
722.000	438.414	80.007	19.995	103.814	19.970	5.885	0.476
722.500	438.653	80.007	19.994	103.797	19.971	5.784	0.481
723.000	438.926	80.007	19.994	103.779	19.972	5.722	0.493
723.500	439.143	80.006	19.993	103.762	19.970	5.852	0.501
724.000	439.435	80.007	19.994	103.748	19.972	5.771	0.500
724.500	439.660	80.008	19.994	103.740	19.969	5.929	0.514
725.000	439.911	80.008	19.992	103.742	19.971	5.838	0.497
725.500	440.140	80.008	19.993	103.742	19.967	6.059	0.477
726.000	440.425	80.008	19.993	103.745	19.969	5.957	0.497
726.500	440.652	80.008	19.992	103.751	19.968	5.982	0.513
727.000	440.860	80.008	19.993	103.758	19.970	5.853	0.474
727.500	441.127	80.009	19.993	103.756	19.969	5.933	0.455
728.000	441.356	80.008	19.992	103.752	19.971	5.781	0.486
728.500	441.622	80.008	19.993	103.745	19.969	5.974	0.496
729.000	441.867	80.008	19.993	103.737	19.969	5.929	0.503
729.500	442.135	80.008	19.994	103.730	19.970	5.855	0.512
730.000	442.350	80.008	19.994	103.731	19.971	5.796	0.498
730.500	442.610	80.008	19.992	103.734	19.971	5.837	0.479
731.000	442.895	80.007	19.993	103.739	19.970	5.873	0.510
731.500	443.139	80.007	19.993	103.746	19.971	5.788	0.537
732.000	443.388	80.007	19.994	103.745	19.973	5.639	0.511
732.500	443.626	80.008	19.993	103.740	19.973	5.646	0.490
733.000	443.899	80.006	19.993	103.740	19.976	5.445	0.499
733.500	444.152	80.008	19.993	103.742	19.975	5.513	0.519
734.000	444.386	80.007	19.994	103.751	19.977	5.419	0.507
734.500	444.635	80.006	19.993	103.766	19.975	5.496	0.485
735.000	444.891	80.005	19.993	103.777	19.977	5.389	0.494
735.500	445.113	80.007	19.993	103.780	19.976	5.443	0.491
736.000	445.357	80.006	19.993	103.787	19.982	5.036	0.472
736.500	445.641	80.005	19.991	103.796	19.984	4.935	0.497
737.000	445.855	80.006	19.992	103.806	19.980	5.200	0.513
737.500	446.108	80.006	19.992	103.808	19.983	4.974	0.483
738.000	446.359	80.005	19.992	103.814	19.982	5.043	0.486
738.500	446.616	80.006	19.993	103.816	19.984	4.944	0.506
739.000	446.824	80.005	19.993	103.815	19.985	4.828	0.486
739.500	447.096	80.005	19.993	103.809	19.984	4.884	0.473
740.000	447.347	80.004	19.992	103.818	19.986	4.755	0.502
740.500	447.611	80.006	19.992	103.821	19.990	4.508	0.519
741.000	447.858	80.004	19.992	103.817	19.988	4.613	0.513
741.500	448.097	80.005	19.993	103.809	19.987	4.735	0.498
742.000	448.353	80.005	19.994	103.805	19.988	4.647	0.490
742.500	448.602	80.005	19.993	103.804	19.990	4.499	0.500
743.000	448.821	80.005	19.993	103.798	19.987	4.687	0.486
743.500	449.096	80.004	19.994	103.778	19.987	4.717	0.481
744.000	449.375	80.005	19.993	103.759	19.987	4.677	0.524
744.500	449.593	80.005	19.993	103.748	19.988	4.652	0.525
745.000	449.880	80.005	19.993	103.732	19.988	4.627	0.501
745.500	450.104	80.005	19.994	103.721	19.986	4.807	0.508
746.000	450.357	80.005	19.993	103.732	19.986	4.758	0.494
746.500	450.596	80.004	19.992	103.745	19.987	4.703	0.484
747.000	450.876	80.005	19.993	103.748	19.985	4.875	0.506
747.500	451.139	80.006	19.992	103.748	19.988	4.674	0.532
748.000	451.391	80.003	19.994	103.755	19.988	4.665	0.529
748.500	451.645	80.004	19.993	103.763	19.988	4.663	0.510
749.000	451.905	80.004	19.993	103.767	19.989	4.580	0.510
749.500	452.136	80.004	19.994	103.764	19.992	4.371	0.502
750.000	452.403	80.004	19.993	103.757	19.993	4.329	0.495
750.500	452.667	80.004	19.994	103.752	19.991	4.459	0.515
751.000	452.910	80.005	19.993	103.744	19.992	4.339	0.519
751.500	453.144	80.004	19.993	103.742	19.994	4.257	0.492
752.000	453.403	80.006	19.994	103.755	19.990	4.477	0.485
752.500	453.673	80.006	19.993	103.771	19.997	4.037	0.511
753.000	453.890	80.005	19.993	103.786	19.995	4.181	0.508
753.500	454.178	80.006	19.992	103.797	19.996	4.097	0.496
754.000	454.419	80.005	19.992	103.802	19.995	4.141	0.517
754.500	454.706	80.005	19.993	103.797	19.996	4.112	0.529
755.000	454.939	80.004	19.993	103.789	19.996	4.080	0.524
755.500	455.219	80.006	19.993	103.781	19.996	4.122	0.516
756.000	455.522	80.005	19.993	103.775	19.999	3.868	0.548
756.500	455.765	80.005	19.993	103.773	20.000	3.794	0.564
757.000	456.000	80.005	19.993	103.776	20.001	3.781	0.512
757.500	456.262	80.005	19.992	103.781	19.999	3.902	0.488
758.000	456.547	80.006	19.993	103.788	19.995	4.140	0.522
758.500	456.756	80.005	19.993	103.803	20.000	3.794	0.521
759.000	457.004	80.005	19.993	103.813	19.999	3.905	0.475
759.500	457.291	80.006	19.992	103.822	19.998	3.944	0.496
760.000	457.535	80.006	19.993	103.830	19.997	4.045	0.533
760.500	457.786	80.005	19.993	103.829	19.996	4.080	0.513
761.000	458.036	80.004	19.993	103.821	19.996	4.110	0.498
761.500	458.296	80.005	19.993	103.809	19.994	4.213	0.506
762.000	458.535	80.007	19.993	103.792	19.995	4.132	0.505
762.500	458.847	80.005	19.992	103.778	19.999	3.895	0.525
763.000	459.060	80.005	19.992	103.768	19.995	4.131	0.538
763.500	459.343	80.005	19.993	103.753	19.995	4.145	0.510
764.000	459.613	80.006	19.994	103.742	19.993	4.275	0.524
764.500	459.868	80.004	19.993	103.735	19.997	4.030	0.539
765.000	460.124	80.004	19.993	103.734	19.996	4.113	0.518
765.500	460.387	80.006	19.992	103.736	19.993	4.274	0.515
766.000	460.640	80.005	19.993	103.744	19.993	4.331	0.518
766.500	460.865	80.004	19.993	103.747	19.996	4.062	0.497
767.000	461.111	80.005	19.992	103.751	19.994	4.197	0.475
767.500	461.360	80.005	19.993	103.752	19.993	4.318	0.483
768.000	461.610	80.005	19.992	103.752	19.996	4.061	0.497
768.500	461.899	80.006	19.992	103.754	19.996	4.107	0.519
769.000	462.134	80.004	19.993	103.761	19.996	4.088	0.532
769.500	462.372	80.004	19.994	103.764	19.997	4.015	0.498
770.000	462.630	80.003	19.992	103.764	19.999	3.920	0.485
770.500	462.920	80.004	19.993	103.765	20.000	3.833	0.522
771.000	463.157	80.006	19.994	103.770	19.999	3.914	0.537
771.500	463.408	80.005	19.993	103.776	20.002	3.704	0.508
772.000	463.670	80.004	19.992	103.782	20.000	3.790	0.501
772.500	463.886	80.004	19.993	103.788	20.002	3.666	0.495
773.000	464.154	80.003	19.993	103.800	20.002	3.683	0.481
773.500	464.401	80.005	19.993	103.810	20.003	3.613	0.499
774.000	464.628	80.005	19.994	103.825	20.004	3.535	0.494
774.500	464.891	80.004	19.993	103.841	20.007	3.339	0.482
775.000	465.137	80.004	19.993	103.859	20.003	3.617	0.500
775.500	465.375	80.005	19.993	103.861	20.008	3.281	0.497
776.000	465.637	80.003	19.995	103.853	20.005	3.471	0.492
776.500	465.907	80.005	19.993	103.835	20.008	3.242	0.516
777.000	466.116	80.004	19.994	103.820	20.007	3.351	0.506
777.500	466.418	80.005	19.993	103.804	20.003	3.589	0.495
778.000	466.670	80.005	19.994	103.796	20.007	3.306	0.532
778.500	466.917	80.006	19.994	103.792	20.008	3.290	0.526
779.000	467.183	80.004	19.994	103.790	20.007	3.341	0.506
779.500	467.400	80.004	19.992	103.791	20.008	3.278	0.498
780.000	467.711	80.005	19.993	103.786	20.005	3.462	0.506
780.500	467.939	80.006	19.994	103.778	20.006	3.383	0.533
781.000	468.201	80.004	19.996	103.774	20.007	3.359	0.515
781.500	468.437	80.005	19.994	103.771	20.004	3.529	0.494
782.000	468.668	80.005	19.994	103.755	20.002	3.696	0.482
782.500	468.958	80.006	19.995	103.748	20.006	3.417	0.494
783.000	469.186	80.006	19.995	103.748	20.002	3.679	0.520
783.500	469.472	80.007	19.994	103.747	20.004	3.531	0.515
784.000	469.717	80.007	19.993	103.744	20.002	3.691	0.522
784.500	469.976	80.007	19.994	103.749	20.005	3.489	0.518
785.000	470.205	80.006	19.994	103.746	20.005	3.490	0.496
785.500	470.490	80.007	19.994	103.739	20.005	3.472	0.501
786.000	470.763	80.006	19.994	103.740	20.005	3.481	0.536
786.500	470.992	80.007	19.993	103.749	20.009	3.175	0.530
787.000	471.237	80.007	19.995	103.763	20.007	3.349	0.488
787.500	471.524	80.006	19.993	103.781	20.004	3.513	0.503
788.000	471.763	80.007	19.993	103.800	20.005	3.440	0.528
788.500	472.022	80.006	19.993	103.808	20.006	3.411	0.512
789.000	472.261	80.006	19.994	103.808	20.009	3.170	0.498
789.500	472.507	80.005	19.994	103.795	20.009	3.175	0.492
790.000	472.781	80.006	19.993	103.782	20.007	3.332	0.502
790.500	473.029	80.005	19.993	103.769	20.007	3.359	0.521
791.000	473.278	80.005	19.994	103.760	20.007	3.340	0.509
791.500	473.504	80.006	19.994	103.748	20.007	3.352	0.486
792.000	473.792	80.006	19.993	103.745	20.006	3.394	0.495
792.500	474.066	80.005	19.993	103.740	20.004	3.568	0.538
793.000	474.319	80.006	19.993	103.733	20.009	3.207	0.545
793.500	474.587	80.007	19.994	103.724	20.007	3.313	0.524
794.000	474.833	80.006	19.993	103.723	20.012	2.962	0.517
794.500	475.072	80.006	19.993	103.725	20.011	3.047	0.500
795.000	475.349	80.007	19.993	103.741	20.011	3.053	0.500
795.500	475.605	80.005	19.994	103.770	20.011	3.049	0.524
796.000	475.808	80.006	19.994	103.804	20.009	3.168	0.496
796.500	476.120	80.005	19.993	103.829	20.011	3.047	0.487
797.000	476.328	80.006	19.993	103.834	20.011	3.071	0.518
797.500	476.605	80.005	19.994	103.824	20.009	3.204	0.503
798.000	476.823	80.007	19.995	103.800	20.011	3.077	0.489
798.500	477.091	80.006	19.994	103.763	20.010	3.104	0.490
799.000	477.348	80.005	19.994	103.732	20.008	3.301	0.506
799.500	477.591	80.005	19.994	103.715	20.006	3.402	0.513
800.000	477.838	80.005	19.994	103.713	20.009	3.225	0.495
800.500	478.110	80.006	19.995	103.717	20.009	3.186	0.505
801.000	478.361	80.006	19.994	103.738	20.007	3.368	0.521
801.500	478.605	80.005	19.994	103.757	20.009	3.223	0.508
802.000	478.857	80.006	19.993	103.772	20.011	3.073	0.495
802.500	479.147	80.006	19.994	103.774	20.011	3.095	0.519
803.000	479.424	80.007	19.992	103.770	20.010	3.102	0.555
803.500	479.649	80.006	19.994	103.765	20.009	3.216	0.535
804.000	479.892	80.006	19.994	103.757	20.008	3.270	0.484
804.500	480.144	80.007	19.994	103.751	20.007	3.346	0.481
805.000	480.408	80.007	19.995	103.749	20.010	3.157	0.506
805.500	480.640	80.006	19.995	103.748	20.009	3.173	0.506
806.000	480.882	80.006	19.993	103.739	20.010	3.131	0.485
806.500	481.144	80.006	19.993	103.736	20.011	3.086	0.489
807.000	481.424	80.006	19.993	103.733	20.011	3.091	0.523
807.500	481.682	80.008	19.995	103.726	20.012	3.005	0.540
808.000	481.953	80.007	19.994	103.721	20.012	2.988	0.533
808.500	482.235	80.006	19.994	103.725	20.008	3.278	0.541
809.000	482.444	80.007	19.994	103.730	20.009	3.185	0.522
809.500	482.695	80.006	19.993	103.746	20.013	2.926	0.476
810.000	482.970	80.007	19.994	103.772	20.010	3.145	0.493
810.500	483.193	80.006	19.994	103.808	20.011	3.044	0.512
811.000	483.481	80.007	19.993	103.845	20.011	3.098	0.505
811.500	483.710	80.008	19.993	103.862	20.013	2.929	0.514
812.000	483.981	80.007	19.994	103.860	20.011	3.041	0.508
812.500	484.207	80.007	19.994	103.849	20.013	2.908	0.498
813.000	484.487	80.005	19.994	103.835	20.014	2.847	0.501
813.500	484.723	80.007	19.994	103.816	20.012	2.965	0.511
814.000	484.992	80.007	19.994	103.809	20.017	2.679	0.510
814.500	485.216	80.006	19.993	103.798	20.016	2.708	0.499
815.000	485.459	80.007	19.993	103.782	20.012	2.966	0.480
815.500	485.786	80.006	19.993	103.764	20.015	2.757	0.519
816.000	486.009	80.006	19.994	103.750	20.014	2.871	0.560
816.500	486.297	80.005	19.994	103.749	20.013	2.939	0.530
817.000	486.553	80.006	19.993	103.768	20.013	2.931	0.527
817.500	486.820	80.006	19.994	103.791	20.014	2.825	0.534
818.000	487.028	80.006	19.993	103.801	20.014	2.825	0.499
818.500	487.312	80.004	19.993	103.808	20.015	2.777	0.483
819.000	487.570	80.004	19.995	103.800	20.015	2.795	0.517
819.500	487.811	80.006	19.993	103.785	20.013	2.941	0.520
820.000	488.090	80.005	19.993	103.772	20.015	2.800	0.510
820.500	488.361	80.005	19.993	103.767	20.016	2.744	0.535
821.000	488.617	80.006	19.992	103.767	20.015	2.809	0.538
821.500	488.895	80.006	19.994	103.774	20.016	2.716	0.530
822.000	489.135	80.003	19.993	103.782	20.015	2.767	0.526
822.500	489.369	80.004	19.994	103.795	20.014	2.853	0.496
823.000	489.637	80.005	19.993	103.806	20.017	2.649	0.488
823.500	489.843	80.005	19.993	103.807	20.016	2.742	0.488
824.000	490.121	80.006	19.993	103.801	20.018	2.566	0.479
824.500	490.359	80.005	19.992	103.795	20.014	2.836	0.500
825.000	490.627	80.005	19.992	103.782	20.013	2.934	0.511
825.500	490.867	80.006	19.992	103.772	20.013	2.938	0.507
826.000	491.134	80.007	19.993	103.765	20.015	2.817	0.507
826.500	491.386	80.006	19.992	103.763	20.013	2.904	0.513
827.000	491.651	80.004	19.993	103.758	20.011	3.088	0.518
827.500	491.927	80.005	19.992	103.751	20.010	3.150	0.529
828.000	492.189	80.004	19.993	103.747	20.011	3.088	0.539
828.500	492.448	80.005	19.993	103.744	20.011	3.061	0.530
829.000	492.705	80.004	19.992	103.739	20.010	3.105	0.519
829.500	492.953	80.004	19.993	103.743	20.009	3.220	0.511
830.000	493.193	80.005	19.992	103.749	20.010	3.114	0.496
830.500	493.427	80.004	19.993	103.751	20.011	3.069	0.481
831.000	493.697	80.005	19.993	103.758	20.010	3.114	0.489
831.500	493.965	80.004	19.992	103.770	20.010	3.112	0.521
832.000	494.185	80.004	19.993	103.779	20.011	3.048	0.513
832.500	494.478	80.004	19.993	103.787	20.013	2.955	0.500
833.000	494.747	80.004	19.992	103.795	20.012	3.019	0.537
833.500	494.984	80.005	19.993	103.798	20.015	2.801	0.534
834.000	495.259	80.004	19.992	103.792	20.013	2.951	0.509
834.500	495.501	80.004	19.993	103.790	20.012	3.002	0.514
835.000	495.767	80.004	19.993	103.792	20.013	2.932	0.513
835.500	496.021	80.004	19.992	103.793	20.008	3.270	0.514
836.000	496.265	80.004	19.993	103.794	20.014	2.829	0.509
836.500	496.545	80.004	19.993	103.796	20.012	2.985	0.512
837.000	496.771	80.005	19.993	103.793	20.009	3.171	0.515
837.500	497.044	80.004	19.993	103.783	20.009	3.202	0.502
838.000	497.300	80.004	19.994	103.774	20.011	3.065	0.513
838.500	497.531	80.005	19.993	103.766	20.010	3.139	0.508
839.000	497.787	80.005	19.992	103.764	20.011	3.065	0.487
839.500	498.025	80.005	19.993	103.761	20.009	3.206	0.491
840.000	498.298	80.005	19.994	103.761	20.012	2.965	0.503
840.500	498.561	80.005	19.994	103.762	20.013	2.960	0.523
841.000	498.784	80.004	19.995	103.765	20.010	3.151	0.511
841.500	499.044	80.004	19.994	103.765	20.014	2.841	0.485
842.000	499.306	80.005	19.995	103.764	20.011	3.073	0.503
842.500	499.543	80.005	19.994	103.765	20.011	3.064	0.510
843.000	499.801	80.005	19.993	103.768	20.013	2.952	0.496
843.500	500.064	80.005	19.992	103.773	20.016	2.739	0.508
844.000	500.310	80.004	19.993	103.775	20.014	2.874	0.516
844.500	500.540	80.004	19.993	103.776	20.012	2.973	0.492
845.000	500.820	80.004	19.993	103.775	20.008	3.281	0.492
845.500	501.073	80.004	19.993	103.771	20.009	3.186	0.521
846.000	501.330	80.005	19.994	103.766	20.009	3.217	0.521
846.500	501.604	80.005	19.993	103.765	20.008	3.265	0.521
847.000	501.845	80.005	19.992	103.765	20.014	2.886	0.524
847.500	502.072	80.005	19.994	103.765	20.010	3.162	0.492
848.000	502.334	80.005	19.993	103.766	20.011	3.093	0.478
848.500	502.579	80.003	19.992	103.765	20.011	3.051	0.498
849.000	502.868	80.005	19.994	103.769	20.008	3.268	0.521
849.500	503.102	80.004	19.992	103.773	20.010	3.135	0.528
850.000	503.325	80.005	19.993	103.780	20.013	2.933	0.490
850.500	503.632	80.004	19.993	103.792	20.013	2.891	0.494
851.000	503.833	80.003	19.993	103.807	20.013	2.944	0.519
851.500	504.136	80.005	19.993	103.809	20.014	2.829	0.506
852.000	504.380	80.004	19.993	103.805	20.011	3.083	0.525
852.500	504.612	80.005	19.994	103.795	20.012	2.969	0.511
853.000	504.857	80.005	19.992	103.774	20.012	3.027	0.476
853.500	505.122	80.004	19.993	103.753	20.014	2.860	0.493
854.000	505.396	80.005	19.992	103.737	20.016	2.726	0.525
854.500	505.627	80.004	19.993	103.729	20.014	2.851	0.522
855.000	505.897	80.004	19.993	103.732	20.013	2.893	0.503
855.500	506.149	80.005	19.993	103.741	20.013	2.895	0.511
856.000	506.387	80.005	19.994	103.753	20.015	2.764	0.505
856.500	506.677	80.005	19.993	103.767	20.014	2.855	0.509
857.000	506.932	80.004	19.992	103.776	20.010	3.110	0.537
857.500	507.208	80.005	19.993	103.777	20.017	2.669	0.539
858.000	507.424	80.004	19.992	103.774	20.012	2.992	0.512
858.500	507.672	80.005	19.993	103.767	20.011	3.031	0.478
859.000	507.920	80.005	19.993	103.760	20.013	2.942	0.480
859.500	508.162	80.006	19.992	103.757	20.009	3.221	0.493
860.000	508.420	80.005	19.992	103.757	20.010	3.126	0.495
860.500	508.706	80.006	19.993	103.756	20.012	3.006	0.522
861.000	508.953	80.005	19.992	103.752	20.014	2.873	0.539
861.500	509.224	80.006	19.993	103.746	20.014	2.869	0.525
862.000	509.491	80.005	19.993	103.743	20.008	3.236	0.528
862.500	509.708	80.006	19.993	103.743	20.010	3.120	0.511
863.000	509.941	80.006	19.993	103.750	20.009	3.196	0.467
863.500	510.179	80.006	19.992	103.756	20.012	3.012	0.461
864.000	510.461	80.005	19.993	103.762	20.010	3.154	0.496
864.500	510.714	80.006	19.993	103.765	20.012	3.000	0.527
865.000	511.021	80.006	19.992	103.762	20.013	2.941	0.548
865.500	511.235	80.007	19.993	103.748	20.008	3.257	0.541
866.000	511.499	80.007	19.993	103.741	20.011	3.076	0.499
866.500	511.742	80.008	19.993	103.737	20.014	2.873	0.492
867.000	511.956	80.007	19.992	103.737	20.014	2.884	0.483
867.500	512.208	80.008	19.993	103.739	20.012	3.006	0.462
868.000	512.516	80.006	19.993	103.747	20.010	3.150	0.513
868.500	512.724	80.007	19.993	103.755	20.012	3.000	0.537
869.000	513.011	80.007	19.994	103.763	20.010	3.101	0.505
869.500	513.255	80.006	19.993	103.770	20.009	3.181	0.514
870.000	513.515	80.007	19.994	103.776	20.013	2.935	0.518
870.500	513.774	80.007	19.994	103.778	20.009	3.169	0.512
871.000	513.991	80.007	19.994	103.780	20.011	3.044	0.497
871.500	514.250	80.006	19.993	103.779	20.009	3.173	0.476
872.000	514.526	80.005	19.994	103.776	20.014	2.852	0.505
872.500	514.776	80.005	19.994	103.770	20.013	2.918	0.530
873.000	514.996	80.005	19.993	103.768	20.012	2.985	0.498
873.500	515.256	80.005	19.994	103.764	20.013	2.909	0.475
874.000	515.514	80.005	19.994	103.764	20.012	3.006	0.499
874.500	515.755	80.006	19.993	103.766	20.009	3.177	0.508
875.000	516.077	80.007	19.993	103.769	20.010	3.142	0.531
875.500	516.303	80.005	19.993	103.768	20.012	2.975	0.556
876.000	516.502	80.006	19.994	103.768	20.012	3.023	0.487
876.500	516.780	80.005	19.993	103.765	20.014	2.829	0.451
877.000	517.036	80.005	19.993	103.759	20.012	2.970	0.505
877.500	517.299	80.006	19.993	103.757	20.016	2.753	0.526
878.000	517.531	80.005	19.994	103.762	20.015	2.816	0.507
878.500	517.816	80.006	19.994	103.763	20.016	2.748	0.506
879.000	518.068	80.006	19.993	103.764	20.013	2.934	0.527
879.500	518.295	80.005	19.994	103.765	20.014	2.888	0.508
880.000	518.563	80.005	19.993	103.766	20.015	2.768	0.487
880.500	518.786	80.005	19.995	103.761	20.016	2.734	0.493
881.000	519.098	80.005	19.994	103.760	20.014	2.835	0.513
881.500	519.314	80.006	19.994	103.759	20.015	2.757	0.531
882.000	519.527	80.006	19.993	103.759	20.013	2.941	0.478
882.500	519.804	80.005	19.992	103.756	20.016	2.706	0.459
883.000	520.067	80.006	19.993	103.752	20.014	2.835	0.515
883.500	520.336	80.004	19.993	103.751	20.015	2.781	0.536
884.000	520.558	80.005	19.994	103.751	20.016	2.720	0.512
884.500	520.859	80.004	19.993	103.751	20.015	2.804	0.507
885.000	521.065	80.006	19.993	103.753	20.015	2.787	0.516
885.500	521.315	80.007	19.993	103.756	20.016	2.747	0.482
886.000	521.613	80.006	19.992	103.757	20.017	2.679	0.502
886.500	521.842	80.006	19.992	103.757	20.014	2.829	0.538
887.000	522.068	80.004	19.994	103.762	20.013	2.949	0.491
887.500	522.370	80.006	19.992	103.765	20.018	2.615	0.491
888.000	522.621	80.006	19.992	103.770	20.015	2.757	0.541
888.500	522.853	80.006	19.993	103.774	20.013	2.941	0.518
889.000	523.115	80.008	19.992	103.779	20.015	2.797	0.488
889.500	523.357	80.007	19.993	103.777	20.017	2.666	0.499
890.000	523.629	80.007	19.993	103.774	20.016	2.687	0.509
890.500	523.893	80.006	19.992	103.769	20.018	2.588	0.525
891.000	524.138	80.008	19.991	103.766	20.016	2.733	0.522
891.500	524.427	80.006	19.992	103.762	20.017	2.653	0.521
892.000	524.673	80.007	19.993	103.763	20.015	2.796	0.534
892.500	524.915	80.008	19.993	103.769	20.014	2.866	0.512
893.000	525.172	80.008	19.992	103.771	20.014	2.826	0.494
893.500	525.418	80.007	19.993	103.770	20.012	2.995	0.501
894.000	525.681	80.008	19.993	103.767	20.014	2.890	0.506
894.500	525.937	80.007	19.993	103.759	20.015	2.786	0.514
895.000	526.196	80.007	19.992	103.749	20.014	2.865	0.517
895.500	526.455	80.007	19.994	103.748	20.013	2.943	0.517
896.000	526.684	80.005	19.993	103.747	20.013	2.903	0.503
896.500	526.974	80.006	19.993	103.749	20.016	2.737	0.503
897.000	527.221	80.006	19.993	103.758	20.019	2.525	0.528
897.500	527.450	80.005	19.994	103.764	20.017	2.648	0.507
898.000	527.719	80.005	19.993	103.764	20.015	2.791	0.487
898.500	527.952	80.005	19.995	103.767	20.017	2.624	0.500
899.000	528.250	80.005	19.993	103.769	20.017	2.673	0.517
899.500	528.531	80.004	19.991	103.766	20.014	2.871	0.555
900.000	528.727	80.010	19.995	103.763	20.017	2.618	0.528
900.500	529.019	80.022	19.995	103.766	20.016	2.750	0.482
901.000	529.257	80.017	19.997	103.770	20.013	2.921	0.508
901.500	529.517	80.011	19.995	103.776	20.018	2.605	0.514
902.000	529.781	80.006	19.995	103.784	20.015	2.806	0.511
902.500	530.037	80.003	19.995	103.793	20.017	2.622	0.522
903.000	530.302	80.003	19.994	103.798	20.014	2.865	0.520
903.500	530.595	80.003	19.996	103.799	20.016	2.715	0.539
904.000	530.845	80.005	19.996	103.794	20.018	2.580	0.550
904.500	531.071	80.003	19.995	103.787	20.014	2.873	0.510
905.000	531.346	80.003	19.996	103.778	20.015	2.806	0.489
905.500	531.586	80.004	19.994	103.767	20.015	2.756	0.508
906.000	531.879	80.004	19.995	103.756	20.014	2.825	0.524
906.500	532.113	80.004	19.994	103.746	20.014	2.823	0.530
907.000	532.349	80.003	19.994	103.740	20.016	2.705	0.499
907.500	532.616	80.003	19.992	103.737	20.016	2.743	0.486
908.000	532.880	80.004	19.995	103.740	20.017	2.629	0.517
908.500	533.156	80.004	19.993	103.743	20.017	2.669	0.536
909.000	533.405	80.003	19.993	103.751	20.018	2.599	0.532
909.500	533.663	80.003	19.993	103.759	20.017	2.681	0.516
910.000	533.978	80.004	19.993	103.763	20.019	2.527	0.541
910.500	534.205	80.005	19.993	103.769	20.015	2.800	0.558
911.000	534.459	80.004	19.994	103.774	20.013	2.924	0.512
911.500	534.729	80.003	19.993	103.774	20.013	2.901	0.503
912.000	535.017	80.005	19.992	103.772	20.015	2.787	0.541
912.500	535.275	80.004	19.993	103.770	20.014	2.825	0.552
913.000	535.582	80.004	19.994	103.765	20.013	2.950	0.555
913.500	535.828	80.005	19.993	103.759	20.015	2.810	0.559
914.000	536.040	80.005	19.992	103.759	20.015	2.766	0.506
914.500	536.285	80.005	19.993	103.759	20.014	2.873	0.458
915.000	536.563	80.006	19.993	103.759	20.014	2.841	0.490
915.500	536.833	80.006	19.993	103.755	20.015	2.781	0.535
916.000	537.075	80.004	19.993	103.748	20.015	2.808	0.530
916.500	537.364	80.005	19.994	103.746	20.014	2.856	0.521
917.000	537.642	80.006	19.992	103.743	20.013	2.940	0.549
917.500	537.912	80.006	19.993	103.741	20.013	2.926	0.558
918.000	538.123	80.005	19.992	103.744	20.011	3.062	0.515
918.500	538.428	80.006	19.993	103.750	20.012	3.017	0.499
919.000	538.708	80.005	19.993	103.751	20.014	2.859	0.550
919.500	538.970	80.006	19.993	103.754	20.010	3.123	0.563
920.000	539.232	80.004	19.993	103.755	20.013	2.933	0.533
920.500	539.476	80.006	19.992	103.756	20.012	3.017	0.515
921.000	539.775	80.005	19.994	103.753	20.011	3.067	0.525
921.500	540.051	80.004	19.994	103.752	20.013	2.901	0.559
922.000	540.322	80.005	19.993	103.747	20.013	2.937	0.561
922.500	540.554	80.005	19.992	103.745	20.015	2.806	0.525
923.000	540.806	80.005	19.993	103.745	20.016	2.726	0.493
923.500	541.090	80.004	19.992	103.748	20.017	2.659	0.510
924.000	541.368	80.006	19.993	103.750	20.019	2.493	0.550
924.500	541.587	80.005	19.993	103.754	20.016	2.707	0.530
925.000	541.882	80.004	19.992	103.760	20.020	2.462	0.505
925.500	542.111	80.004	19.992	103.769	20.019	2.483	0.519
926.000	542.407	80.004	19.993	103.790	20.021	2.365	0.524
926.500	542.707	80.003	19.994	103.813	20.020	2.468	0.560
927.000	542.909	80.004	19.994	103.835	20.019	2.538	0.549
927.500	543.211	80.006	19.992	103.851	20.022	2.343	0.503
928.000	543.473	80.004	19.993	103.853	20.021	2.411	0.534
928.500	543.739	80.004	19.994	103.830	20.022	2.322	0.546
929.000	544.008	80.004	19.993	103.799	20.023	2.235	0.532
929.500	544.288	80.004	19.993	103.770	20.023	2.252	0.542
930.000	544.584	80.004	19.994	103.744	20.021	2.406	0.562
930.500	544.782	80.003	19.992	103.734	20.021	2.363	0.535
931.000	545.105	80.005	19.993	103.742	20.022	2.336	0.507
931.500	545.363	80.004	19.993	103.761	20.025	2.110	0.551
932.000	545.618	80.003	19.994	103.790	20.022	2.292	0.547
932.500	545.906	80.004	19.993	103.817	20.023	2.212	0.528
933.000	546.161	80.005	19.993	103.828	20.024	2.200	0.542
933.500	546.413	80.005	19.994	103.825	20.023	2.242	0.525
934.000	546.703	80.004	19.993	103.812	20.020	2.472	0.525
934.500	546.965	80.005	19.993	103.790	20.021	2.395	0.547
935.000	547.219	80.004	19.993	103.767	20.020	2.450	0.534
935.500	547.566	80.005	19.993	103.756	20.025	2.111	0.559
936.000	547.733	80.004	19.995	103.752	20.022	2.312	0.558
936.500	548.118	80.005	19.993	103.757	20.023	2.228	0.532
937.000	548.284	80.005	19.995	103.759	20.023	2.268	0.552
937.500	548.592	80.004	19.993	103.760	20.022	2.331	0.513
938.000	548.916	80.005	19.993	103.761	20.024	2.181	0.553
938.500	549.151	80.004	19.995	103.769	20.023	2.244	0.595
939.000	549.473	80.004	19.994	103.775	20.023	2.261	0.558
939.500	549.670	80.005	19.993	103.781	20.022	2.333	0.538
940.000	549.997	80.005	19.993	103.791	20.024	2.153	0.521
940.500	550.273	80.005	19.993	103.805	20.023	2.257	0.563
941.000	550.574	80.004	19.994	103.806	20.028	1.922	0.590
941.500	550.771	80.005	19.993	103.807	20.023	2.239	0.538
942.000	551.077	80.005	19.993	103.803	20.020	2.437	0.501
942.500	551.394	80.005	19.993	103.793	20.024	2.141	0.563
943.000	551.668	80.005	19.993	103.777	20.022	2.306	0.607
943.500	551.863	80.007	19.992	103.768	20.025	2.096	0.529
944.000	552.171	80.006	19.993	103.764	20.014	2.850	0.486
944.500	552.442	80.005	19.993	103.773	20.026	2.027	0.541
945.000	552.712	80.006	19.993	103.786	20.011	3.086	0.560
945.500	553.053	80.007	19.993	103.789	20.013	2.938	0.576
946.000	553.304	80.008	19.992	103.781	20.016	2.729	0.602
946.500	553.498	80.006	19.992	103.768	20.026	2.041	0.519
947.000	553.924	80.006	19.993	103.749	20.015	2.801	0.532
947.500	554.064	80.006	19.992	103.736	20.011	3.035	0.593
948.000	554.346	80.005	19.992	103.735	20.023	2.211	0.494
948.500	554.688	80.008	19.992	103.743	20.015	2.756	0.523
949.000	554.913	80.006	19.992	103.755	20.021	2.373	0.595
949.500	555.193	80.006	19.992	103.762	20.016	2.701	0.536
950.000	555.398	80.007	19.992	103.767	20.019	2.536	0.495
950.500	555.786	80.006	19.993	103.767	20.018	2.602	0.539
951.000	556.024	80.006	19.992	103.762	20.017	2.648	0.610
951.500	556.336	80.006	19.992	103.755	20.019	2.519	0.588
952.000	556.562	80.006	19.992	103.745	20.020	2.456	0.544
952.500	556.828	80.005	19.993	103.734	20.014	2.852	0.514
953.000	557.158	80.006	19.993	103.730	20.019	2.495	0.544
953.500	557.344	80.006	19.993	103.735	20.019	2.542	0.556
954.000	557.615	80.006	19.993	103.745	20.020	2.438	0.487
954.500	558.047	80.006	19.992	103.757	20.021	2.369	0.580
955.000	558.416	80.005	19.993	103.767	20.022	2.286	0.752
955.500	558.524	80.006	19.993	103.772	20.016	2.700	0.639
956.000	558.481	80.005	19.993	103.779	20.020	2.426	0.271
956.500	559.019	80.004	19.993	103.783	20.021	2.400	0.280
957.000	559.342	80.005	19.992	103.786	20.021	2.392	0.678
957.500	559.776	80.006	19.993	103.785	20.023	2.219	0.809
958.000	559.459	80.005	19.992	103.784	20.018	2.573	0.437
958.500	560.368	80.006	19.993	103.771	20.018	2.567	0.354
959.000	559.816	80.006	19.992	103.757	20.020	2.468	0.475
959.500	560.421	80.006	19.991	103.744	20.021	2.409	0.205
960.000	561.170	80.003	19.993	103.741	20.019	2.525	0.704
960.500	561.866	80.006	19.995	103.742	20.020	2.419	1.399
961.000	561.679	80.006	19.994	103.741	20.021	2.371	0.976
961.500	561.290	80.006	19.994	103.738	20.020	2.425	-0.034
962.000	562.051	80.005	19.996	103.739	20.018	2.578	-0.102
962.500	562.007	80.006	19.993	103.741	20.022	2.290	0.545
963.000	562.865	80.006	19.994	103.744	20.019	2.514	0.766
963.500	562.707	80.006	19.993	103.751	20.016	2.695	0.758
964.000	563.025	80.006	19.994	103.759	20.018	2.617	0.430
964.500	563.398	80.005	19.994	103.763	20.016	2.691	0.425
965.000	563.510	80.006	19.994	103.764	20.020	2.452	0.588
965.500	563.869	80.005	19.994	103.764	20.021	2.356	0.478
966.000	564.331	80.007	19.994	103.770	20.017	2.666	0.646
966.500	564.449	80.007	19.993	103.771	20.020	2.467	0.701
967.000	564.659	80.007	19.994	103.771	20.022	2.330	0.454
967.500	564.871	80.006	19.994	103.771	20.020	2.451	0.375
968.000	565.340	80.006	19.995	103.767	20.022	2.288	0.552
968.500	565.509	80.005	19.994	103.766	20.018	2.556	0.659
969.000	565.798	80.006	19.995	103.766	20.021	2.345	0.548
969.500	565.984	80.006	19.993	103.766	20.023	2.234	0.467
970.000	566.331	80.005	19.993	103.768	20.022	2.323	0.504
970.500	566.625	80.007	19.993	103.772	20.027	1.966	0.587
971.000	566.859	80.007	19.993	103.771	20.025	2.080	0.584
971.500	567.143	80.006	19.993	103.771	20.025	2.133	0.523
972.000	567.435	80.007	19.993	103.772	20.025	2.128	0.547
972.500	567.673	80.006	19.994	103.770	20.023	2.215	0.553
973.000	567.904	80.008	19.992	103.767	20.023	2.244	0.500
973.500	568.268	80.007	19.993	103.768	20.025	2.096	0.532
974.000	568.517	80.007	19.993	103.772	20.027	1.993	0.604
974.500	568.752	80.007	19.993	103.778	20.028	1.919	0.548
975.000	568.995	80.006	19.992	103.785	20.028	1.915	0.481
975.500	569.261	80.007	19.993	103.791	20.024	2.189	0.493
976.000	569.548	80.007	19.993	103.789	20.024	2.180	0.531
976.500	569.877	80.007	19.992	103.784	20.027	1.942	0.585
977.000	570.105	80.006	19.992	103.780	20.027	1.990	0.586
977.500	570.291	80.007	19.993	103.777	20.024	2.153	0.485
978.000	570.655	80.006	19.993	103.773	20.023	2.223	0.482
978.500	570.927	80.006	19.994	103.773	20.027	1.995	0.593
979.000	571.153	80.005	19.993	103.772	20.022	2.324	0.567
979.500	571.422	80.006	19.994	103.769	20.021	2.401	0.497
980.000	571.687	80.006	19.992	103.763	20.021	2.377	0.514
980.500	571.973	80.006	19.994	103.760	20.022	2.314	0.542
981.000	572.283	80.005	19.993	103.752	20.023	2.257	0.573
981.500	572.520	80.004	19.993	103.747	20.021	2.377	0.571
982.000	572.758	80.005	19.994	103.744	20.021	2.404	0.511
982.500	573.082	80.005	19.992	103.744	20.020	2.465	0.519
983.000	573.316	80.006	19.993	103.744	20.021	2.398	0.560
983.500	573.660	80.005	19.993	103.749	20.021	2.377	0.567
984.000	573.842	80.005	19.994	103.753	20.018	2.563	0.552
984.500	574.243	80.006	19.993	103.756	20.023	2.262	0.555
985.000	574.542	80.006	19.993	103.756	20.020	2.420	0.642
985.500	574.817	80.006	19.993	103.756	20.022	2.301	0.638
986.000	575.068	80.005	19.992	103.761	20.022	2.323	0.550
986.500	575.358	80.004	19.993	103.768	20.020	2.470	0.533
987.000	575.616	80.004	19.994	103.775	20.021	2.374	0.544
987.500	575.847	80.005	19.994	103.778	20.020	2.433	0.518
988.000	576.188	80.004	19.994	103.778	20.019	2.519	0.531
988.500	576.434	80.006	19.993	103.774	20.021	2.354	0.580
989.000	576.756	80.006	19.994	103.765	20.019	2.535	0.578
989.500	576.998	80.005	19.994	103.758	20.020	2.431	0.566
990.000	577.252	80.004	19.993	103.754	20.020	2.440	0.530
990.500	577.536	80.005	19.993	103.754	20.019	2.505	0.517
991.000	577.823	80.004	19.993	103.755	20.019	2.482	0.555
991.500	578.101	80.005	19.994	103.756	20.021	2.370	0.568
992.000	578.356	80.004	19.993	103.760	20.020	2.465	0.549
992.500	578.654	80.005	19.994	103.768	20.020	2.426	0.543
993.000	578.868	80.005	19.995	103.773	20.020	2.432	0.533
993.500	579.203	80.005	19.996	103.773	20.020	2.432	0.530
994.000	579.466	80.005	19.995	103.770	20.018	2.554	0.573
994.500	579.713	80.005	19.995	103.762	20.021	2.356	0.554
995.000	579.992	80.005	19.995	103.748	20.020	2.459	0.518
995.500	580.288	80.005	19.994	103.744	20.022	2.305	0.551
996.000	580.582	80.004	19.996	103.758	20.022	2.316	0.583
996.500	580.782	80.004	19.994	103.779	20.025	2.080	0.542
997.000	581.100	80.004	19.994	103.801	20.021	2.361	0.506
997.500	581.357	80.005	19.995	103.827	20.020	2.428	0.546
998.000	581.637	80.005	19.994	103.818	20.020	2.412	0.556
998.500	581.906	80.005	19.993	103.790	20.025	2.135	0.543
999.000	582.204	80.004	19.995	103.763	20.018	2.575	0.558
999.500	582.407	80.005	19.995	103.738	20.022	2.319	0.534
1000.000	582.685	80.005	19.994	103.715	20.018	2.570	0.491
1000.500	582.946	80.004	19.995	103.715	20.018	2.558	0.510
1001.000	583.242	80.004	19.995	103.714	20.018	2.557	0.548
1001.500	583.488	80.004	19.994	103.714	20.020	2.452	0.549
1002.000	583.751	80.004	19.994	103.719	20.017	2.663	0.526
1002.500	584.050	80.005	19.994	103.719	20.018	2.586	0.536
1003.000	584.269	80.004	19.994	103.723	20.019	2.516	0.540
1003.500	584.554	80.004	19.994	103.737	20.017	2.647	0.510
1004.000	584.843	80.004	19.994	103.745	20.021	2.397	0.539
1004.500	585.090	80.006	19.994	103.749	20.017	2.628	0.555
1005.000	585.337	80.004	19.994	103.760	20.023	2.239	0.515
1005.500	585.642	80.005	19.993	103.768	20.020	2.420	0.523
1006.000	585.850	80.004	19.993	103.771	20.020	2.420	0.533
1006.500	586.140	80.005	19.993	103.772	20.020	2.425	0.506
1007.000	586.401	80.006	19.993	103.769	20.021	2.406	0.525
1007.500	586.716	80.005	19.994	103.756	20.021	2.347	0.563
1008.000	586.952	80.005	19.993	103.744	20.017	2.652	0.563
1008.500	587.179	80.005	19.992	103.733	20.016	2.712	0.507
1009.000	587.448	80.005	19.993	103.725	20.016	2.752	0.480
1009.500	587.754	80.006	19.993	103.720	20.019	2.504	0.536
1010.000	588.001	80.004	19.993	103.721	20.019	2.546	0.564
1010.500	588.253	80.005	19.993	103.722	20.019	2.489	0.526
1011.000	588.503	80.005	19.993	103.723	20.016	2.692	0.500
1011.500	588.774	80.006	19.993	103.724	20.018	2.573	0.511
1012.000	589.004	80.004	19.993	103.728	20.021	2.411	0.511
1012.500	589.301	80.005	19.992	103.734	20.021	2.351	0.514
1013.000	589.549	80.005	19.992	103.747	20.023	2.256	0.536
1013.500	589.808	80.005	19.992	103.763	20.024	2.180	0.526
1014.000	590.085	80.005	19.993	103.777	20.025	2.115	0.521
1014.500	590.322	80.004	19.993	103.787	20.023	2.210	0.525
1015.000	590.579	80.004	19.993	103.794	20.024	2.189	0.504
1015.500	590.821	80.004	19.993	103.794	20.024	2.162	0.496
1016.000	591.094	80.004	19.992	103.796	20.024	2.173	0.507
1016.500	591.331	80.004	19.993	103.806	20.021	2.388	0.512
1017.000	591.622	80.004	19.994	103.810	20.027	1.978	0.519
1017.500	591.882	80.004	19.993	103.802	20.026	2.055	0.539
1018.000	592.115	80.003	19.994	103.790	20.026	2.008	0.522
1018.500	592.391	80.004	19.993	103.766	20.024	2.152	0.501
1019.000	592.662	80.003	19.994	103.737	20.021	2.393	0.528
1019.500	592.893	80.004	19.994	103.722	20.023	2.229	0.525
1020.000	593.194	80.004	19.994	103.724	20.023	2.256	0.517
1020.500	593.437	80.005	19.995	103.738	20.025	2.102	0.538
1021.000	593.678	80.005	19.996	103.752	20.021	2.353	0.514
1021.500	593.950	80.004	19.995	103.766	20.024	2.202	0.499
1022.000	594.204	80.004	19.996	103.770	20.025	2.130	0.520
1022.500	594.400	80.004	19.994	103.775	20.024	2.183	0.488
1023.000	594.727	80.004	19.994	103.776	20.024	2.161	0.487
1023.500	594.937	80.004	19.994	103.781	20.025	2.085	0.530
1024.000	595.227	80.005	19.994	103.788	20.025	2.089	0.518
1024.499	595.480	80.005	19.994	103.794	20.025	2.102	0.521
1024.999	595.714	80.006	19.994	103.788	20.028	1.910	0.515
1025.500	595.999	80.005	19.994	103.785	20.026	2.030	0.503
1026.000	596.224	80.006	19.993	103.780	20.020	2.465	0.515
1026.499	596.495	80.006	19.993	103.768	20.025	2.124	0.503
1026.999	596.723	80.006	19.994	103.753	20.023	2.243	0.497
1027.499	596.999	80.005	19.993	103.753	20.023	2.259	0.501
1027.999	597.240	80.006	19.994	103.747	20.020	2.460	0.510
1028.499	597.474	80.006	19.994	103.738	20.021	2.390	0.496
1028.999	597.731	80.006	19.993	103.731	20.021	2.382	0.483
1029.499	597.960	80.006	19.993	103.723	20.022	2.284	0.489
1030.000	598.230	80.006	19.993	103.709	20.024	2.149	0.493
1030.500	598.457	80.006	19.992	103.700	20.023	2.265	0.498
1031.000	598.722	80.006	19.993	103.696	20.025	2.088	0.494
1031.501	598.963	80.006	19.993	103.708	20.022	2.330	0.499
1032.000	599.212	80.006	19.993	103.726	20.023	2.218	0.498
1032.499	599.479	80.006	19.993	103.744	20.025	2.090	0.503
1032.999	599.696	80.007	19.993	103.761	20.027	1.951	0.500
1033.500	599.905	80.006	19.993	103.772	20.022	2.318	0.455
1034.001	600.193	80.007	19.992	103.779	20.028	1.917	0.461
1034.500	600.457	80.006	19.992	103.788	20.028	1.894	0.525
1034.999	600.687	80.006	19.993	103.796	20.025	2.131	0.523
1035.499	600.943	80.004	19.993	103.798	20.023	2.234	0.489
1035.999	601.199	80.005	19.993	103.799	20.030	1.759	0.499
1036.499	601.449	80.006	19.993	103.792	20.024	2.175	0.509
1036.999	601.700	80.005	19.993	103.775	20.024	2.201	0.503
1037.499	601.952	80.005	19.993	103.758	20.025	2.125	0.502
1037.999	602.174	80.005	19.993	103.744	20.025	2.114	0.489
1038.499	602.389	80.004	19.992	103.737	20.029	1.861	0.455
1039.000	602.671	80.005	19.992	103.736	20.027	1.941	0.467
1039.500	602.919	80.004	19.992	103.741	20.026	2.023	0.514
1039.999	603.195	80.005	19.992	103.748	20.025	2.073	0.528
1040.499	603.443	80.005	19.992	103.755	20.027	1.963	0.524
1040.999	603.701	80.005	19.993	103.760	20.025	2.098	0.515
1041.499	603.926	80.005	19.992	103.765	20.025	2.086	0.495
1042.000	604.151	80.006	19.993	103.772	20.025	2.101	0.467
1042.501	604.395	80.005	19.993	103.778	20.023	2.209	0.460
1043.000	604.636	80.007	19.992	103.778	20.026	2.046	0.477
1043.499	604.986	80.006	19.992	103.777	20.025	2.095	0.538
1043.999	605.247	80.006	19.993	103.769	20.026	2.044	0.601
1044.499	605.438	80.006	19.993	103.759	20.024	2.155	0.531
1044.999	605.745	80.006	19.994	103.754	20.023	2.212	0.475
1045.499	605.988	80.005	19.992	103.754	20.022	2.329	0.524
1045.999	606.215	80.006	19.994	103.748	20.023	2.266	0.510
1046.499	606.483	80.007	19.993	103.744	20.022	2.282	0.482
1047.000	606.778	80.006	19.993	103.739	20.024	2.189	0.529
1047.500	607.012	80.006	19.993	103.735	20.022	2.327	0.546
1047.999	607.273	80.008	19.993	103.732	20.021	2.358	0.512
1048.499	607.528	80.007	19.992	103.730	20.023	2.242	0.506
1048.999	607.757	80.008	19.993	103.728	20.024	2.137	0.500
1049.499	608.035	80.007	19.992	103.732	20.026	2.048	0.496
1049.999	608.304	80.007	19.993	103.741	20.024	2.149	0.527
1050.499	608.545	80.007	19.992	103.752	20.024	2.143	0.528
1050.999	608.805	80.008	19.993	103.768	20.024	2.162	0.505
1051.499	609.087	80.008	19.993	103.776	20.024	2.177	0.521
1052.000	609.323	80.007	19.993	103.766	20.025	2.120	0.530
1052.500	609.580	80.008	19.993	103.750	20.027	1.943	0.506
1052.999	609.841	80.008	19.992	103.729	20.027	1.974	0.506
1053.499	610.085	80.009	19.992	103.718	20.024	2.192	0.512
1053.999	610.332	80.008	19.994	103.723	20.027	1.972	0.497
1054.499	610.613	80.007	19.993	103.744	20.025	2.133	0.509
1054.999	610.825	80.009	19.992	103.758	20.026	2.017	0.511
1055.499	611.101	80.007	19.993	103.763	20.029	1.846	0.491
1055.999	611.377	80.007	19.993	103.762	20.027	1.968	0.520
1056.499	611.624	80.007	19.992	103.758	20.028	1.894	0.538
1056.999	611.836	80.008	19.994	103.751	20.024	2.156	0.491
1057.499	612.139	80.008	19.993	103.749	20.027	1.955	0.487
1057.999	612.390	80.008	19.994	103.755	20.030	1.738	0.534
1058.499	612.621	80.008	19.994	103.753	20.029	1.807	0.518
1058.999	612.879	80.008	19.992	103.750	20.030	1.780	0.485
1059.499	613.070	80.008	19.993	103.746	20.028	1.915	0.469
1059.999	613.378	80.008	19.992	103.740	20.028	1.898	0.474
1060.499	613.615	80.006	19.993	103.740	20.027	1.956	0.522
1060.999	613.886	80.006	19.994	103.745	20.029	1.852	0.526
1061.499	614.130	80.005	19.993	103.746	20.026	2.004	0.512
1061.999	614.362	80.006	19.992	103.746	20.027	1.951	0.496
1062.500	614.611	80.004	19.993	103.742	20.028	1.865	0.478
1063.000	614.865	80.005	19.993	103.736	20.030	1.755	0.492
1063.499	615.127	80.005	19.993	103.732	20.030	1.793	0.510
1063.999	615.376	80.005	19.993	103.733	20.028	1.896	0.513
1064.499	615.618	80.005	19.994	103.728	20.026	2.031	0.500
1064.999	615.850	80.006	19.994	103.729	20.028	1.887	0.482
1065.499	616.102	80.006	19.994	103.732	20.029	1.799	0.479
1065.999	616.361	80.005	19.993	103.736	20.023	2.240	0.498
1066.499	616.624	80.005	19.994	103.737	20.027	1.947	0.516
1066.999	616.858	80.006	19.993	103.745	20.027	1.936	0.509
1067.500	617.071	80.006	19.993	103.756	20.026	2.016	0.472
1068.000	617.305	80.005	19.993	103.762	20.025	2.116	0.448
1068.500	617.571	80.004	19.994	103.762	20.026	2.027	0.474
1069.000	617.768	80.006	19.993	103.760	20.026	2.065	0.481
1069.499	618.010	80.005	19.993	103.752	20.024	2.172	0.451
1069.999	618.231	80.005	19.993	103.743	20.023	2.263	0.451
1070.499	618.509	80.006	19.993	103.736	20.023	2.237	0.481
1070.999	618.664	80.005	19.994	103.736	20.023	2.256	0.466
1071.499	618.964	80.004	19.993	103.734	20.022	2.339	0.444
1071.999	619.189	80.004	19.995	103.732	20.023	2.244	0.490
1072.499	619.462	80.005	19.993	103.730	20.024	2.168	0.511
1072.999	619.649	80.004	19.993	103.727	20.025	2.073	0.479
1073.499	619.884	80.005	19.993	103.720	20.021	2.356	0.441
1073.999	620.182	80.006	19.993	103.723	20.024	2.175	0.477
1074.499	620.361	80.005	19.993	103.733	20.027	1.961	0.505
1074.999	620.625	80.005	19.993	103.741	20.027	1.964	0.460
1075.499	620.867	80.006	19.993	103.749	20.025	2.084	0.475
1075.999	621.122	80.007	19.993	103.756	20.028	1.928	0.501
1076.499	621.383	80.004	19.992	103.756	20.023	2.232	0.506
1076.999	621.606	80.006	19.993	103.756	20.023	2.225	0.500
1077.499	621.821	80.006	19.994	103.756	20.024	2.143	0.461
1077.999	622.035	80.005	19.993	103.755	20.024	2.150	0.433
1078.499	622.321	80.006	19.994	103.752	20.025	2.078	0.465
1078.999	622.549	80.005	19.993	103.750	20.028	1.873	0.507
1079.499	622.784	80.005	19.992	103.750	20.029	1.850	0.489
1080.000	623.043	80.007	19.994	103.750	20.027	1.934	0.479
1080.500	623.257	80.007	19.995	103.757	20.026	2.004	0.484
1080.999	623.549	80.005	19.994	103.766	20.028	1.921	0.489
1081.499	623.778	80.005	19.994	103.774	20.026	2.048	0.513
1081.999	624.005	80.005	19.996	103.775	20.024	2.177	0.488
1082.499	624.249	80.005	19.994	103.782	20.026	2.025	0.463
1083.000	624.480	80.005	19.994	103.783	20.028	1.890	0.473
1083.500	624.719	80.006	19.994	103.777	20.026	2.008	0.473
1084.000	624.956	80.004	19.995	103.771	20.029	1.856	0.473
1084.500	625.236	80.006	19.995	103.769	20.027	1.966	0.497
1084.999	625.477	80.004	19.993	103.761	20.028	1.908	0.519
1085.499	625.735	80.003	19.994	103.756	20.031	1.708	0.510
1085.999	625.939	80.005	19.995	103.753	20.027	1.955	0.481
1086.500	626.214	80.004	19.994	103.751	20.030	1.727	0.471
1087.000	626.462	80.004	19.994	103.746	20.030	1.740	0.501
1087.500	626.745	80.004	19.995	103.746	20.029	1.836	0.527
1088.000	626.987	80.005	19.995	103.746	20.027	1.998	0.528
1088.500	627.249	80.003	19.993	103.745	20.029	1.853	0.514
1089.000	627.482	80.004	19.992	103.743	20.028	1.897	0.499
1089.499	627.739	80.004	19.995	103.744	20.029	1.838	0.492
1089.999	627.977	80.003	19.996	103.742	20.027	1.973	0.493
1090.499	628.234	80.004	19.994	103.741	20.026	2.036	0.495
1090.999	628.473	80.003	19.994	103.744	20.027	1.968	0.496
1091.499	628.719	80.003	19.993	103.749	20.028	1.881	0.490
1091.999	628.967	80.003	19.994	103.753	20.027	1.999	0.489
1092.499	629.255	80.002	19.995	103.753	20.030	1.758	0.515
1092.999	629.491	80.004	19.994	103.754	20.026	2.028	0.530
1093.500	629.766	80.003	19.994	103.751	20.029	1.851	0.518
1094.000	630.039	80.004	19.994	103.750	20.026	2.016	0.529
1094.499	630.279	80.004	19.994	103.751	20.028	1.917	0.530
1094.999	630.483	80.003	19.996	103.753	20.026	2.046	0.478
1095.499	630.771	80.004	19.993	103.755	20.025	2.085	0.468
1095.999	630.968	80.003	19.994	103.758	20.025	2.110	0.489
1096.500	631.209	80.005	19.994	103.755	20.030	1.772	0.461
1097.000	631.500	80.004	19.994	103.747	20.027	1.945	0.485
1097.499	631.744	80.003	19.995	103.737	20.025	2.084	0.533
1097.999	632.022	80.002	19.994	103.722	20.029	1.797	0.529
1098.500	632.245	80.003	19.995	103.707	20.030	1.780	0.512
1099.001	632.512	80.003	19.994	103.696	20.029	1.839	0.496
1099.500	632.764	80.004	19.994	103.691	20.029	1.816	0.505
1099.999	632.998	80.004	19.994	103.693	20.031	1.708	0.503
1100.499	633.286	80.003	19.993	103.702	20.031	1.679	0.504
1100.999	633.535	80.005	19.994	103.717	20.031	1.672	0.529
1101.499	633.742	80.004	19.993	103.734	20.029	1.862	0.496
1101.999	633.988	80.003	19.993	103.753	20.028	1.907	0.454
1102.500	634.311	80.005	19.993	103.770	20.030	1.787	0.511
1103.000	634.546	80.003	19.993	103.784	20.032	1.633	0.564
1103.499	634.794	80.005	19.993	103.785	20.031	1.711	0.520
1103.999	635.057	80.004	19.992	103.783	20.030	1.761	0.497
1104.499	635.284	80.005	19.992	103.772	20.030	1.759	0.501
1104.999	635.550	80.004	19.993	103.760	20.028	1.911	0.492
1105.499	635.817	80.005	19.993	103.745	20.030	1.778	0.513
1105.999	636.058	80.006	19.993	103.735	20.033	1.579	0.521
1106.499	636.298	80.004	19.993	103.724	20.031	1.704	0.494
1106.999	636.557	80.005	19.993	103.727	20.032	1.607	0.490
1107.499	636.819	80.005	19.992	103.738	20.032	1.633	0.510
1108.000	637.098	80.006	19.993	103.744	20.033	1.550	0.531
1108.500	637.311	80.006	19.992	103.752	20.034	1.508	0.516
1108.999	637.558	80.006	19.992	103.758	20.028	1.863	0.476
1109.499	637.856	80.007	19.993	103.751	20.030	1.778	0.503
1109.999	638.077	80.007	19.993	103.742	20.030	1.769	0.532
1110.499	638.349	80.006	19.993	103.740	20.028	1.883	0.506
1110.999	638.634	80.007	19.992	103.741	20.028	1.906	0.525
1111.499	638.852	80.005	19.993	103.746	20.025	2.101	0.530
1111.999	639.140	80.006	19.992	103.752	20.025	2.136	0.505
1112.499	639.390	80.006	19.993	103.746	20.025	2.136	0.522
1112.999	639.680	80.006	19.994	103.740	20.027	1.952	0.539
1113.499	639.905	80.005	19.992	103.732	20.026	2.028	0.527
1113.999	640.191	80.007	19.993	103.724	20.029	1.859	0.513
1114.499	640.426	80.006	19.993	103.725	20.027	1.959	0.516
1114.999	640.678	80.005	19.993	103.732	20.026	2.041	0.505
1115.499	640.945	80.007	19.993	103.739	20.030	1.753	0.503
1115.999	641.155	80.005	19.992	103.744	20.026	2.051	0.498
1116.499	641.451	80.006	19.993	103.744	20.032	1.596	0.491
1116.999	641.739	80.006	19.993	103.739	20.021	2.357	0.545
1117.499	641.983	80.007	19.993	103.733	20.036	1.353	0.558
1117.999	642.202	80.006	19.993	103.726	20.025	2.071	0.498
1118.499	642.460	80.006	19.994	103.722	20.027	1.961	0.470
1118.999	642.742	80.006	19.993	103.726	20.029	1.812	0.508
1119.500	642.995	80.005	19.994	103.728	20.034	1.491	0.537
1120.001	643.283	80.005	19.994	103.735	20.030	1.774	0.538
1120.500	643.525	80.007	19.994	103.743	20.030	1.755	0.535
1120.999	643.827	80.007	19.993	103.750	20.029	1.808	0.537
1121.500	644.087	80.005	19.993	103.757	20.029	1.804	0.553
1122.000	644.309	80.006	19.994	103.762	20.033	1.574	0.522
1122.500	644.556	80.006	19.993	103.762	20.031	1.715	0.475
1123.000	644.806	80.005	19.993	103.765	20.033	1.540	0.483
1123.499	645.072	80.005	19.993	103.774	20.033	1.582	0.507
1123.999	645.297	80.006	19.992	103.787	20.032	1.597	0.504
1124.499	645.592	80.006	19.993	103.796	20.034	1.470	0.505
1124.999	645.847	80.005	19.992	103.798	20.033	1.527	0.534
1125.499	646.082	80.006	19.993	103.788	20.030	1.749	0.520
1126.000	646.323	80.006	19.993	103.770	20.031	1.681	0.483
1126.500	646.560	80.005	19.993	103.750	20.033	1.522	0.477
1126.999	646.901	80.006	19.994	103.737	20.031	1.683	0.528
1127.499	647.065	80.006	19.993	103.735	20.030	1.735	0.542
1127.999	647.334	80.006	19.992	103.741	20.029	1.817	0.469
1128.499	647.631	80.005	19.993	103.749	20.030	1.756	0.499
1128.999	647.800	80.006	19.993	103.755	20.032	1.623	0.516
1129.499	648.193	80.006	19.993	103.756	20.034	1.488	0.514
1129.999	648.291	80.005	19.993	103.757	20.033	1.573	0.526
1130.499	648.836	80.006	19.993	103.749	20.031	1.708	0.567
1130.999	648.286	80.005	19.993	103.740	20.030	1.761	0.319
1131.499	649.090	80.007	19.993	103.732	20.030	1.744	0.125
1132.000	649.268	80.008	19.993	103.725	20.030	1.778	0.618
1132.500	649.714	80.008	19.992	103.719	20.028	1.869	0.803
1132.999	649.921	80.007	19.993	103.722	20.028	1.864	0.638
1133.499	650.249	80.008	19.994	103.724	20.031	1.687	0.594
1133.999	650.360	80.008	19.992	103.727	20.031	1.691	0.488
1134.499	650.668	80.008	19.992	103.730	20.029	1.811	0.429
1134.999	650.943	80.008	19.993	103.728	20.028	1.868	0.501
1135.499	651.131	80.008	19.992	103.725	20.028	1.898	0.523
1135.999	651.444	80.008	19.994	103.725	20.029	1.824	0.482
1136.499	651.745	80.007	19.992	103.727	20.029	1.807	0.558
1136.999	651.962	80.008	19.993	103.731	20.026	2.012	0.566
1137.499	652.211	80.009	19.993	103.739	20.029	1.816	0.492
1137.999	652.493	80.008	19.992	103.751	20.028	1.896	0.498
1138.499	652.712	80.008	19.993	103.765	20.027	1.997	0.516
1138.999	652.970	80.009	19.992	103.771	20.027	1.957	0.489
1139.499	653.237	80.007	19.992	103.772	20.026	2.006	0.501
1139.999	653.501	80.008	19.993	103.773	20.028	1.872	0.528
1140.499	653.787	80.008	19.994	103.771	20.027	1.965	0.540
1140.999	654.019	80.007	19.994	103.764	20.027	1.989	0.534
1141.499	654.243	80.007	19.995	103.757	20.028	1.896	0.487
1141.999	654.540	80.007	19.993	103.751	20.028	1.909	0.488
1142.499	654.765	80.007	19.994	103.743	20.026	2.016	0.522
1142.999	655.061	80.007	19.993	103.740	20.026	2.027	0.522
1143.499	655.267	80.006	19.994	103.739	20.027	1.999	0.512
1143.999	655.580	80.007	19.992	103.743	20.025	2.135	0.511
1144.500	655.874	80.006	19.992	103.748	20.024	2.204	0.563
1145.000	656.077	80.006	19.993	103.754	20.025	2.132	0.552
1145.499	656.351	80.004	19.992	103.757	20.026	2.054	0.487
1145.999	656.641	80.005	19.993	103.758	20.026	2.004	0.520
1146.499	656.875	80.004	19.994	103.758	20.024	2.162	0.544
1146.999	657.084	80.005	19.994	103.759	20.025	2.115	0.484
1147.499	657.426	80.005	19.992	103.760	20.029	1.862	0.497
1147.999	657.669	80.005	19.992	103.760	20.026	2.050	0.568
1148.499	657.942	80.005	19.993	103.761	20.026	2.022	0.551
1148.999	658.186	80.005	19.993	103.761	20.027	1.932	0.516
1149.499	658.449	80.005	19.993	103.763	20.027	1.991	0.512
1149.999	658.746	80.005	19.993	103.763	20.026	2.014	0.534
1150.499	658.986	80.005	19.993	103.764	20.030	1.744	0.548
1150.999	659.242	80.005	19.993	103.764	20.025	2.119	0.516
1151.499	659.537	80.004	19.994	103.764	20.030	1.782	0.524
1151.999	659.779	80.004	19.994	103.762	20.026	2.022	0.544
1152.499	660.046	80.004	19.994	103.762	20.024	2.196	0.523
1152.999	660.313	80.005	19.993	103.761	20.027	1.947	0.521
1153.499	660.579	80.005	19.994	103.760	20.024	2.166	0.533
1154.000	660.859	80.005	19.994	103.759	20.025	2.105	0.540
1154.500	661.088	80.005	19.994	103.758	20.029	1.814	0.527
1154.999	661.384	80.004	19.995	103.757	20.030	1.782	0.517
1155.499	661.617	80.005	19.994	103.756	20.027	1.957	0.527
1155.999	661.905	80.005	19.994	103.757	20.026	2.065	0.524
1156.499	662.182	80.005	19.994	103.757	20.027	1.980	0.543
1156.999	662.443	80.005	19.993	103.757	20.028	1.875	0.552
1157.499	662.680	80.005	19.995	103.758	20.029	1.826	0.518
1157.999	662.961	80.004	19.995	103.757	20.028	1.898	0.508
1158.499	663.227	80.005	19.995	103.758	20.030	1.731	0.533
1158.999	663.530	80.004	19.992	103.758	20.033	1.586	0.558
1159.499	663.758	80.005	19.993	103.761	20.035	1.421	0.550
1160.000	664.066	80.003	19.994	103.766	20.033	1.584	0.534
1160.500	664.283	80.004	19.994	103.771	20.031	1.666	0.531
1160.999	664.582	80.005	19.994	103.776	20.033	1.567	0.520
1161.499	664.793	80.005	19.993	103.780	20.033	1.582	0.513
1161.999	665.099	80.004	19.993	103.778	20.034	1.518	0.513
1162.500	665.389	80.005	19.993	103.769	20.035	1.398	0.556
1163.000	665.590	80.004	19.994	103.761	20.035	1.422	0.544
1163.499	665.889	80.005	19.993	103.751	20.034	1.491	0.495
1163.999	666.149	80.005	19.993	103.745	20.032	1.643	0.529
1164.499	666.395	80.004	19.993	103.743	20.034	1.494	0.533
1164.999	666.687	80.006	19.993	103.745	20.036	1.350	0.522
1165.499	666.931	80.005	19.994	103.749	20.031	1.664	0.537
1165.999	666.804	80.005	19.993	103.753	20.037	1.299	0.327
1166.499	667.383	80.004	19.994	103.756	20.034	1.510	0.285
1167.000	667.786	80.005	19.994	103.755	20.037	1.297	0.717
1167.500	667.964	80.005	19.993	103.757	20.036	1.314	0.782
1167.999	668.279	80.005	19.992	103.755	20.034	1.487	0.537
1168.499	668.508	80.005	19.991	103.755	20.036	1.379	0.519
1168.999	668.825	80.005	19.993	103.755	20.032	1.622	0.545
1169.499	669.053	80.006	19.992	103.749	20.035	1.402	0.545
1169.999	669.328	80.004	19.994	103.743	20.033	1.529	0.524
1170.499	669.579	80.006	19.993	103.740	20.034	1.451	0.515
1170.999	669.843	80.004	19.994	103.737	20.033	1.586	0.521
1171.499	670.145	80.005	19.993	103.732	20.035	1.415	0.541
1171.999	670.364	80.006	19.993	103.733	20.034	1.516	0.544
1172.499	670.640	80.005	19.993	103.732	20.038	1.212	0.508
1173.000	670.945	80.004	19.994	103.728	20.032	1.635	0.538
1173.501	671.170	80.004	19.993	103.721	20.032	1.620	0.556
1174.000	671.428	80.004	19.994	103.712	20.033	1.529	0.506
1174.499	671.707	80.006	19.993	103.708	20.030	1.759	0.509
1174.999	671.951	80.005	19.994	103.706	20.031	1.687	0.530
1175.499	672.226	80.004	19.994	103.702	20.032	1.657	0.521
1176.000	672.472	80.005	19.993	103.705	20.030	1.729	0.520
1176.500	672.740	80.005	19.992	103.711	20.033	1.546	0.518
1177.000	673.000	80.004	19.994	103.713	20.029	1.799	0.521
1177.500	673.261	80.005	19.993	103.714	20.031	1.672	0.525
1177.999	673.494	80.004	19.994	103.719	20.029	1.831	0.508
1178.499	673.805	80.004	19.993	103.718	20.026	2.000	0.519
1178.999	674.041	80.004	19.993	103.717	20.030	1.757	0.545
1179.499	674.303	80.003	19.995	103.719	20.027	1.971	0.522
1179.999	674.590	80.004	19.995	103.724	20.029	1.818	0.523
1180.499	674.850	80.004	19.994	103.725	20.030	1.784	0.548
1180.999	675.024	80.004	19.996	103.725	20.029	1.831	0.490
1181.500	675.319	80.004	19.994	103.726	20.032	1.637	0.452
1182.000	675.583	80.004	19.995	103.730	20.032	1.637	0.514
1182.499	675.850	80.005	19.995	103.728	20.030	1.759	0.545
1183.000	676.112	80.004	19.994	103.728	20.032	1.605	0.530
1183.500	676.360	80.004	19.995	103.728	20.032	1.617	0.519
1184.000	676.613	80.005	19.994	103.727	20.032	1.594	0.506
1184.501	676.872	80.004	19.995	103.721	20.032	1.609	0.507
1185.000	677.145	80.005	19.994	103.724	20.033	1.566	0.522
1185.499	677.370	80.004	19.994	103.731	20.035	1.450	0.515
1185.999	677.644	80.005	19.994	103.739	20.032	1.644	0.498
1186.499	678.027	80.005	19.995	103.746	20.030	1.744	0.577
1186.999	678.250	80.005	19.995	103.754	20.033	1.560	0.631
1187.499	678.413	80.005	19.994	103.756	20.030	1.735	0.497
1187.999	678.679	80.006	19.995	103.751	20.030	1.772	0.408
1188.499	678.904	80.007	19.995	103.744	20.033	1.575	0.460
1188.999	679.161	80.006	19.994	103.737	20.030	1.768	0.486
1189.499	679.440	80.006	19.995	103.731	20.030	1.750	0.509
1189.999	679.673	80.006	19.993	103.725	20.029	1.854	0.523
1190.499	679.931	80.007	19.994	103.723	20.028	1.879	0.501
1190.999	680.183	80.006	19.992	103.728	20.025	2.094	0.501
1191.499	680.448	80.005	19.993	103.730	20.030	1.758	0.513
1191.999	680.690	80.008	19.994	103.734	20.030	1.743	0.512
1192.499	680.936	80.006	19.993	103.738	20.028	1.870	0.498
1192.999	681.208	80.006	19.995	103.743	20.029	1.826	0.503
1193.500	681.437	80.007	19.993	103.744	20.031	1.725	0.509
1194.000	681.736	80.008	19.994	103.749	20.031	1.681	0.514
1194.499	681.969	80.006	19.993	103.751	20.031	1.702	0.530
1194.999	682.227	80.007	19.994	103.757	20.030	1.729	0.511
1195.499	682.483	80.008	19.994	103.758	20.029	1.831	0.502
1195.999	682.749	80.007	19.993	103.764	20.028	1.905	0.518
1196.499	683.029	80.006	19.994	103.772	20.031	1.693	0.535
1196.999	683.277	80.008	19.994	103.775	20.031	1.716	0.537
1197.499	683.538	80.007	19.993	103.771	20.029	1.843	0.519
1198.000	683.786	80.008	19.993	103.767	20.029	1.809	0.509
1198.500	684.058	80.006	19.994	103.757	20.031	1.681	0.514
1198.999	684.269	80.007	19.994	103.742	20.025	2.118	0.501
1199.499	684.566	80.006	19.994	103.738	20.028	1.869	0.496
1199.999	684.814	80.006	19.995	103.737	20.031	1.672	0.527
1200.499	685.052	80.008	19.996	103.744	20.028	1.864	0.516
1200.999	685.353	80.008	19.995	103.756	20.033	1.520	0.512
1201.499	685.564	80.008	19.993	103.771	20.031	1.683	0.525
1201.999	685.819	80.006	19.994	103.780	20.030	1.746	0.489
1202.499	686.066	80.007	19.995	103.786	20.031	1.716	0.484
1202.999	686.322	80.008	19.993	103.785	20.035	1.448	0.503
1203.499	686.592	80.006	19.995	103.775	20.033	1.529	0.514
1203.999	686.821	80.006	19.994	103.760	20.034	1.516	0.512
1204.499	687.044	80.007	19.993	103.748	20.034	1.512	0.476
1205.000	687.329	80.007	19.993	103.739	20.030	1.753	0.480
1205.500	687.577	80.006	19.993	103.738	20.030	1.764	0.520
1205.999	687.814	80.006	19.993	103.739	20.030	1.734	0.509
1206.499	688.071	80.007	19.993	103.744	20.030	1.738	0.489
1206.999	688.361	80.006	19.994	103.750	20.032	1.592	0.520
1207.499	688.608	80.008	19.993	103.753	20.031	1.677	0.542
1208.000	688.867	80.006	19.994	103.754	20.031	1.696	0.522
1208.500	689.124	80.007	19.993	103.755	20.033	1.537	0.511
1208.999	689.393	80.007	19.992	103.756	20.032	1.609	0.521
1209.499	689.607	80.006	19.994	103.757	20.033	1.554	0.504
1210.000	689.837	80.007	19.992	103.757	20.033	1.567	0.464
1210.500	690.145	80.006	19.994	103.757	20.033	1.539	0.491
1211.000	690.374	80.005	19.994	103.759	20.033	1.550	0.537
1211.500	690.591	80.006	19.994	103.762	20.036	1.356	0.491
1211.999	690.860	80.006	19.993	103.761	20.031	1.658	0.466
1212.500	691.117	80.007	19.992	103.761	20.032	1.618	0.506
1213.000	691.377	80.006	19.994	103.761	20.031	1.660	0.522
1213.499	691.633	80.006	19.994	103.759	20.031	1.681	0.517
1213.999	691.893	80.006	19.992	103.753	20.030	1.751	0.516
1214.499	692.183	80.006	19.992	103.745	20.029	1.799	0.533
1214.999	692.396	80.007	19.993	103.737	20.030	1.734	0.527
1215.500	692.670	80.007	19.993	103.730	20.029	1.814	0.495
1216.000	692.903	80.008	19.993	103.723	20.032	1.621	0.496
1216.499	693.182	80.008	19.992	103.719	20.032	1.629	0.509
1216.999	693.440	80.007	19.993	103.719	20.029	1.832	0.525
1217.499	693.708	80.007	19.994	103.718	20.032	1.606	0.532
1217.999	693.962	80.006	19.994	103.718	20.030	1.771	0.524
1218.499	694.223	80.007	19.993	103.719	20.032	1.603	0.518
1218.999	694.433	80.006	19.993	103.721	20.031	1.660	0.493
1219.499	694.717	80.007	19.994	103.723	20.031	1.713	0.483
1219.999	694.991	80.006	19.992	103.728	20.031	1.682	0.526
1220.499	695.259	80.006	19.992	103.735	20.035	1.399	0.550
1220.999	695.516	80.007	19.992	103.742	20.028	1.880	0.533
1221.499	695.734	80.006	19.993	103.747	20.031	1.707	0.500
1222.000	695.986	80.008	19.993	103.752	20.030	1.745	0.473
1222.500	696.250	80.007	19.992	103.747	20.031	1.709	0.493
1222.999	696.492	80.005	19.993	103.739	20.032	1.616	0.511
1223.499	696.813	80.007	19.993	103.731	20.031	1.679	0.535
1223.999	697.020	80.006	19.993	103.724	20.033	1.535	0.545
1224.499	697.298	80.007	19.992	103.715	20.033	1.573	0.506
1224.999	697.550	80.006	19.993	103.715	20.033	1.537	0.507
1225.499	697.800	80.004	19.993	103.723	20.032	1.590	0.516
1225.999	698.107	80.005	19.993	103.735	20.035	1.436	0.530
1226.499	698.311	80.006	19.991	103.751	20.033	1.581	0.535
1226.999	698.553	80.004	19.993	103.770	20.035	1.412	0.479
1227.499	698.805	80.004	19.992	103.786	20.035	1.408	0.470
1227.999	699.102	80.006	19.993	103.788	20.032	1.590	0.521
1228.500	699.308	80.005	19.993	103.781	20.032	1.626	0.526
1229.000	699.589	80.006	19.993	103.764	20.033	1.525	0.495
1229.499	699.860	80.004	19.994	103.741	20.032	1.605	0.520
1229.999	700.102	80.006	19.993	103.718	20.033	1.569	0.533
1230.499	700.386	80.005	19.992	103.706	20.032	1.597	0.520
1230.999	700.600	80.004	19.993	103.702	20.033	1.529	0.512
1231.499	700.870	80.005	19.993	103.703	20.033	1.537	0.491
1232.000	701.161	80.004	19.993	103.712	20.033	1.573	0.522
1232.501	701.394	80.005	19.994	103.720	20.033	1.575	0.543
1233.000	701.662	80.005	19.994	103.723	20.031	1.660	0.513
1233.499	701.902	80.006	19.993	103.723	20.030	1.734	0.504
1233.999	702.131	80.006	19.991	103.724	20.036	1.364	0.489
1234.499	702.449	80.005	19.993	103.723	20.033	1.588	0.508
1234.999	702.691	80.005	19.994	103.731	20.034	1.457	0.554
1235.499	702.922	80.005	19.993	103.739	20.033	1.588	0.516
1235.999	703.196	80.006	19.992	103.747	20.035	1.415	0.489
1236.499	703.465	80.005	19.993	103.755	20.034	1.495	0.524
1236.999	703.733	80.005	19.994	103.763	20.032	1.601	0.540
1237.499	704.016	80.005	19.993	103.763	20.034	1.461	0.544
1237.999	704.307	80.005	19.992	103.763	20.030	1.772	0.562
1238.499	704.535	80.006	19.994	103.757	20.032	1.647	0.546
1238.999	704.817	80.006	19.992	103.740	20.031	1.690	0.515
1239.499	705.106	80.005	19.993	103.722	20.031	1.696	0.541
1239.999	705.357	80.006	19.993	103.715	20.032	1.618	0.555
1240.499	705.624	80.005	19.994	103.714	20.034	1.474	0.529
1240.999	705.893	80.007	19.994	103.712	20.034	1.468	0.527
1241.499	706.161	80.005	19.994	103.717	20.034	1.503	0.536
1241.999	706.406	80.006	19.994	103.727	20.036	1.371	0.525
1242.499	706.704	80.007	19.992	103.734	20.032	1.637	0.529
1242.999	706.980	80.006	19.994	103.734	20.034	1.466	0.559
1243.499	707.226	80.006	19.993	103.736	20.033	1.565	0.548
1243.999	707.478	80.006	19.992	103.738	20.031	1.658	0.510
1244.499	707.739	80.006	19.993	103.741	20.034	1.481	0.506
1244.999	708.047	80.007	19.993	103.741	20.034	1.466	0.541
1245.499	708.276	80.007	19.994	103.738	20.034	1.506	0.553
1245.999	708.572	80.006	19.993	103.741	20.034	1.458	0.531
1246.499	708.810	80.005	19.993	103.749	20.034	1.485	0.530
1246.999	709.052	80.005	19.993	103.751	20.034	1.487	0.507
1247.500	709.337	80.004	19.993	103.749	20.033	1.544	0.503
1248.001	709.590	80.005	19.994	103.745	20.033	1.567	0.532
1248.500	709.860	80.004	19.995	103.740	20.036	1.326	0.530
1249.000	710.126	80.006	19.993	103.732	20.032	1.595	0.530
1249.500	710.372	80.006	19.994	103.729	20.032	1.609	0.525
1249.999	710.668	80.006	19.994	103.728	20.032	1.647	0.527
1250.499	710.916	80.006	19.995	103.732	20.034	1.504	0.543
1250.999	711.186	80.005	19.994	103.740	20.032	1.618	0.531
1251.499	711.425	80.006	19.995	103.748	20.033	1.538	0.514
1251.999	711.703	80.006	19.995	103.746	20.032	1.618	0.513
1252.499	711.951	80.006	19.993	103.740	20.034	1.480	0.521
1252.999	712.203	80.006	19.994	103.732	20.037	1.301	0.513
1253.499	712.425	80.006	19.994	103.723	20.036	1.324	0.487
1253.999	712.732	80.005	19.994	103.715	20.034	1.472	0.501
1254.499	712.967	80.006	19.994	103.714	20.034	1.506	0.535
1254.999	713.283	80.004	19.994	103.715	20.038	1.239	0.546
1255.499	713.521	80.006	19.993	103.712	20.039	1.168	0.553
1255.999	713.784	80.005	19.995	103.708	20.037	1.288	0.528
1256.499	714.023	80.005	19.994	103.701	20.035	1.421	0.501
1256.999	714.308	80.004	19.995	103.694	20.038	1.212	0.513
1257.499	714.580	80.004	19.994	103.689	20.034	1.453	0.540
1257.999	714.819	80.006	19.994	103.693	20.035	1.402	0.534
1258.499	715.026	80.006	19.994	103.698	20.032	1.605	0.479
1258.999	715.305	80.004	19.995	103.708	20.034	1.502	0.465
1259.500	715.583	80.006	19.993	103.718	20.036	1.341	0.521
1260.000	715.817	80.005	19.995	103.731	20.031	1.706	0.535
1260.499	716.077	80.006	19.998	103.736	20.032	1.643	0.503
1260.999	716.331	80.005	19.995	103.738	20.032	1.624	0.504
1261.499	716.565	80.005	19.995	103.738	20.033	1.558	0.501
1261.999	716.799	80.005	19.996	103.733	20.029	1.820	0.478
1262.499	717.074	80.006	19.994	103.728	20.028	1.915	0.488
1262.999	717.341	80.005	19.995	103.724	20.032	1.640	0.526
1263.500	717.549	80.006	19.994	103.728	20.031	1.683	0.509
1264.000	717.781	80.004	19.994	103.734	20.033	1.537	0.458
1264.499	718.082	80.006	19.995	103.738	20.031	1.709	0.487
1264.999	718.321	80.007	19.994	103.737	20.032	1.628	0.537
1265.499	718.563	80.006	19.994	103.739	20.031	1.688	0.510
1265.999	718.802	80.006	19.995	103.740	20.030	1.764	0.480
1266.499	719.081	80.006	19.995	103.738	20.030	1.736	0.500
1266.999	719.321	80.007	19.994	103.740	20.030	1.768	0.519
1267.499	719.582	80.008	19.995	103.739	20.032	1.649	0.510
1268.000	719.823	80.006	19.994	103.736	20.032	1.639	0.501
1268.500	720.085	80.006	19.995	103.732	20.031	1.692	0.502
1268.999	720.333	80.006	19.994	103.725	20.032	1.633	0.506
1269.499	720.598	80.007	19.994	103.721	20.034	1.466	0.512
1269.999	720.828	80.006	19.994	103.728	20.035	1.449	0.504
1270.500	721.053	80.006	19.995	103.735	20.036	1.375	0.475
1271.001	721.315	80.008	19.994	103.741	20.039	1.168	0.471
1271.500	721.506	80.006	19.994	103.748	20.038	1.229	0.470
1271.999	721.801	80.006	19.993	103.755	20.037	1.257	0.469
1272.499	722.022	80.007	19.993	103.757	20.036	1.314	0.501
1272.999	722.249	80.007	19.993	103.763	20.034	1.518	0.482
1273.499	722.497	80.006	19.993	103.764	20.036	1.356	0.462
1273.999	722.730	80.007	19.994	103.759	20.039	1.170	0.478
1274.500	722.968	80.007	19.993	103.747	20.035	1.396	0.476
1275.000	723.174	80.007	19.994	103.733	20.035	1.430	0.458
1275.499	723.407	80.007	19.993	103.718	20.036	1.330	0.442
1275.999	723.631	80.006	19.995	103.714	20.036	1.330	0.448
1276.499	723.890	80.006	19.995	103.718	20.038	1.242	0.470
1276.999	724.119	80.007	19.993	103.728	20.034	1.506	0.485
1277.499	724.348	80.006	19.994	103.732	20.036	1.339	0.473
1277.999	724.603	80.008	19.994	103.734	20.036	1.320	0.471
1278.499	724.827	80.006	19.993	103.735	20.036	1.360	0.481
1278.999	725.077	80.006	19.994	103.728	20.039	1.176	0.476
1279.499	725.293	80.004	19.995	103.723	20.036	1.314	0.470
1279.999	725.535	80.005	19.994	103.725	20.036	1.330	0.462
1280.499	725.774	80.006	19.995	103.732	20.038	1.206	0.469
1280.999	726.011	80.005	19.994	103.733	20.036	1.324	0.478
1281.499	726.286	80.005	19.994	103.733	20.037	1.284	0.494
1281.999	726.511	80.005	19.994	103.733	20.037	1.247	0.506
1282.499	726.738	80.005	19.995	103.734	20.036	1.377	0.476
1283.000	726.961	80.007	19.993	103.734	20.036	1.375	0.452
1283.500	727.224	80.005	19.994	103.731	20.034	1.487	0.468
1283.999	727.477	80.008	19.993	103.732	20.033	1.542	0.501
1284.500	727.725	80.005	19.994	103.739	20.031	1.677	0.508
1285.000	727.984	80.006	19.993	103.744	20.032	1.621	0.504
1285.499	728.225	80.006	19.994	103.745	20.037	1.301	0.503
1285.999	728.443	80.006	19.994	103.747	20.033	1.545	0.480
1286.500	728.665	80.005	19.994	103.746	20.034	1.494	0.450
1287.000	728.909	80.006	19.994	103.738	20.033	1.583	0.453
1287.499	729.154	80.007	19.993	103.731	20.035	1.408	0.477
1287.999	729.375	80.008	19.993	103.723	20.034	1.476	0.478
1288.500	729.648	80.006	19.994	103.719	20.033	1.535	0.480
1289.000	729.880	80.006	19.994	103.722	20.034	1.476	0.499
1289.499	730.111	80.007	19.993	103.731	20.034	1.462	0.484
1289.999	730.336	80.006	19.994	103.733	20.032	1.611	0.460
1290.499	730.592	80.007	19.994	103.733	20.031	1.673	0.468
1290.999	730.844	80.006	19.993	103.731	20.031	1.702	0.494
1291.499	731.108	80.006	19.992	103.722	20.031	1.685	0.512
1291.999	731.354	80.006	19.992	103.707	20.033	1.563	0.514
1292.499	731.586	80.006	19.993	103.696	20.034	1.472	0.494
1292.999	731.843	80.006	19.993	103.693	20.034	1.501	0.483
1293.499	732.095	80.008	19.993	103.693	20.030	1.736	0.499
1293.999	732.320	80.007	19.993	103.700	20.035	1.431	0.493
1294.499	732.607	80.008	19.993	103.715	20.032	1.605	0.495
1294.999	732.837	80.008	19.993	103.730	20.034	1.478	0.515
1295.500	733.086	80.006	19.993	103.742	20.031	1.723	0.498
1296.000	733.327	80.007	19.993	103.753	20.031	1.677	0.484
1296.499	733.576	80.007	19.993	103.761	20.032	1.641	0.490
1296.999	733.809	80.008	19.992	103.767	20.032	1.628	0.486
1297.499	734.043	80.009	19.992	103.774	20.033	1.525	0.474
1297.999	734.293	80.008	19.992	103.771	20.032	1.628	0.475
1298.499	734.496	80.008	19.992	103.763	20.031	1.696	0.469
1298.999	734.729	80.007	19.992	103.757	20.030	1.776	0.445
1299.499	734.986	80.008	19.992	103.745	20.030	1.730	0.463
1299.999	735.216	80.007	19.992	103.731	20.033	1.542	0.489
1300.499	735.479	80.008	19.992	103.726	20.035	1.400	0.490
1300.999	735.712	80.008	19.993	103.724	20.033	1.555	0.494
1301.499	735.978	80.007	19.992	103.720	20.033	1.546	0.498
1301.999	736.223	80.007	19.992	103.719	20.036	1.381	0.506
1302.499	736.458	80.006	19.993	103.721	20.035	1.413	0.495
1302.999	736.728	80.006	19.992	103.727	20.036	1.327	0.492
1303.499	736.940	80.007	19.992	103.735	20.036	1.341	0.493
1303.999	737.198	80.007	19.992	103.742	20.036	1.339	0.476
1304.499	737.417	80.006	19.993	103.751	20.037	1.307	0.474
1304.999	737.661	80.007	19.992	103.756	20.039	1.126	0.471
1305.499	737.911	80.005	19.993	103.757	20.036	1.348	0.479
1305.999	738.146	80.007	19.992	103.755	20.036	1.341	0.489
1306.499	738.402	80.007	19.992	103.754	20.033	1.567	0.488
1306.999	738.654	80.005	19.992	103.748	20.035	1.400	0.500
1307.500	738.903	80.006	19.993	103.740	20.037	1.313	0.505
1308.000	739.156	80.005	19.994	103.733	20.038	1.187	0.501
1308.499	739.361	80.005	19.995	103.727	20.037	1.277	0.480
1308.999	739.626	80.006	19.995	103.722	20.035	1.442	0.464
1309.500	739.845	80.005	19.993	103.728	20.034	1.480	0.477
1310.001	740.055	80.006	19.994	103.734	20.038	1.216	0.457
1310.500	740.330	80.006	19.993	103.735	20.037	1.301	0.457
1310.999	740.574	80.006	19.994	103.735	20.038	1.180	0.502
1311.499	740.843	80.005	19.992	103.731	20.035	1.447	0.516
1311.999	741.085	80.005	19.993	103.716	20.033	1.552	0.511
1312.499	741.319	80.006	19.994	103.707	20.035	1.394	0.493
1312.999	741.556	80.006	19.993	103.705	20.035	1.442	0.473
1313.499	741.774	80.005	19.994	103.702	20.034	1.453	0.463
1313.999	742.054	80.005	19.994	103.699	20.032	1.653	0.477
1314.499	742.312	80.005	19.992	103.705	20.032	1.626	0.518
1314.999	742.540	80.006	19.993	103.707	20.032	1.615	0.512
1315.499	742.782	80.006	19.992	103.709	20.034	1.470	0.478
1315.999	743.025	80.006	19.993	103.715	20.032	1.603	0.477
1316.499	743.278	80.006	19.993	103.723	20.033	1.584	0.491
1317.000	743.539	80.006	19.993	103.727	20.033	1.582	0.506
