Sample ID:	C:\MCC\MCC Cal\Test\Straw_MCC_30K_220317_R2.txt
Sample Weight (mg):	4.59
Heating Rate (C/s):	0.5
Combustor Temp (C):	900
N2 Flow Rate (cc/min):	80
O2 Flow Rate (cc/min):	20
Calibration File:	C:\MCC\MCC Cal\Coeff1 JN10440_30_210304.txt.txt
T Correction Coefficients:	0	1.024463	0
Time Shift (s):	14
*
Time (s)	Temperature (C)	N2 flow rate (cc/min)	O2 flow rate (cc/min)	Flow Rate (cc/min)	Oxygen (%)	HRR (W/g)	Heating rate (C/s)
0.000	107.991	80.009	19.992	103.600	20.024	-0.064	0.031
0.499	107.979	80.002	19.992	103.601	20.023	-0.041	0.037
1.000	107.999	79.993	19.997	103.607	20.021	0.100	0.022
1.500	108.057	80.004	19.993	103.604	20.023	-0.041	0.043
2.000	107.996	79.993	19.995	103.607	20.024	-0.063	0.037
2.500	108.063	80.005	19.994	103.611	20.022	0.063	0.001
3.000	108.041	80.001	19.995	103.613	20.024	-0.115	0.025
3.500	108.079	80.013	19.991	103.614	20.023	-0.047	0.030
4.000	108.085	80.003	19.994	103.632	20.023	-0.016	0.030
4.500	108.073	80.001	19.994	103.639	20.022	0.078	0.019
5.000	108.076	79.984	19.996	103.646	20.021	0.115	-0.007
5.500	108.096	79.980	19.997	103.647	20.022	0.053	0.007
6.000	108.164	80.010	19.992	103.645	20.024	-0.090	0.055
6.500	108.130	79.997	19.995	103.644	20.024	-0.102	0.061
7.000	108.122	79.976	19.996	103.644	20.020	0.197	-0.004
7.500	108.164	80.003	19.994	103.645	20.025	-0.131	-0.004
8.000	108.161	79.998	19.997	103.648	20.022	0.055	0.036
8.500	108.173	79.999	19.994	103.648	20.021	0.133	0.024
9.000	108.165	79.992	19.995	103.646	20.021	0.127	0.006
9.499	108.195	79.989	19.995	103.646	20.018	0.321	0.013
9.999	108.246	80.015	19.993	103.649	20.020	0.219	0.052
10.499	108.252	80.006	19.993	103.656	20.017	0.375	0.069
10.999	108.265	80.005	19.995	103.668	20.021	0.147	0.038
11.499	108.287	80.006	19.992	103.673	20.018	0.307	0.027
11.999	108.293	79.988	19.996	103.685	20.019	0.229	0.031
12.499	108.292	80.003	19.994	103.690	20.016	0.455	0.017
12.999	108.296	80.005	19.994	103.691	20.020	0.192	0.004
13.499	108.343	80.002	19.995	103.693	20.016	0.448	0.027
13.999	108.347	80.010	19.992	103.697	20.015	0.549	0.051
14.499	108.364	79.998	19.996	103.700	20.018	0.301	0.036
14.999	108.348	80.000	19.996	103.701	20.016	0.463	0.011
15.499	108.425	80.003	19.994	103.701	20.017	0.412	0.031
15.999	108.405	79.991	19.994	103.703	20.018	0.336	0.059
16.499	108.402	79.997	19.994	103.706	20.017	0.434	0.017
16.999	108.420	80.003	19.996	103.707	20.016	0.493	-0.004
17.499	108.473	80.003	19.998	103.715	20.016	0.450	0.043
17.999	108.467	80.001	19.999	103.717	20.015	0.573	0.059
18.499	108.478	79.998	19.996	103.716	20.018	0.344	0.026
18.999	108.543	80.004	19.995	103.718	20.016	0.496	0.040
19.499	108.530	79.990	19.996	103.720	20.010	0.870	0.064
19.999	108.567	79.989	19.997	103.721	20.014	0.631	0.038
20.499	108.553	79.999	19.995	103.724	20.013	0.653	0.024
20.999	108.618	80.006	19.993	103.736	20.014	0.627	0.037
21.500	108.637	80.015	19.996	103.729	20.016	0.485	0.068
22.000	108.676	80.011	19.994	103.723	20.018	0.338	0.071
22.499	108.651	79.990	19.997	103.719	20.017	0.389	0.036
22.999	108.668	79.997	19.996	103.711	20.019	0.283	0.003
23.499	108.750	80.007	19.992	103.696	20.013	0.665	0.046
23.999	108.726	79.994	19.993	103.698	20.015	0.526	0.079
24.499	108.770	79.985	19.996	103.697	20.014	0.583	0.039
24.999	108.834	80.013	19.991	103.690	20.017	0.428	0.064
25.500	108.808	80.004	19.994	103.699	20.012	0.766	0.073
26.000	108.832	79.994	19.995	103.701	20.017	0.401	0.019
26.499	108.878	80.008	19.993	103.697	20.017	0.372	0.034
26.999	108.918	80.007	19.994	103.696	20.017	0.403	0.078
27.499	108.917	80.002	19.993	103.701	20.016	0.485	0.063
27.999	108.932	79.992	19.995	103.699	20.016	0.460	0.027
28.499	108.984	80.010	19.991	103.697	20.014	0.589	0.040
28.999	109.002	79.999	19.995	103.702	20.018	0.340	0.069
29.499	109.077	79.990	19.994	103.699	20.015	0.509	0.082
29.999	109.082	80.004	19.993	103.699	20.016	0.456	0.086
30.500	109.136	80.009	19.994	103.699	20.013	0.679	0.070
31.000	109.104	79.993	19.997	103.702	20.013	0.665	0.041
31.500	109.193	80.003	19.994	103.694	20.015	0.509	0.039
32.000	109.190	79.999	19.995	103.694	20.015	0.534	0.071
32.499	109.208	80.010	19.995	103.693	20.017	0.401	0.050
32.999	109.193	80.010	19.995	103.690	20.020	0.184	0.009
33.499	109.222	79.987	19.996	103.687	20.020	0.155	0.009
34.000	109.262	79.997	19.994	103.691	20.014	0.626	0.042
34.500	109.320	79.991	19.995	103.695	20.010	0.888	0.084
34.999	109.329	79.996	19.994	103.701	20.014	0.626	0.083
35.499	109.367	79.998	19.997	103.708	20.016	0.452	0.057
35.999	109.419	80.009	19.997	103.718	20.013	0.689	0.068
36.499	109.397	80.002	19.996	103.726	20.015	0.515	0.060
36.999	109.476	80.011	19.995	103.731	20.012	0.726	0.044
37.499	109.500	80.000	19.993	103.735	20.011	0.816	0.080
37.999	109.514	79.989	19.996	103.741	20.009	0.996	0.070
38.499	109.551	80.005	19.993	103.747	20.009	0.990	0.044
38.999	109.586	79.996	19.994	103.758	20.009	0.945	0.062
39.499	109.635	79.989	19.994	103.768	20.009	0.967	0.079
39.999	109.663	79.996	19.996	103.781	20.010	0.869	0.080
40.499	109.710	79.995	19.996	103.789	20.005	1.243	0.076
41.000	109.762	80.000	19.997	103.796	20.005	1.256	0.088
41.500	109.763	80.000	19.996	103.795	20.008	1.059	0.076
42.000	109.827	80.002	19.993	103.796	20.006	1.178	0.058
42.501	109.839	80.003	19.993	103.801	20.001	1.523	0.070
43.001	109.936	80.005	19.994	103.804	20.000	1.599	0.093
43.500	109.950	79.991	19.996	103.806	20.001	1.503	0.110
43.999	110.000	79.994	19.995	103.809	19.998	1.709	0.088
44.499	110.047	79.991	19.995	103.813	19.999	1.652	0.081
44.999	110.102	79.993	19.995	103.809	20.001	1.523	0.099
45.499	110.168	80.004	19.993	103.809	19.997	1.799	0.111
45.999	110.228	79.987	19.995	103.810	19.996	1.852	0.123
46.500	110.265	80.007	19.993	103.812	19.999	1.693	0.111
47.001	110.364	80.002	19.994	103.816	19.997	1.783	0.117
47.500	110.434	80.002	19.993	103.820	19.995	1.981	0.153
47.999	110.446	79.995	19.996	103.819	19.994	2.008	0.126
48.499	110.544	79.990	19.996	103.817	19.993	2.122	0.096
48.999	110.617	79.994	19.996	103.819	19.993	2.073	0.141
49.499	110.672	79.996	19.995	103.817	19.993	2.089	0.149
49.999	110.736	79.994	19.994	103.820	19.989	2.372	0.123
50.499	110.824	80.010	19.993	103.823	19.991	2.232	0.135
50.999	110.898	79.991	19.997	103.831	19.994	2.009	0.157
51.499	110.952	79.998	19.994	103.829	19.993	2.069	0.145
51.999	111.068	80.015	19.993	103.833	19.989	2.345	0.149
52.499	111.136	80.009	19.995	103.838	19.990	2.326	0.177
52.999	111.230	79.997	19.994	103.836	19.990	2.308	0.174
53.499	111.333	79.999	19.994	103.835	19.987	2.502	0.180
53.999	111.389	79.996	19.993	103.839	19.987	2.483	0.178
54.500	111.461	79.996	19.994	103.841	19.988	2.450	0.144
55.000	111.526	79.997	19.996	103.839	19.988	2.465	0.132
55.499	111.648	80.000	19.994	103.841	19.986	2.593	0.162
55.999	111.707	79.997	19.993	103.842	19.987	2.495	0.184
56.499	111.762	79.988	19.996	103.845	19.985	2.673	0.148
56.999	111.867	79.998	19.994	103.842	19.984	2.716	0.137
57.499	111.985	79.989	19.993	103.843	19.988	2.412	0.191
57.999	112.032	79.984	19.996	103.846	19.987	2.487	0.194
58.499	112.181	80.007	19.993	103.842	19.985	2.669	0.181
58.999	112.288	80.013	19.994	103.842	19.987	2.506	0.226
59.499	112.378	79.992	19.994	103.844	19.986	2.612	0.226
59.999	112.472	80.001	19.993	103.845	19.984	2.763	0.191
60.500	112.568	80.012	19.992	103.847	19.983	2.773	0.187
61.000	112.661	79.997	19.994	103.853	19.983	2.784	0.190
61.499	112.779	79.993	19.994	103.855	19.981	2.939	0.200
61.999	112.861	80.014	19.995	103.860	19.982	2.837	0.205
62.500	113.006	80.002	19.994	103.863	19.980	3.000	0.213
63.000	113.076	79.998	19.995	103.867	19.983	2.771	0.221
63.499	113.224	79.989	19.995	103.870	19.981	2.908	0.217
64.000	113.306	80.004	19.994	103.876	19.980	2.980	0.224
64.500	113.425	80.000	19.995	103.877	19.981	2.920	0.216
64.999	113.561	80.008	19.995	103.881	19.983	2.804	0.228
65.499	113.695	80.000	19.993	103.883	19.979	3.049	0.262
65.999	113.741	79.993	19.996	103.889	19.982	2.865	0.225
66.499	113.904	80.000	19.994	103.889	19.980	2.990	0.195
66.999	114.008	80.004	19.996	103.892	19.983	2.830	0.238
67.499	114.102	79.985	19.996	103.893	19.980	3.002	0.232
67.999	114.279	80.000	19.995	103.888	19.981	2.961	0.234
68.499	114.421	80.001	19.995	103.884	19.979	3.071	0.295
68.999	114.517	79.986	19.995	103.885	19.982	2.877	0.278
69.499	114.632	79.988	19.998	103.886	19.980	3.016	0.225
69.999	114.791	79.990	19.995	103.882	19.975	3.343	0.243
70.499	114.951	79.996	19.994	103.887	19.979	3.067	0.296
70.999	115.007	79.978	19.997	103.888	19.976	3.292	0.268
71.499	115.183	80.000	19.993	103.883	19.977	3.241	0.224
71.999	115.342	80.009	19.994	103.881	19.978	3.126	0.283
72.500	115.482	79.987	19.995	103.885	19.977	3.245	0.317
73.001	115.605	79.999	19.994	103.884	19.978	3.131	0.281
73.500	115.705	79.993	19.995	103.884	19.978	3.143	0.243
73.999	115.879	79.994	19.994	103.887	19.980	3.045	0.248
74.499	116.022	79.999	19.993	103.887	19.974	3.404	0.296
74.999	116.157	79.997	19.994	103.888	19.978	3.176	0.297
75.499	116.315	80.012	19.992	103.887	19.977	3.215	0.285
76.000	116.406	79.997	19.994	103.889	19.976	3.298	0.271
76.500	116.615	79.999	19.994	103.890	19.979	3.061	0.274
76.999	116.785	80.005	19.992	103.890	19.977	3.194	0.339
77.500	116.929	80.004	19.994	103.893	19.977	3.258	0.346
78.001	117.042	80.010	19.992	103.893	19.976	3.292	0.286
78.501	117.204	80.016	19.991	103.893	19.978	3.178	0.267
79.000	117.367	80.014	19.992	103.898	19.978	3.160	0.301
79.499	117.508	80.007	19.991	103.900	19.981	2.933	0.314
79.999	117.673	80.006	19.993	103.903	19.981	2.937	0.304
80.500	117.867	80.011	19.992	103.911	19.980	3.033	0.332
81.000	117.971	80.011	19.993	103.913	19.979	3.096	0.329
81.499	118.115	80.000	19.993	103.910	19.981	2.969	0.273
81.999	118.320	80.001	19.993	103.909	19.979	3.079	0.299
82.499	118.483	80.001	19.994	103.906	19.981	2.908	0.359
82.999	118.673	80.010	19.991	103.902	19.979	3.096	0.360
83.499	118.826	80.001	19.995	103.903	19.976	3.298	0.348
83.999	118.987	80.006	19.996	103.900	19.978	3.141	0.328
84.499	119.176	80.006	19.991	103.896	19.978	3.159	0.332
85.000	119.332	80.007	19.992	103.897	19.980	3.016	0.348
85.500	119.475	79.986	19.996	103.899	19.982	2.902	0.322
86.000	119.652	80.003	19.993	103.888	19.983	2.777	0.310
86.500	119.816	80.000	19.993	103.892	19.979	3.112	0.330
86.999	119.993	80.007	19.993	103.895	19.982	2.898	0.341
87.499	120.211	80.000	19.994	103.891	19.979	3.110	0.368
88.000	120.362	80.002	19.995	103.887	19.978	3.151	0.382
88.501	120.528	79.996	19.995	103.891	19.980	2.994	0.343
89.000	120.724	79.999	19.996	103.889	19.982	2.840	0.340
89.499	120.921	79.991	19.998	103.887	19.980	3.018	0.378
89.999	121.054	80.000	19.996	103.885	19.978	3.144	0.362
90.499	121.270	80.001	19.993	103.886	19.980	3.022	0.340
90.999	121.475	80.002	19.994	103.888	19.980	3.036	0.385
91.500	121.649	79.989	19.997	103.891	19.978	3.184	0.400
92.000	121.830	79.993	19.996	103.892	19.976	3.276	0.367
92.500	122.002	79.991	19.996	103.898	19.977	3.196	0.355
93.000	122.200	79.995	19.995	103.898	19.975	3.364	0.362
93.499	122.411	80.001	19.994	103.896	19.976	3.280	0.389
93.999	122.576	79.999	19.994	103.896	19.979	3.100	0.392
94.499	122.784	79.998	19.995	103.897	19.977	3.214	0.374
94.999	122.927	79.988	19.994	103.894	19.977	3.257	0.362
95.499	123.133	80.008	19.996	103.894	19.979	3.114	0.350
95.999	123.359	79.993	19.996	103.901	19.978	3.186	0.390
96.499	123.556	80.010	19.995	103.901	19.976	3.272	0.428
96.999	123.704	79.995	19.995	103.903	19.975	3.360	0.384
97.500	123.896	79.996	19.996	103.901	19.977	3.202	0.342
98.000	124.125	79.998	19.996	103.901	19.976	3.282	0.381
98.499	124.287	79.999	19.995	103.895	19.976	3.296	0.406
98.999	124.496	80.001	19.995	103.896	19.974	3.435	0.381
99.499	124.714	80.011	19.994	103.901	19.979	3.094	0.399
99.999	124.883	80.006	19.995	103.910	19.981	2.972	0.407
100.499	125.108	79.995	19.998	103.914	19.982	2.894	0.391
100.999	125.311	80.003	19.995	103.912	19.981	2.949	0.412
101.499	125.474	79.991	19.997	103.910	19.981	2.976	0.397
102.000	125.675	80.010	19.992	103.901	19.978	3.129	0.365
102.500	125.877	79.992	19.996	103.895	19.978	3.153	0.384
102.999	126.086	79.997	19.994	103.891	19.980	3.039	0.407
103.499	126.255	79.989	19.995	103.892	19.980	3.025	0.395
103.999	126.489	80.000	19.996	103.891	19.980	3.025	0.391
104.499	126.692	80.005	19.993	103.895	19.980	3.004	0.420
104.999	126.916	79.996	19.995	103.894	19.981	2.914	0.432
105.499	127.079	79.993	19.995	103.895	19.974	3.411	0.407
106.000	127.283	79.986	19.996	103.893	19.973	3.521	0.377
106.500	127.512	80.002	19.995	103.890	19.975	3.331	0.400
106.999	127.700	79.995	19.995	103.889	19.974	3.419	0.425
107.499	127.868	79.996	19.995	103.886	19.977	3.247	0.386
107.999	128.108	79.998	19.994	103.885	19.978	3.151	0.382
108.500	128.316	80.006	19.995	103.886	19.975	3.395	0.428
109.000	128.531	79.995	19.995	103.887	19.977	3.213	0.435
109.499	128.736	79.992	19.995	103.886	19.978	3.151	0.422
109.999	128.980	80.002	19.994	103.885	19.978	3.186	0.435
110.499	129.131	79.996	19.994	103.887	19.975	3.341	0.422
110.999	129.387	80.000	19.994	103.887	19.973	3.495	0.401
111.499	129.581	79.997	19.994	103.889	19.976	3.278	0.428
112.000	129.793	80.003	19.994	103.890	19.974	3.415	0.428
112.500	130.016	79.999	19.995	103.891	19.972	3.578	0.420
112.999	130.209	79.982	19.995	103.888	19.973	3.490	0.426
113.499	130.428	79.996	19.996	103.886	19.976	3.292	0.414
113.999	130.647	80.001	19.995	103.882	19.976	3.329	0.425
114.499	130.845	79.998	19.994	103.881	19.976	3.268	0.428
115.000	131.084	80.002	19.995	103.882	19.975	3.360	0.427
115.500	131.286	80.006	19.995	103.884	19.976	3.264	0.439
115.999	131.521	80.002	19.995	103.886	19.977	3.229	0.439
116.499	131.709	80.001	19.996	103.888	19.978	3.125	0.430
116.999	131.966	80.016	19.995	103.889	19.976	3.286	0.434
117.499	132.137	79.995	19.995	103.890	19.977	3.223	0.436
117.999	132.391	80.004	19.995	103.890	19.975	3.380	0.426
118.499	132.642	80.001	19.994	103.889	19.974	3.462	0.465
118.999	132.792	80.001	19.995	103.889	19.973	3.537	0.454
119.499	133.022	80.000	19.995	103.889	19.975	3.378	0.391
119.999	133.238	79.998	19.996	103.888	19.973	3.531	0.413
120.499	133.444	79.998	19.997	103.887	19.974	3.404	0.434
120.999	133.650	79.999	19.996	103.888	19.976	3.315	0.417
121.499	133.918	79.997	19.996	103.888	19.976	3.294	0.443
121.999	134.135	80.000	19.996	103.893	19.974	3.401	0.480
122.499	134.333	79.999	19.996	103.895	19.971	3.621	0.450
122.999	134.530	79.998	19.996	103.894	19.977	3.231	0.404
123.499	134.771	79.999	19.995	103.895	19.977	3.225	0.416
123.999	134.994	80.001	19.996	103.897	19.976	3.264	0.451
124.499	135.242	80.003	19.995	103.892	19.973	3.501	0.468
124.999	135.446	80.006	19.996	103.892	19.976	3.313	0.462
125.499	135.666	80.000	20.000	103.896	19.975	3.362	0.438
125.999	135.895	79.999	19.999	103.895	19.976	3.260	0.436
126.499	136.071	79.993	19.998	103.893	19.977	3.201	0.427
126.999	136.339	80.000	19.997	103.891	19.978	3.121	0.425
127.499	136.526	79.995	19.997	103.891	19.975	3.358	0.450
127.999	136.796	79.997	19.996	103.886	19.976	3.317	0.456
128.500	137.049	80.001	19.996	103.886	19.974	3.429	0.490
129.000	137.262	80.020	19.994	103.887	19.975	3.386	0.495
129.500	137.514	80.007	19.997	103.891	19.974	3.452	0.465
130.000	137.698	80.000	19.996	103.894	19.976	3.278	0.450
130.500	137.979	80.007	19.995	103.897	19.976	3.278	0.451
131.000	138.179	79.998	19.996	103.898	19.975	3.372	0.473
131.500	138.408	80.019	19.995	103.898	19.978	3.153	0.455
132.000	138.631	79.997	19.994	103.897	19.976	3.307	0.440
132.500	138.847	79.997	19.997	103.894	19.977	3.211	0.446
133.000	139.078	79.999	19.998	103.891	19.977	3.235	0.443
133.500	139.335	80.004	19.996	103.888	19.975	3.348	0.467
134.000	139.542	79.999	19.995	103.890	19.976	3.276	0.475
134.500	139.787	80.002	19.995	103.890	19.976	3.323	0.458
135.000	140.033	80.001	19.995	103.889	19.974	3.448	0.472
135.500	140.264	79.998	19.996	103.890	19.978	3.139	0.484
136.000	140.473	79.993	19.997	103.891	19.977	3.210	0.458
136.500	140.731	79.994	19.996	103.885	19.975	3.390	0.453
137.000	140.995	80.000	19.995	103.882	19.977	3.192	0.495
137.500	141.196	79.992	19.995	103.882	19.976	3.298	0.493
138.000	141.453	80.007	19.995	103.880	19.972	3.546	0.461
138.500	141.674	80.018	19.993	103.882	19.973	3.474	0.468
139.000	141.921	80.003	19.995	103.885	19.975	3.362	0.473
139.500	142.130	80.005	19.994	103.886	19.975	3.351	0.463
140.000	142.375	80.000	19.995	103.887	19.973	3.519	0.455
140.500	142.605	80.001	19.994	103.888	19.974	3.470	0.464
141.000	142.868	80.002	19.994	103.888	19.974	3.466	0.484
141.500	143.074	79.999	19.995	103.888	19.974	3.468	0.481
142.000	143.334	80.004	19.994	103.887	19.971	3.654	0.468
142.500	143.575	80.002	19.995	103.887	19.974	3.441	0.484
143.000	143.829	80.001	19.995	103.888	19.977	3.210	0.498
143.500	144.077	79.999	19.994	103.887	19.972	3.566	0.499
144.000	144.345	80.001	19.995	103.887	19.974	3.417	0.509
144.500	144.553	80.002	19.993	103.888	19.973	3.525	0.496
145.000	144.783	79.998	19.995	103.891	19.976	3.278	0.457
145.500	145.037	80.001	19.996	103.893	19.976	3.313	0.461
146.000	145.257	80.000	19.995	103.893	19.977	3.245	0.479
146.500	145.518	79.999	19.996	103.894	19.976	3.315	0.477
147.000	145.763	80.001	19.995	103.893	19.977	3.237	0.494
147.500	146.011	80.000	19.995	103.891	19.975	3.370	0.500
148.000	146.260	80.003	19.997	103.890	19.974	3.460	0.495
148.500	146.475	80.000	19.996	103.891	19.975	3.341	0.481
149.000	146.722	80.007	19.996	103.891	19.975	3.331	0.463
149.500	146.968	80.003	19.995	103.891	19.976	3.268	0.477
150.000	147.228	80.002	19.994	103.891	19.977	3.249	0.500
150.500	147.424	80.002	19.994	103.892	19.973	3.521	0.481
151.000	147.675	80.000	19.994	103.891	19.974	3.415	0.451
151.500	147.922	79.998	19.996	103.891	19.975	3.356	0.472
152.000	148.176	80.001	19.995	103.890	19.972	3.593	0.500
152.500	148.367	80.004	19.994	103.889	19.974	3.439	0.473
153.000	148.678	80.002	19.993	103.890	19.976	3.300	0.473
153.500	148.884	79.999	19.996	103.891	19.973	3.472	0.509
154.000	149.160	79.999	19.995	103.891	19.973	3.478	0.500
154.500	149.373	80.000	19.994	103.890	19.976	3.305	0.485
155.000	149.633	80.001	19.994	103.891	19.976	3.272	0.481
155.500	149.900	80.001	19.997	103.889	19.975	3.345	0.500
156.000	150.115	80.002	19.996	103.889	19.975	3.364	0.505
156.500	150.353	80.002	19.996	103.888	19.974	3.409	0.468
157.000	150.617	80.000	19.996	103.889	19.977	3.229	0.477
157.500	150.830	80.001	19.994	103.888	19.976	3.301	0.489
158.000	151.111	80.000	19.994	103.888	19.979	3.090	0.485
158.500	151.330	80.002	19.995	103.888	19.977	3.192	0.497
159.000	151.570	80.003	19.994	103.889	19.976	3.301	0.479
159.500	151.810	80.000	19.995	103.889	19.975	3.391	0.470
160.000	152.120	80.002	19.994	103.888	19.977	3.223	0.515
160.500	152.335	80.002	19.993	103.889	19.980	3.011	0.537
161.000	152.594	80.006	19.993	103.889	19.977	3.244	0.499
161.500	152.830	80.009	19.994	103.889	19.977	3.227	0.484
162.000	153.043	80.001	19.995	103.891	19.978	3.147	0.472
162.500	153.302	79.999	19.994	103.891	19.978	3.149	0.460
163.000	153.558	79.999	19.994	103.890	19.981	2.967	0.493
163.500	153.797	80.004	19.994	103.890	19.977	3.203	0.505
164.000	154.033	80.009	19.993	103.890	19.982	2.884	0.485
164.500	154.286	80.002	19.994	103.889	19.982	2.878	0.483
165.000	154.497	79.999	19.994	103.890	19.980	3.031	0.477
165.500	154.766	80.003	19.994	103.890	19.979	3.088	0.472
166.000	154.982	80.000	19.994	103.890	19.980	3.013	0.482
166.500	155.246	80.000	19.993	103.890	19.979	3.068	0.482
167.000	155.472	80.002	19.995	103.889	19.980	3.023	0.485
167.500	155.726	80.002	19.993	103.888	19.975	3.397	0.485
168.000	155.968	79.987	19.995	103.888	19.979	3.113	0.488
168.500	156.228	79.998	19.996	103.886	19.977	3.215	0.499
169.000	156.484	80.005	19.992	103.882	19.979	3.090	0.509
169.500	156.731	80.005	19.995	103.882	19.978	3.144	0.510
170.000	156.975	80.000	19.995	103.878	19.980	2.994	0.497
170.500	157.223	80.003	19.994	103.874	19.980	3.019	0.492
171.000	157.476	79.998	19.996	103.876	19.980	3.030	0.497
171.500	157.741	79.998	19.994	103.880	19.979	3.054	0.509
172.000	157.976	80.009	19.993	103.879	19.980	3.030	0.509
172.500	158.233	80.003	19.994	103.884	19.976	3.283	0.496
173.000	158.478	79.996	19.995	103.887	19.977	3.244	0.497
173.500	158.739	80.004	19.992	103.884	19.975	3.348	0.504
174.000	158.923	79.998	19.994	103.886	19.974	3.410	0.476
174.500	159.223	79.999	19.994	103.884	19.984	2.739	0.465
175.000	159.490	80.001	19.993	103.877	19.976	3.304	0.525
175.500	159.713	80.000	19.994	103.874	19.975	3.345	0.528
176.000	159.969	80.005	19.995	103.877	19.979	3.109	0.485
176.500	160.180	80.000	19.994	103.874	19.979	3.112	0.473
177.000	160.460	80.000	19.996	103.876	19.979	3.077	0.479
177.500	160.722	79.996	19.996	103.881	19.978	3.159	0.516
178.000	160.978	79.995	19.995	103.884	19.980	3.040	0.530
178.500	161.223	80.000	19.995	103.882	19.979	3.111	0.510
179.000	161.472	80.006	19.995	103.881	19.977	3.206	0.498
179.500	161.745	79.996	19.995	103.881	19.979	3.073	0.507
180.000	161.972	80.004	19.994	103.879	19.980	3.036	0.511
180.500	162.228	80.000	19.995	103.875	19.981	2.948	0.492
181.000	162.423	79.999	19.993	103.873	19.978	3.167	0.467
181.500	162.672	79.990	19.996	103.868	19.979	3.050	0.447
182.000	162.975	80.002	19.994	103.860	19.976	3.293	0.498
182.500	163.186	79.999	19.995	103.859	19.979	3.091	0.533
183.000	163.426	80.003	19.994	103.857	19.977	3.230	0.482
183.500	163.651	80.000	19.995	103.855	19.978	3.142	0.458
184.000	163.909	80.002	19.995	103.855	19.978	3.140	0.474
184.500	164.176	79.999	19.996	103.859	19.977	3.203	0.504
185.000	164.397	79.998	19.995	103.855	19.980	3.020	0.507
185.500	164.675	79.997	19.995	103.855	19.981	2.907	0.494
186.000	164.922	80.000	19.996	103.857	19.982	2.903	0.512
186.500	165.163	79.994	19.996	103.854	19.981	2.964	0.507
187.000	165.454	79.998	19.995	103.853	19.980	3.030	0.510
187.500	165.685	79.996	19.995	103.855	19.975	3.357	0.527
188.000	165.929	79.999	19.997	103.854	19.978	3.151	0.498
188.500	166.236	80.003	19.995	103.850	19.979	3.079	0.513
189.000	166.458	80.001	19.995	103.855	19.978	3.124	0.540
189.500	166.632	80.003	19.994	103.855	19.977	3.249	0.463
190.000	166.953	79.998	19.995	103.856	19.976	3.286	0.446
190.500	167.191	79.997	19.996	103.856	19.976	3.310	0.527
191.000	167.451	80.004	19.995	103.855	19.977	3.245	0.528
191.500	167.664	80.000	19.996	103.853	19.974	3.443	0.486
192.000	167.931	79.999	19.996	103.854	19.979	3.060	0.476
192.500	168.172	80.001	19.996	103.854	19.977	3.228	0.494
193.000	168.410	80.002	19.995	103.855	19.979	3.112	0.494
193.500	168.697	79.999	19.995	103.857	19.979	3.112	0.502
194.000	168.894	79.999	19.995	103.858	19.978	3.175	0.504
194.500	169.165	79.998	19.995	103.857	19.976	3.271	0.476
195.000	169.449	80.001	19.995	103.856	19.981	2.975	0.511
195.500	169.665	80.001	19.995	103.854	19.980	3.001	0.527
196.000	169.893	80.000	19.996	103.854	19.979	3.069	0.472
196.500	170.134	80.001	19.996	103.852	19.978	3.120	0.456
197.000	170.388	79.998	19.994	103.850	19.979	3.065	0.482
197.500	170.652	80.001	19.996	103.850	19.979	3.071	0.506
198.000	170.872	79.999	19.994	103.850	19.978	3.181	0.501
198.500	171.174	79.998	19.997	103.848	19.981	2.974	0.503
199.000	171.404	80.000	19.994	103.848	19.979	3.110	0.527
199.500	171.641	79.997	19.996	103.847	19.974	3.441	0.499
200.000	171.875	80.001	19.996	103.847	19.975	3.330	0.469
200.500	172.134	79.994	19.996	103.847	19.978	3.124	0.482
201.000	172.389	80.007	19.996	103.846	19.978	3.167	0.503
201.500	172.606	80.000	19.996	103.849	19.975	3.369	0.492
202.000	172.851	79.998	19.996	103.850	19.975	3.355	0.467
202.500	173.148	80.000	19.995	103.851	19.978	3.148	0.503
203.000	173.371	80.000	19.995	103.852	19.977	3.234	0.531
203.500	173.622	79.998	19.995	103.852	19.973	3.483	0.497
204.000	173.853	79.999	19.995	103.851	19.974	3.412	0.478
204.500	174.085	79.996	19.993	103.851	19.977	3.238	0.473
205.000	174.387	80.002	19.995	103.851	19.976	3.271	0.498
205.500	174.570	79.996	19.993	103.851	19.975	3.377	0.509
206.000	174.823	80.001	19.996	103.851	19.975	3.339	0.460
206.500	175.064	80.005	19.995	103.852	19.973	3.473	0.465
207.000	175.325	79.997	19.995	103.853	19.974	3.469	0.498
207.500	175.595	80.003	19.995	103.854	19.977	3.257	0.517
208.000	175.831	79.995	19.995	103.855	19.975	3.347	0.518
208.500	176.049	80.002	19.995	103.856	19.973	3.498	0.480
209.000	176.359	80.006	19.994	103.856	19.974	3.426	0.491
209.500	176.563	79.996	19.996	103.856	19.974	3.424	0.521
210.000	176.787	80.000	19.995	103.854	19.970	3.692	0.471
210.500	177.048	79.998	19.993	103.853	19.972	3.565	0.456
211.000	177.329	80.000	19.994	103.852	19.970	3.735	0.513
211.500	177.559	80.000	19.995	103.852	19.971	3.639	0.527
212.000	177.776	79.997	19.995	103.851	19.971	3.651	0.480
212.500	178.059	80.003	19.994	103.851	19.974	3.453	0.474
213.000	178.263	79.991	19.996	103.852	19.973	3.471	0.493
213.500	178.554	80.003	19.992	103.850	19.971	3.613	0.491
214.000	178.801	80.000	19.995	103.856	19.972	3.578	0.516
214.500	179.061	80.009	19.994	103.858	19.971	3.647	0.522
215.000	179.262	80.004	19.994	103.858	19.969	3.768	0.484
215.500	179.500	80.001	19.997	103.859	19.972	3.580	0.451
216.000	179.746	80.000	19.996	103.860	19.975	3.349	0.462
216.500	180.001	80.002	19.996	103.854	19.972	3.541	0.492
217.000	180.257	80.003	19.994	103.852	19.971	3.655	0.506
217.500	180.502	80.000	19.996	103.852	19.973	3.481	0.506
218.000	180.737	80.001	19.995	103.852	19.970	3.735	0.490
218.500	180.995	80.000	19.996	103.851	19.973	3.523	0.486
219.000	181.228	80.001	19.995	103.850	19.973	3.473	0.492
219.500	181.451	80.003	19.996	103.850	19.974	3.422	0.474
220.000	181.708	80.000	19.995	103.850	19.975	3.351	0.468
220.500	181.918	79.998	19.996	103.850	19.976	3.281	0.474
221.000	182.189	79.999	19.996	103.851	19.973	3.523	0.474
221.500	182.451	80.002	19.995	103.851	19.975	3.339	0.507
222.000	182.715	80.001	19.995	103.852	19.974	3.428	0.530
222.500	182.923	80.000	19.995	103.852	19.972	3.565	0.499
223.000	183.175	80.000	19.995	103.852	19.973	3.531	0.466
223.500	183.438	79.999	19.995	103.851	19.973	3.478	0.488
224.000	183.669	79.998	19.995	103.851	19.974	3.463	0.504
224.500	183.906	80.001	19.995	103.849	19.969	3.762	0.481
225.000	184.165	79.998	19.996	103.849	19.974	3.461	0.482
225.500	184.450	80.003	19.995	103.849	19.971	3.658	0.520
226.000	184.669	80.002	19.996	103.850	19.971	3.647	0.524
226.500	184.904	80.000	19.995	103.853	19.972	3.564	0.480
227.000	185.146	79.998	19.996	103.858	19.970	3.741	0.466
227.500	185.439	80.001	19.995	103.859	19.972	3.555	0.506
228.000	185.667	80.001	19.994	103.860	19.971	3.678	0.528
228.500	185.908	80.001	19.996	103.858	19.971	3.662	0.495
229.000	186.168	79.998	19.995	103.856	19.971	3.643	0.485
229.500	186.429	80.001	19.994	103.851	19.966	3.966	0.511
230.000	186.710	79.999	19.995	103.851	19.971	3.639	0.531
230.500	186.934	80.002	19.993	103.850	19.970	3.717	0.523
231.000	187.156	80.002	19.994	103.851	19.969	3.768	0.476
231.500	187.451	80.000	19.995	103.851	19.969	3.768	0.482
232.000	187.680	80.004	19.993	103.851	19.970	3.739	0.521
232.500	187.940	80.001	19.994	103.851	19.971	3.621	0.506
233.000	188.179	80.001	19.994	103.852	19.969	3.782	0.494
233.500	188.425	80.002	19.993	103.852	19.969	3.791	0.492
234.000	188.689	80.001	19.993	103.852	19.967	3.915	0.497
234.500	188.920	80.006	19.993	103.852	19.972	3.556	0.503
235.000	189.183	79.991	19.996	103.851	19.967	3.907	0.495
235.500	189.405	80.004	19.994	103.847	19.969	3.786	0.489
236.000	189.681	80.007	19.992	103.847	19.969	3.807	0.491
236.500	189.901	80.001	19.993	103.849	19.968	3.872	0.497
237.000	190.177	80.003	19.993	103.849	19.968	3.831	0.497
237.500	190.428	80.003	19.995	103.849	19.967	3.926	0.511
238.000	190.646	80.001	19.994	103.852	19.970	3.705	0.497
238.500	190.897	80.001	19.995	103.851	19.969	3.787	0.469
239.000	191.119	79.997	19.995	103.848	19.967	3.924	0.471
239.500	191.403	80.005	19.994	103.847	19.968	3.864	0.490
240.000	191.661	80.002	19.993	103.845	19.968	3.862	0.524
240.500	191.899	80.003	19.994	103.845	19.968	3.893	0.519
241.000	192.133	80.003	19.994	103.845	19.969	3.770	0.484
241.500	192.354	80.003	19.995	103.846	19.968	3.856	0.463
242.000	192.616	80.005	19.994	103.846	19.969	3.809	0.469
242.500	192.842	80.002	19.994	103.847	19.969	3.764	0.485
243.000	193.103	80.002	19.997	103.847	19.969	3.807	0.488
243.500	193.376	80.003	19.992	103.846	19.970	3.690	0.511
244.000	193.581	80.001	19.995	103.846	19.969	3.784	0.506
244.500	193.850	80.005	19.994	103.845	19.967	3.917	0.476
245.000	194.117	80.002	19.995	103.845	19.966	4.009	0.506
245.500	194.355	80.002	19.994	103.845	19.966	4.013	0.521
246.000	194.569	80.001	19.994	103.846	19.967	3.923	0.478
246.500	194.874	80.003	19.994	103.845	19.964	4.144	0.485
247.000	195.070	80.002	19.996	103.846	19.963	4.189	0.510
247.500	195.328	80.003	19.994	103.846	19.964	4.113	0.478
248.000	195.572	80.002	19.994	103.846	19.964	4.132	0.478
248.500	195.822	80.000	19.994	103.846	19.963	4.187	0.498
249.000	196.033	79.999	19.994	103.846	19.963	4.187	0.477
249.500	196.317	80.001	19.994	103.845	19.964	4.152	0.478
250.000	196.509	80.000	19.994	103.845	19.963	4.214	0.485
250.500	196.778	80.000	19.994	103.844	19.964	4.161	0.468
251.000	197.051	80.003	19.993	103.844	19.962	4.283	0.501
251.500	197.287	80.000	19.994	103.845	19.961	4.367	0.526
252.000	197.510	79.998	19.996	103.846	19.962	4.306	0.484
252.500	197.777	80.001	19.994	103.846	19.960	4.391	0.475
253.000	197.984	80.000	19.995	103.846	19.961	4.355	0.482
253.500	198.272	80.001	19.995	103.845	19.960	4.437	0.484
254.000	198.522	80.002	19.994	103.845	19.959	4.490	0.516
254.500	198.770	80.001	19.995	103.843	19.959	4.496	0.518
255.000	199.025	79.998	19.994	103.844	19.959	4.523	0.501
255.500	199.244	80.000	19.996	103.844	19.960	4.429	0.488
256.000	199.509	80.001	19.993	103.846	19.962	4.312	0.478
256.500	199.759	80.000	19.994	103.846	19.958	4.578	0.500
257.000	200.031	80.003	19.994	103.848	19.959	4.526	0.519
257.500	200.277	79.999	19.994	103.848	19.957	4.633	0.520
258.000	200.489	79.999	19.995	103.849	19.954	4.835	0.489
258.500	200.742	80.000	19.994	103.849	19.957	4.643	0.462
259.000	200.992	80.002	19.995	103.849	19.956	4.682	0.484
259.500	201.249	80.000	19.998	103.850	19.955	4.792	0.505
260.000	201.452	80.000	19.997	103.849	19.954	4.866	0.483
260.500	201.727	80.001	19.997	103.849	19.956	4.727	0.469
261.000	201.918	80.001	19.995	103.848	19.953	4.921	0.472
261.500	202.220	80.001	19.996	103.848	19.952	4.960	0.479
262.000	202.435	80.000	19.995	103.848	19.953	4.915	0.505
262.500	202.714	80.003	19.993	103.848	19.954	4.827	0.506
263.000	202.941	80.004	19.993	103.849	19.949	5.176	0.500
263.500	203.172	80.001	19.996	103.850	19.953	4.901	0.482
264.000	203.422	80.003	19.995	103.848	19.950	5.130	0.469
264.500	203.686	80.001	19.995	103.846	19.955	4.798	0.497
265.000	203.935	80.000	19.996	103.845	19.947	5.348	0.513
265.500	204.150	79.999	19.994	103.845	19.950	5.156	0.488
266.000	204.416	80.002	19.996	103.844	19.953	4.905	0.473
266.500	204.634	80.000	19.995	103.845	19.950	5.129	0.483
267.000	204.912	80.001	19.995	103.846	19.949	5.179	0.490
267.500	205.130	79.999	19.993	103.847	19.950	5.144	0.496
268.000	205.394	80.002	19.995	103.848	19.947	5.354	0.488
268.500	205.649	79.999	19.994	103.849	19.947	5.350	0.500
269.000	205.888	80.000	19.994	103.850	19.945	5.453	0.507
269.500	206.107	80.002	19.995	103.851	19.946	5.414	0.476
270.000	206.408	79.998	19.995	103.851	19.945	5.504	0.489
270.500	206.618	80.002	19.994	103.852	19.945	5.493	0.516
271.000	206.857	80.005	19.994	103.851	19.942	5.661	0.480
271.500	207.104	80.002	19.994	103.850	19.944	5.587	0.467
272.000	207.372	80.004	19.993	103.852	19.943	5.610	0.500
272.500	207.577	79.986	19.995	103.853	19.942	5.716	0.494
273.000	207.798	80.000	19.995	103.851	19.943	5.657	0.449
273.500	208.103	80.000	19.996	103.851	19.942	5.710	0.476
274.000	208.357	80.000	19.995	103.851	19.941	5.733	0.543
274.500	208.603	80.002	19.994	103.851	19.943	5.641	0.530
275.000	208.840	80.001	19.993	103.850	19.940	5.820	0.491
275.500	209.059	80.000	19.998	103.853	19.939	5.896	0.469
276.000	209.336	80.000	19.998	103.852	19.937	6.025	0.476
276.500	209.537	80.001	19.997	103.853	19.939	5.937	0.487
277.000	209.778	80.000	19.996	103.852	19.939	5.917	0.460
277.500	210.069	80.002	19.998	103.851	19.935	6.211	0.487
278.000	210.276	79.999	19.996	103.851	19.939	5.927	0.515
278.500	210.531	79.999	19.996	103.851	19.934	6.293	0.480
279.000	210.771	79.999	19.994	103.851	19.936	6.139	0.478
279.500	211.023	80.000	19.996	103.850	19.934	6.233	0.494
280.000	211.253	79.999	19.996	103.850	19.936	6.119	0.487
280.500	211.491	80.003	19.994	103.849	19.935	6.195	0.475
281.000	211.775	79.996	19.996	103.850	19.933	6.313	0.495
281.500	212.033	80.001	19.995	103.849	19.932	6.419	0.532
282.000	212.248	80.003	19.995	103.849	19.929	6.626	0.507
282.500	212.521	80.000	19.995	103.850	19.931	6.438	0.480
283.000	212.765	79.999	19.996	103.852	19.932	6.399	0.502
283.500	212.982	79.999	19.995	103.850	19.931	6.475	0.489
284.000	213.241	79.999	19.995	103.851	19.929	6.583	0.468
284.500	213.454	79.999	19.996	103.850	19.933	6.354	0.474
285.000	213.749	79.999	19.996	103.850	19.931	6.438	0.490
285.500	213.971	80.002	19.995	103.850	19.930	6.532	0.513
286.000	214.213	79.998	19.996	103.850	19.929	6.606	0.490
286.500	214.456	79.998	19.996	103.850	19.925	6.888	0.474
287.000	214.729	80.002	19.994	103.851	19.926	6.847	0.500
287.500	214.953	79.998	19.996	103.851	19.927	6.722	0.506
288.000	215.194	80.001	19.997	103.851	19.924	6.964	0.481
288.500	215.451	80.000	19.995	103.851	19.924	6.978	0.482
289.000	215.690	79.998	19.994	103.851	19.922	7.115	0.498
289.500	215.928	80.000	19.994	103.851	19.920	7.248	0.487
290.000	216.188	80.000	19.995	103.851	19.920	7.241	0.487
290.500	216.425	80.000	19.995	103.851	19.923	7.012	0.498
291.000	216.653	80.001	19.995	103.852	19.921	7.172	0.481
291.500	216.897	80.001	19.994	103.853	19.922	7.131	0.468
292.000	217.145	80.000	19.996	103.854	19.918	7.397	0.482
292.500	217.417	79.999	19.995	103.853	19.916	7.505	0.506
293.000	217.647	80.000	19.994	103.853	19.916	7.515	0.510
293.500	217.904	80.001	19.993	103.852	19.914	7.665	0.494
294.000	218.149	80.001	19.994	103.854	19.914	7.636	0.495
294.500	218.433	80.001	19.995	103.854	19.910	7.930	0.516
295.000	218.677	80.002	19.996	103.854	19.913	7.728	0.529
295.500	218.903	80.001	19.995	103.854	19.913	7.748	0.499
296.000	219.144	80.002	19.994	103.853	19.911	7.871	0.469
296.500	219.409	80.004	19.994	103.852	19.907	8.141	0.487
297.000	219.624	80.003	19.995	103.851	19.910	7.967	0.493
297.500	219.868	80.006	19.993	103.850	19.908	8.084	0.469
298.000	220.133	80.001	19.996	103.851	19.908	8.110	0.484
298.500	220.378	80.001	19.995	103.850	19.909	8.032	0.509
299.000	220.590	80.003	19.995	103.849	19.907	8.138	0.484
299.500	220.950	80.001	19.995	103.848	19.907	8.173	0.515
300.000	221.133	80.001	19.996	103.847	19.905	8.329	0.557
300.500	221.365	80.002	19.994	103.848	19.903	8.437	0.479
301.000	221.604	80.001	19.994	103.852	19.906	8.245	0.443
301.500	221.869	80.002	19.995	103.852	19.900	8.679	0.487
302.000	222.150	80.003	19.993	103.853	19.901	8.603	0.525
302.500	222.331	80.002	19.995	103.854	19.901	8.584	0.504
303.000	222.606	80.001	19.997	103.852	19.900	8.688	0.459
303.500	222.874	80.002	19.997	103.849	19.899	8.750	0.499
304.000	223.087	80.002	19.995	103.849	19.900	8.690	0.512
304.500	223.339	80.000	19.994	103.850	19.899	8.748	0.473
305.000	223.590	80.001	19.995	103.850	19.897	8.891	0.485
305.500	223.826	80.001	19.994	103.849	19.894	9.093	0.495
306.000	224.102	80.001	19.996	103.849	19.894	9.058	0.499
306.500	224.341	80.002	19.995	103.850	19.894	9.051	0.513
307.000	224.551	80.001	19.996	103.848	19.892	9.190	0.482
307.500	224.828	80.000	19.994	103.848	19.891	9.270	0.468
308.000	225.066	80.000	19.995	103.849	19.888	9.482	0.502
308.500	225.315	80.002	19.995	103.851	19.888	9.509	0.501
309.000	225.543	80.001	19.996	103.854	19.888	9.542	0.482
309.500	225.775	80.001	19.995	103.859	19.885	9.726	0.468
310.000	226.009	80.000	19.996	103.858	19.888	9.522	0.463
310.500	226.267	79.998	19.994	103.858	19.887	9.568	0.479
311.000	226.524	80.000	19.995	103.855	19.887	9.595	0.504
311.500	226.814	80.000	19.995	103.851	19.886	9.625	0.531
312.000	227.006	79.999	19.996	103.847	19.884	9.809	0.515
312.500	227.283	80.002	19.995	103.850	19.882	9.920	0.476
313.000	227.515	80.001	19.994	103.852	19.882	9.934	0.489
313.500	227.787	80.000	19.996	103.853	19.881	9.978	0.506
314.000	228.045	80.000	19.995	103.856	19.884	9.799	0.517
314.500	228.280	80.002	19.996	103.857	19.876	10.363	0.512
315.000	228.519	80.000	19.994	103.856	19.880	10.093	0.484
315.500	228.790	80.002	19.995	103.854	19.878	10.247	0.493
316.000	229.002	80.001	19.995	103.855	19.879	10.151	0.497
316.500	229.254	80.000	19.997	103.858	19.876	10.362	0.473
317.000	229.495	80.002	19.995	103.862	19.876	10.382	0.478
317.500	229.762	80.001	19.996	103.866	19.871	10.678	0.501
318.000	230.009	79.999	19.999	103.870	19.874	10.476	0.511
318.500	230.235	80.002	19.994	103.870	19.870	10.798	0.493
319.000	230.471	80.000	19.996	103.868	19.874	10.477	0.468
319.500	230.758	80.005	19.994	103.864	19.870	10.743	0.493
320.000	231.002	80.001	19.995	103.861	19.873	10.561	0.527
320.500	231.241	80.001	19.994	103.860	19.872	10.640	0.507
321.000	231.480	80.003	19.994	103.865	19.869	10.875	0.481
321.500	231.738	80.002	19.995	103.868	19.869	10.831	0.487
322.000	232.000	80.001	19.994	103.869	19.869	10.884	0.508
322.500	232.201	80.001	19.995	103.871	19.869	10.866	0.492
323.000	232.440	80.004	19.994	103.873	19.870	10.778	0.452
323.500	232.708	80.003	19.994	103.872	19.863	11.244	0.473
324.000	232.929	80.002	19.994	103.871	19.863	11.288	0.498
324.500	233.174	80.003	19.993	103.876	19.866	11.044	0.478
325.000	233.443	80.002	19.994	103.876	19.864	11.199	0.489
325.500	233.719	80.003	19.993	103.873	19.863	11.240	0.529
326.000	233.928	80.002	19.994	103.871	19.864	11.188	0.515
326.500	234.210	80.002	19.993	103.871	19.863	11.303	0.488
327.000	234.418	80.001	19.995	103.869	19.863	11.243	0.490
327.500	234.704	80.002	19.995	103.865	19.860	11.478	0.492
328.000	234.912	80.001	19.994	103.868	19.860	11.487	0.494
328.500	235.185	79.999	19.995	103.868	19.866	11.082	0.487
329.000	235.415	80.003	19.996	103.863	19.861	11.411	0.492
329.500	235.630	79.997	20.001	103.860	19.860	11.499	0.475
330.000	235.903	79.997	19.999	103.861	19.859	11.589	0.467
330.500	236.147	80.005	19.989	103.856	19.856	11.745	0.502
331.000	236.405	80.000	19.993	103.858	19.853	12.011	0.509
331.500	236.698	79.998	19.995	103.859	19.854	11.878	0.527
332.000	236.857	80.003	19.995	103.863	19.852	12.083	0.502
332.500	237.134	79.999	19.994	103.869	19.853	11.983	0.444
333.000	237.391	80.000	19.997	103.874	19.852	12.081	0.484
333.500	237.643	80.002	19.992	103.872	19.852	12.032	0.521
334.000	237.887	79.999	19.996	103.872	19.851	12.146	0.503
334.500	238.117	80.000	19.995	103.869	19.850	12.210	0.485
335.000	238.418	80.000	19.994	103.866	19.851	12.136	0.503
335.500	238.648	80.000	19.998	103.867	19.848	12.328	0.531
336.000	238.901	79.999	19.997	103.868	19.851	12.146	0.506
336.500	239.130	80.000	19.996	103.874	19.847	12.368	0.482
337.000	239.368	80.001	19.995	103.875	19.846	12.505	0.475
337.500	239.585	79.999	19.993	103.878	19.846	12.480	0.461
338.000	239.844	80.000	19.994	103.877	19.847	12.370	0.465
338.500	240.087	79.999	19.995	103.879	19.844	12.603	0.489
339.000	240.342	80.000	19.996	103.877	19.845	12.569	0.500
339.500	240.587	79.999	19.995	103.879	19.848	12.303	0.499
340.000	240.820	80.001	19.994	103.876	19.846	12.469	0.489
340.500	241.061	80.000	19.993	103.876	19.844	12.604	0.476
341.000	241.327	80.001	19.994	103.876	19.846	12.481	0.491
341.500	241.578	80.001	19.995	103.873	19.843	12.716	0.512
342.000	241.793	80.001	19.995	103.871	19.843	12.657	0.491
342.500	242.103	79.998	19.997	103.870	19.841	12.833	0.495
343.000	242.272	80.001	19.994	103.867	19.844	12.606	0.502
343.500	242.547	79.999	19.995	103.863	19.839	13.002	0.461
344.000	242.804	79.998	19.995	103.864	19.842	12.791	0.488
344.500	243.044	80.000	19.995	103.865	19.837	13.131	0.515
345.000	243.308	80.000	19.995	103.864	19.840	12.918	0.500
345.500	243.530	80.000	19.995	103.863	19.836	13.173	0.495
346.000	243.772	79.999	19.993	103.867	19.839	13.003	0.476
346.500	244.051	79.998	19.996	103.865	19.839	12.977	0.492
347.000	244.263	80.000	19.995	103.865	19.836	13.175	0.506
347.500	244.526	79.998	19.994	103.872	19.835	13.249	0.483
348.000	244.762	79.999	19.994	103.878	19.837	13.092	0.487
348.500	245.014	80.001	19.995	103.875	19.833	13.393	0.494
349.000	245.269	80.000	19.996	103.875	19.836	13.177	0.498
349.500	245.506	80.000	19.995	103.874	19.835	13.282	0.499
350.000	245.758	80.000	19.995	103.870	19.834	13.337	0.490
350.500	246.027	80.001	19.995	103.868	19.834	13.326	0.505
351.000	246.245	80.000	19.994	103.869	19.833	13.398	0.504
351.500	246.505	80.002	19.993	103.868	19.832	13.490	0.482
352.000	246.753	80.000	19.993	103.866	19.831	13.528	0.493
352.500	246.980	80.000	19.995	103.867	19.832	13.475	0.492
353.000	247.237	79.997	19.997	103.868	19.831	13.514	0.480
353.500	247.512	80.002	19.996	103.869	19.829	13.650	0.508
354.000	247.719	80.001	19.995	103.868	19.832	13.494	0.507
354.500	247.990	80.001	19.994	103.871	19.834	13.353	0.480
355.000	248.235	80.000	19.994	103.873	19.827	13.825	0.497
355.500	248.490	80.000	19.994	103.871	19.828	13.708	0.508
356.000	248.719	80.000	19.996	103.871	19.830	13.579	0.492
356.500	248.982	80.006	19.990	103.878	19.830	13.635	0.488
357.000	249.241	80.002	19.992	103.879	19.828	13.725	0.507
357.500	249.494	80.002	19.992	103.877	19.827	13.806	0.517
358.000	249.737	80.000	19.995	103.877	19.829	13.697	0.504
358.500	250.026	79.999	19.996	103.875	19.825	13.969	0.514
359.000	250.261	79.996	19.996	103.869	19.827	13.830	0.528
359.500	250.528	79.997	19.996	103.865	19.824	14.016	0.513
360.000	250.768	80.000	19.995	103.862	19.827	13.837	0.505
360.500	250.996	80.000	19.994	103.860	19.823	14.072	0.488
361.000	251.312	80.000	19.995	103.861	19.823	14.106	0.506
361.500	251.485	79.998	19.995	103.863	19.823	14.073	0.517
362.000	251.751	80.000	19.998	103.861	19.825	13.953	0.464
362.500	252.015	80.000	19.994	103.861	19.824	14.033	0.484
363.000	252.247	80.001	19.995	103.862	19.825	13.954	0.513
363.500	252.521	79.999	19.996	103.864	19.821	14.260	0.501
364.000	252.726	80.003	19.997	103.865	19.820	14.334	0.492
364.500	252.989	79.999	19.997	103.870	19.825	13.957	0.474
365.000	253.240	80.001	19.996	103.874	19.822	14.182	0.491
365.500	253.482	79.999	19.998	103.875	19.819	14.382	0.503
366.000	253.735	79.999	19.997	103.874	19.821	14.243	0.494
366.500	254.001	80.000	19.994	103.869	19.821	14.242	0.507
367.000	254.265	80.000	19.995	103.866	19.819	14.361	0.525
367.500	254.479	80.000	19.997	103.863	19.819	14.351	0.504
368.000	254.743	80.000	19.995	103.863	19.818	14.443	0.478
368.500	254.998	80.000	19.995	103.865	19.815	14.630	0.498
369.000	255.268	80.000	19.995	103.867	19.815	14.687	0.522
369.500	255.456	80.000	19.996	103.871	19.814	14.736	0.492
370.000	255.737	80.001	19.997	103.872	19.816	14.568	0.464
370.500	255.995	80.001	19.994	103.872	19.815	14.672	0.504
371.000	256.247	80.000	19.997	103.875	19.816	14.627	0.524
371.500	256.524	80.001	19.994	103.880	19.813	14.831	0.520
372.000	256.738	80.000	19.994	103.882	19.812	14.870	0.511
372.500	256.961	80.000	19.997	103.885	19.809	15.071	0.464
373.000	257.229	80.000	19.996	103.882	19.813	14.801	0.464
373.500	257.490	80.002	19.993	103.876	19.810	15.048	0.510
374.000	257.700	80.001	19.997	103.877	19.809	15.122	0.500
374.500	258.013	80.000	19.996	103.876	19.810	15.046	0.497
375.000	258.224	80.001	19.996	103.875	19.809	15.122	0.523
375.500	258.467	80.000	19.995	103.880	19.809	15.101	0.489
376.000	258.726	80.001	19.997	103.882	19.805	15.383	0.478
376.500	258.994	80.003	19.992	103.881	19.809	15.068	0.515
377.000	259.228	80.002	19.994	103.880	19.803	15.481	0.514
377.500	259.477	80.001	19.996	103.877	19.806	15.266	0.493
378.000	259.709	80.000	19.999	103.874	19.802	15.597	0.482
378.500	259.990	80.000	19.995	103.873	19.804	15.425	0.497
379.000	260.253	80.001	19.995	103.874	19.803	15.542	0.528
379.500	260.507	80.003	19.994	103.875	19.801	15.657	0.531
380.000	260.737	80.001	19.995	103.878	19.798	15.859	0.501
380.500	260.972	80.002	19.995	103.883	19.796	16.033	0.475
381.000	261.252	80.001	19.995	103.885	19.796	16.022	0.490
381.500	261.466	80.001	19.996	103.886	19.795	16.067	0.504
382.000	261.724	80.003	19.998	103.886	19.794	16.129	0.483
382.500	261.998	80.001	19.996	103.885	19.790	16.398	0.502
383.000	262.230	80.001	19.994	103.884	19.795	16.108	0.519
383.500	262.481	80.001	19.995	103.884	19.790	16.458	0.495
384.000	262.731	79.999	19.997	103.884	19.791	16.394	0.492
384.500	262.950	80.002	19.998	103.883	19.789	16.535	0.485
385.000	263.239	80.000	19.995	103.884	19.789	16.500	0.489
385.500	263.476	80.002	19.997	103.885	19.788	16.587	0.517
386.000	263.686	80.002	19.999	103.886	19.788	16.541	0.487
386.500	263.990	80.000	19.998	103.886	19.784	16.829	0.481
387.000	264.208	80.000	19.997	103.887	19.785	16.797	0.518
387.500	264.481	79.998	19.997	103.888	19.782	16.979	0.506
388.000	264.733	80.000	19.995	103.888	19.783	16.924	0.508
388.500	264.982	79.999	19.998	103.888	19.780	17.138	0.513
389.000	265.224	80.005	19.992	103.888	19.778	17.250	0.496
389.500	265.462	80.000	19.994	103.889	19.777	17.363	0.486
390.000	265.694	80.001	19.996	103.888	19.776	17.399	0.475
390.500	265.939	80.000	19.996	103.888	19.771	17.755	0.473
391.000	266.224	80.003	19.995	103.887	19.771	17.750	0.503
391.500	266.499	80.002	19.996	103.888	19.773	17.615	0.545
392.000	266.711	79.995	20.001	103.888	19.774	17.588	0.523
392.500	267.019	80.000	19.996	103.887	19.769	17.882	0.504
393.000	267.269	80.004	19.992	103.887	19.767	18.047	0.539
393.500	267.479	80.000	19.996	103.888	19.768	17.990	0.509
394.000	267.741	80.000	19.995	103.888	19.766	18.114	0.466
394.500	268.005	79.998	19.993	103.888	19.766	18.105	0.499
395.000	268.223	80.001	19.994	103.889	19.762	18.393	0.504
395.500	268.447	80.000	19.999	103.890	19.760	18.557	0.463
396.000	268.716	80.003	19.995	103.894	19.760	18.548	0.468
396.500	268.960	80.002	19.989	103.900	19.758	18.669	0.503
397.000	269.240	79.999	20.001	103.902	19.754	18.952	0.519
397.500	269.475	80.003	19.992	103.902	19.755	18.915	0.519
398.000	269.747	79.999	19.995	103.902	19.751	19.162	0.511
398.500	270.018	80.003	19.990	103.901	19.749	19.309	0.525
399.000	270.199	80.003	20.000	103.899	19.750	19.266	0.498
399.500	270.494	80.001	19.995	103.899	19.747	19.470	0.464
400.000	270.777	79.998	19.994	103.902	19.746	19.540	0.527
400.500	271.029	80.004	19.994	103.903	19.742	19.821	0.557
401.000	271.291	80.003	19.990	103.903	19.741	19.884	0.524
401.500	271.480	79.995	20.000	103.903	19.741	19.899	0.482
402.000	271.759	80.001	19.998	103.906	19.739	20.068	0.460
402.500	271.981	80.000	19.998	103.908	19.733	20.434	0.485
403.000	272.252	80.003	19.991	103.908	19.733	20.449	0.497
403.500	272.514	80.002	19.994	103.910	19.731	20.605	0.513
404.000	272.815	79.999	19.999	103.913	19.730	20.698	0.548
404.500	273.026	79.998	19.996	103.913	19.727	20.916	0.537
405.000	273.277	80.000	19.995	103.917	19.726	20.946	0.487
405.500	273.539	80.001	19.994	103.920	19.724	21.121	0.488
406.000	273.803	79.998	20.000	103.920	19.722	21.217	0.520
406.500	274.010	80.002	19.994	103.919	19.720	21.414	0.499
407.000	274.268	79.998	19.996	103.921	19.719	21.467	0.468
407.500	274.534	80.004	19.990	103.921	19.716	21.660	0.494
408.000	274.800	80.001	19.993	103.923	19.715	21.731	0.528
408.500	275.063	79.999	19.996	103.924	19.712	21.922	0.531
409.000	275.296	80.002	19.990	103.926	19.707	22.288	0.512
409.500	275.548	80.004	19.991	103.927	19.706	22.383	0.490
410.000	275.798	79.999	19.993	103.929	19.704	22.526	0.494
410.500	276.050	80.002	19.994	103.928	19.704	22.514	0.502
411.000	276.301	79.996	19.996	103.929	19.698	22.924	0.502
411.500	276.533	79.997	19.997	103.931	19.701	22.754	0.493
412.000	276.771	80.003	19.995	103.931	19.694	23.224	0.477
412.500	277.051	80.000	19.991	103.931	19.694	23.251	0.494
413.000	277.286	80.000	19.998	103.931	19.691	23.418	0.516
413.500	277.526	79.994	20.002	103.931	19.688	23.674	0.494
414.000	277.785	80.003	19.990	103.929	19.686	23.816	0.487
414.500	278.051	79.995	19.994	103.935	19.680	24.227	0.512
415.000	278.318	79.999	19.994	103.938	19.681	24.145	0.529
415.500	278.539	79.996	19.995	103.940	19.677	24.419	0.511
416.000	278.798	80.001	19.995	103.945	19.675	24.537	0.484
416.500	279.053	79.997	19.992	103.948	19.669	25.009	0.497
417.000	279.326	80.001	19.992	103.947	19.665	25.258	0.521
417.500	279.531	80.002	19.993	103.950	19.667	25.117	0.503
418.000	279.779	79.999	19.997	103.955	19.659	25.674	0.465
418.500	280.023	80.003	19.991	103.957	19.660	25.656	0.472
419.000	280.304	80.001	19.992	103.961	19.659	25.692	0.508
419.500	280.529	79.999	19.998	103.963	19.655	25.959	0.515
420.000	280.804	79.998	19.993	103.963	19.653	26.109	0.503
420.500	281.055	80.001	19.994	103.964	19.650	26.363	0.513
421.000	281.325	79.999	19.995	103.966	19.646	26.632	0.524
421.500	281.595	80.003	19.995	103.966	19.643	26.869	0.531
422.000	281.773	80.001	19.995	103.967	19.638	27.195	0.494
422.500	282.059	80.000	19.993	103.969	19.635	27.398	0.456
423.000	282.252	79.999	19.995	103.968	19.630	27.738	0.471
423.500	282.581	79.999	19.995	103.967	19.629	27.842	0.500
424.000	282.829	80.000	19.995	103.967	19.625	28.138	0.550
424.500	283.067	80.001	19.995	103.967	19.624	28.153	0.531
425.000	283.322	80.000	19.996	103.968	19.618	28.638	0.490
425.500	283.566	80.000	19.999	103.968	19.614	28.873	0.496
426.000	283.805	79.999	19.994	103.968	19.618	28.642	0.491
426.500	284.091	79.998	19.994	103.967	19.613	28.966	0.504
427.000	284.286	80.002	19.993	103.967	19.609	29.215	0.503
427.500	284.535	80.000	19.994	103.967	19.604	29.631	0.462
428.000	284.793	80.001	19.993	103.967	19.601	29.817	0.475
428.500	285.031	80.001	19.993	103.968	19.599	29.928	0.501
429.000	285.323	79.998	19.994	103.968	19.593	30.364	0.513
429.500	285.603	80.004	19.993	103.969	19.590	30.573	0.551
430.000	285.823	80.000	19.993	103.970	19.585	30.978	0.536
430.500	286.088	80.004	19.986	103.973	19.584	31.020	0.492
431.000	286.309	80.001	19.995	103.976	19.578	31.448	0.485
431.500	286.521	79.998	20.000	103.981	19.576	31.554	0.460
432.000	286.753	80.000	19.998	103.985	19.572	31.874	0.439
432.500	287.043	80.000	19.996	103.990	19.567	32.200	0.484
433.000	287.307	80.000	19.997	103.994	19.564	32.415	0.538
433.500	287.553	79.999	19.995	103.997	19.561	32.651	0.531
434.000	287.808	79.999	19.998	103.999	19.558	32.850	0.505
434.500	288.091	79.999	19.996	104.001	19.555	33.101	0.520
435.000	288.282	79.996	20.002	104.002	19.550	33.407	0.506
435.500	288.547	80.005	19.991	104.000	19.547	33.606	0.465
436.000	288.788	80.003	19.994	104.002	19.543	33.930	0.481
436.500	289.065	79.997	19.996	104.002	19.538	34.285	0.512
437.000	289.307	80.000	19.994	104.001	19.535	34.494	0.518
437.500	289.498	79.998	19.996	104.002	19.533	34.664	0.476
438.000	289.784	80.002	19.992	104.005	19.526	35.143	0.455
438.500	290.065	80.000	19.995	104.007	19.520	35.516	0.522
439.000	290.285	80.002	19.996	104.010	19.516	35.804	0.534
439.500	290.548	80.001	19.996	104.014	19.515	35.884	0.492
440.000	290.807	79.999	19.997	104.019	19.511	36.189	0.503
440.500	291.078	79.996	19.999	104.024	19.505	36.589	0.525
441.000	291.314	79.999	19.996	104.025	19.501	36.866	0.518
441.500	291.579	80.001	19.997	104.029	19.498	37.074	0.504
442.000	291.807	80.006	19.990	104.032	19.495	37.342	0.497
442.500	292.102	80.003	19.992	104.036	19.492	37.517	0.508
443.000	292.346	79.995	20.003	104.039	19.487	37.902	0.531
443.500	292.598	79.998	19.994	104.039	19.484	38.130	0.517
444.000	292.839	80.003	19.991	104.039	19.478	38.555	0.494
444.500	293.091	80.005	19.990	104.039	19.478	38.540	0.493
445.000	293.330	79.999	19.992	104.037	19.471	39.013	0.492
445.500	293.559	80.002	19.993	104.036	19.468	39.217	0.479
446.000	293.821	79.999	19.996	104.038	19.463	39.602	0.480
446.500	294.085	79.999	19.995	104.039	19.456	40.096	0.509
447.000	294.331	80.001	19.993	104.041	19.454	40.220	0.518
447.500	294.615	80.001	19.994	104.042	19.452	40.367	0.520
448.000	294.842	80.001	19.996	104.044	19.450	40.548	0.521
448.500	295.070	80.000	19.995	104.043	19.444	40.955	0.483
449.000	295.337	80.001	19.990	104.044	19.440	41.211	0.475
449.500	295.571	80.002	19.996	104.045	19.438	41.349	0.498
450.000	295.808	79.996	19.998	104.045	19.433	41.723	0.486
450.500	296.076	80.004	19.992	104.044	19.427	42.177	0.488
451.000	296.327	79.998	19.992	104.045	19.420	42.603	0.512
451.500	296.564	80.001	19.995	104.046	19.418	42.754	0.503
452.000	296.824	80.000	19.991	104.048	19.412	43.206	0.492
452.500	297.066	80.002	19.994	104.053	19.411	43.273	0.499
453.000	297.249	79.998	19.996	104.058	19.404	43.744	0.464
453.500	297.547	80.002	19.993	104.057	19.402	43.909	0.454
454.000	297.811	79.993	19.999	104.060	19.395	44.394	0.522
454.500	298.031	80.003	19.994	104.062	19.397	44.295	0.523
455.000	298.348	80.002	19.990	104.064	19.390	44.740	0.510
455.500	298.596	80.001	19.993	104.065	19.384	45.183	0.551
456.000	298.803	80.003	19.993	104.073	19.383	45.238	0.510
456.500	299.071	80.008	19.993	104.077	19.379	45.529	0.465
457.000	299.320	80.004	19.992	104.079	19.374	45.929	0.496
457.500	299.577	79.998	19.998	104.078	19.368	46.310	0.512
458.000	299.827	80.001	19.992	104.079	19.364	46.572	0.507
458.500	300.060	80.007	19.992	104.080	19.360	46.887	0.495
459.000	300.326	80.004	19.992	104.081	19.355	47.254	0.491
459.500	300.553	80.002	19.990	104.083	19.353	47.402	0.496
460.000	300.807	80.000	19.995	104.084	19.348	47.751	0.487
460.500	301.085	80.002	19.996	104.086	19.345	47.940	0.506
461.000	301.281	79.999	20.001	104.085	19.340	48.286	0.503
461.500	301.549	80.001	19.996	104.083	19.334	48.762	0.469
462.000	301.832	80.002	19.994	104.082	19.335	48.677	0.507
462.500	302.029	80.002	19.999	104.082	19.328	49.166	0.516
463.000	302.314	80.007	19.991	104.084	19.323	49.489	0.482
463.500	302.557	79.995	20.001	104.086	19.318	49.865	0.505
464.000	302.836	79.998	19.996	104.086	19.316	50.038	0.525
464.500	303.102	80.001	19.996	104.086	19.309	50.468	0.533
465.000	303.326	79.998	19.993	104.086	19.305	50.753	0.517
465.500	303.583	80.001	19.997	104.084	19.304	50.889	0.485
466.000	303.820	80.004	19.987	104.083	19.299	51.182	0.487
466.500	304.037	80.000	19.994	104.088	19.295	51.521	0.474
467.000	304.318	80.004	19.993	104.091	19.290	51.885	0.476
467.500	304.555	80.002	19.996	104.094	19.286	52.109	0.508
468.000	304.797	80.003	19.991	104.097	19.282	52.402	0.499
468.500	305.063	80.003	19.998	104.099	19.277	52.766	0.493
469.000	305.284	80.003	19.997	104.096	19.278	52.724	0.498
469.500	305.531	79.999	19.996	104.095	19.270	53.244	0.478
470.000	305.816	80.002	19.993	104.094	19.267	53.514	0.500
470.500	306.066	80.004	19.992	104.096	19.264	53.715	0.533
471.000	306.352	79.999	19.994	104.100	19.258	54.109	0.536
471.500	306.594	80.000	19.995	104.106	19.254	54.378	0.532
472.000	306.846	80.000	19.996	104.111	19.251	54.645	0.511
472.500	307.087	79.999	19.992	104.114	19.247	54.899	0.493
473.000	307.307	80.001	19.994	104.117	19.242	55.253	0.477
473.500	307.543	80.002	19.992	104.113	19.240	55.377	0.459
474.000	307.828	80.005	19.993	104.111	19.237	55.612	0.489
474.500	308.044	80.000	19.993	104.106	19.235	55.736	0.511
475.000	308.304	79.997	19.995	104.106	19.228	56.258	0.488
475.500	308.560	80.000	19.993	104.106	19.228	56.212	0.496
476.000	308.806	79.998	19.997	104.112	19.224	56.519	0.509
476.500	309.061	80.002	19.998	104.114	19.220	56.809	0.501
477.000	309.288	80.009	19.990	104.119	19.217	57.011	0.492
477.500	309.567	80.002	19.992	104.122	19.213	57.277	0.494
478.000	309.788	80.004	19.998	104.123	19.212	57.366	0.503
478.500	310.044	80.000	19.992	104.123	19.207	57.720	0.489
479.000	310.297	80.001	19.992	104.125	19.206	57.823	0.493
479.500	310.581	80.004	19.994	104.126	19.203	58.046	0.523
480.000	310.832	80.001	19.996	104.124	19.197	58.452	0.536
480.500	311.089	80.002	19.997	104.124	19.196	58.477	0.521
481.000	311.345	80.002	19.994	104.124	19.193	58.692	0.510
481.500	311.599	80.004	19.990	104.124	19.189	59.015	0.512
482.000	311.832	79.998	19.996	104.124	19.188	59.044	0.498
482.500	312.085	80.005	19.992	104.124	19.186	59.223	0.486
483.000	312.337	80.004	19.990	104.125	19.180	59.603	0.495
483.500	312.610	80.010	19.991	104.126	19.179	59.687	0.515
484.000	312.880	80.001	19.991	104.127	19.176	59.927	0.534
484.500	313.131	80.003	19.990	104.125	19.174	60.058	0.532
485.000	313.339	79.994	19.998	104.126	19.171	60.303	0.490
485.500	313.634	80.002	19.989	104.124	19.170	60.368	0.481
486.000	313.865	80.001	19.995	104.124	19.169	60.436	0.514
486.500	314.097	79.998	19.999	104.122	19.166	60.598	0.495
487.000	314.354	80.002	19.993	104.121	19.162	60.869	0.476
487.500	314.643	80.004	19.983	104.120	19.160	61.023	0.517
488.000	314.908	80.004	19.993	104.122	19.159	61.106	0.550
488.500	315.086	80.001	19.994	104.122	19.158	61.206	0.499
489.000	315.379	80.004	19.993	104.122	19.152	61.609	0.457
489.500	315.594	80.003	19.997	104.123	19.152	61.595	0.489
490.000	315.868	79.999	19.994	104.122	19.151	61.644	0.499
490.500	316.113	80.002	19.988	104.120	19.150	61.719	0.504
491.000	316.377	80.003	19.991	104.120	19.151	61.664	0.514
491.500	316.626	80.001	19.984	104.120	19.146	62.018	0.510
492.000	316.886	80.000	20.000	104.121	19.149	61.804	0.511
492.500	317.142	80.003	19.992	104.119	19.146	61.994	0.513
493.000	317.382	79.999	19.993	104.120	19.143	62.268	0.506
493.500	317.643	80.003	19.994	104.119	19.142	62.336	0.498
494.000	317.943	80.001	19.994	104.119	19.141	62.340	0.531
494.500	318.156	79.997	19.997	104.118	19.138	62.566	0.537
495.000	318.384	79.998	19.998	104.118	19.142	62.325	0.477
495.500	318.651	79.998	19.991	104.114	19.140	62.412	0.468
496.000	318.899	79.996	19.997	104.110	19.141	62.379	0.505
496.500	319.152	80.002	19.995	104.108	19.141	62.393	0.508
497.000	319.374	79.999	19.997	104.103	19.140	62.451	0.488
497.500	319.628	80.001	19.995	104.102	19.140	62.424	0.475
498.000	319.842	79.997	19.997	104.105	19.141	62.372	0.472
498.500	320.108	80.003	19.994	104.107	19.139	62.491	0.474
499.000	320.362	80.001	19.995	104.107	19.143	62.232	0.500
499.500	320.591	79.998	20.000	104.110	19.142	62.303	0.501
500.000	320.879	80.005	19.993	104.108	19.144	62.129	0.500
500.500	321.119	80.003	19.990	104.102	19.143	62.237	0.523
501.000	321.386	79.997	19.997	104.098	19.145	62.086	0.517
501.500	321.632	79.998	19.996	104.092	19.145	62.034	0.509
502.000	321.918	79.999	19.990	104.086	19.151	61.643	0.523
502.500	322.151	80.002	19.991	104.084	19.152	61.573	0.526
503.000	322.397	79.999	19.991	104.084	19.153	61.489	0.499
503.500	322.648	79.997	19.999	104.082	19.154	61.412	0.488
504.000	322.893	80.001	19.995	104.082	19.156	61.275	0.496
504.500	323.112	79.997	19.993	104.082	19.161	60.890	0.480
505.000	323.352	80.000	20.001	104.077	19.161	60.937	0.462
505.500	323.647	80.000	19.995	104.071	19.165	60.646	0.497
506.000	323.844	80.002	19.994	104.070	19.166	60.568	0.513
506.500	324.136	80.001	19.995	104.070	19.170	60.286	0.490
507.000	324.411	80.000	19.991	104.065	19.175	59.915	0.528
507.500	324.613	79.999	19.995	104.061	19.176	59.820	0.522
508.000	324.844	79.996	19.998	104.060	19.180	59.538	0.455
508.500	325.114	79.995	19.995	104.054	19.184	59.296	0.467
509.000	325.361	80.005	19.990	104.046	19.187	59.049	0.509
509.500	325.649	79.998	19.996	104.046	19.191	58.747	0.526
510.000	325.903	80.002	19.996	104.045	19.193	58.641	0.538
510.500	326.121	79.995	19.998	104.042	19.200	58.090	0.507
511.000	326.390	80.003	19.989	104.039	19.206	57.712	0.479
511.500	326.641	80.000	20.001	104.037	19.209	57.485	0.503
512.000	326.850	80.000	19.993	104.030	19.215	57.076	0.490
512.500	327.134	80.005	19.994	104.025	19.220	56.702	0.476
513.000	327.361	79.996	19.999	104.020	19.225	56.378	0.502
513.500	327.639	80.001	19.994	104.015	19.230	55.954	0.508
514.000	327.882	80.001	19.993	104.010	19.240	55.312	0.513
514.500	328.109	80.002	19.996	104.008	19.244	55.027	0.496
515.000	328.390	80.002	19.995	104.004	19.248	54.706	0.489
515.500	328.659	80.000	19.994	104.003	19.255	54.243	0.529
516.000	328.861	80.001	20.000	104.003	19.262	53.711	0.511
516.500	329.154	80.000	19.996	104.001	19.268	53.275	0.483
517.000	329.392	80.002	19.990	103.996	19.275	52.788	0.513
517.500	329.674	79.999	19.987	103.989	19.283	52.198	0.526
518.000	329.926	79.997	19.994	103.982	19.289	51.808	0.528
518.500	330.185	80.000	19.994	103.974	19.297	51.229	0.523
519.000	330.429	80.002	19.992	103.968	19.304	50.729	0.507
519.500	330.691	80.001	19.997	103.965	19.313	50.099	0.504
520.000	330.925	80.000	19.991	103.961	19.322	49.487	0.501
520.500	331.159	79.998	19.996	103.954	19.329	48.967	0.482
521.000	331.416	80.001	19.996	103.947	19.336	48.487	0.479
521.500	331.668	80.001	19.994	103.939	19.347	47.673	0.500
522.000	331.920	79.998	19.997	103.932	19.357	46.997	0.507
522.500	332.162	79.996	20.003	103.926	19.366	46.351	0.499
523.000	332.432	80.002	19.991	103.923	19.373	45.859	0.503
523.500	332.674	80.001	19.992	103.920	19.381	45.314	0.512
524.000	332.907	80.000	19.990	103.918	19.391	44.610	0.494
524.500	333.157	79.998	19.995	103.913	19.401	43.847	0.479
525.000	333.457	79.999	19.997	103.906	19.407	43.475	0.516
525.500	333.682	79.999	19.993	103.901	19.419	42.625	0.537
526.000	333.952	79.999	19.995	103.897	19.427	42.004	0.510
526.500	334.210	80.010	19.985	103.892	19.434	41.517	0.511
527.000	334.490	79.996	19.994	103.892	19.445	40.734	0.533
527.500	334.711	80.003	19.993	103.891	19.452	40.258	0.519
528.000	334.971	80.001	19.995	103.887	19.462	39.540	0.491
528.500	335.193	79.999	19.991	103.883	19.476	38.567	0.482
529.000	335.481	79.995	19.997	103.879	19.479	38.330	0.496
529.500	335.689	80.000	19.995	103.868	19.490	37.582	0.503
530.000	335.943	79.999	19.993	103.862	19.501	36.778	0.479
530.500	336.200	80.000	19.993	103.859	19.510	36.175	0.487
531.000	336.441	80.000	19.994	103.856	19.519	35.525	0.505
531.500	336.720	80.001	19.993	103.852	19.528	34.903	0.509
532.000	336.947	79.998	19.992	103.853	19.540	34.089	0.513
532.500	337.227	80.000	19.992	103.853	19.547	33.549	0.506
533.000	337.437	80.003	19.992	103.853	19.558	32.798	0.498
533.500	337.721	80.000	19.994	103.851	19.566	32.193	0.492
534.000	337.995	80.004	19.992	103.849	19.573	31.731	0.526
534.500	338.215	80.000	19.993	103.844	19.583	30.987	0.526
535.000	338.487	80.001	19.993	103.837	19.590	30.517	0.493
535.500	338.729	80.000	19.992	103.829	19.599	29.864	0.503
536.000	338.991	80.000	19.994	103.822	19.611	29.012	0.509
536.500	339.247	80.001	19.993	103.816	19.618	28.572	0.511
537.000	339.502	80.004	19.992	103.813	19.624	28.114	0.515
537.500	339.745	80.000	19.996	103.814	19.635	27.362	0.505
538.000	339.980	80.001	19.999	103.813	19.644	26.721	0.488
538.500	340.223	80.002	19.998	103.813	19.649	26.388	0.478
539.000	340.481	80.002	19.993	103.813	19.660	25.594	0.490
539.500	340.743	80.002	19.991	103.813	19.666	25.135	0.511
540.000	341.008	79.999	19.993	103.812	19.676	24.491	0.523
540.500	341.257	80.001	19.993	103.810	19.681	24.104	0.520
541.000	341.470	80.002	19.994	103.811	19.685	23.798	0.488
541.500	341.737	80.001	19.998	103.811	19.693	23.271	0.471
542.000	341.987	80.005	19.992	103.809	19.701	22.724	0.498
542.500	342.203	80.003	19.997	103.809	19.710	22.084	0.491
543.000	342.466	80.000	19.996	103.810	19.718	21.527	0.473
543.500	342.708	80.003	19.993	103.810	19.723	21.150	0.492
544.000	342.950	79.999	19.997	103.809	19.724	21.057	0.495
544.500	343.185	80.000	19.994	103.808	19.734	20.398	0.480
545.000	343.427	80.003	19.994	103.803	19.736	20.197	0.477
545.500	343.699	80.000	19.994	103.800	19.745	19.615	0.495
546.000	343.933	80.001	19.994	103.799	19.751	19.159	0.510
546.500	344.200	80.000	19.991	103.799	19.756	18.820	0.504
547.000	344.430	79.997	19.996	103.798	19.760	18.539	0.499
547.500	344.667	80.004	19.993	103.797	19.765	18.200	0.482
548.000	344.943	80.002	19.994	103.796	19.768	17.986	0.490
548.500	345.177	79.997	19.998	103.795	19.775	17.479	0.511
549.000	345.405	79.999	19.993	103.790	19.779	17.221	0.486
549.500	345.680	80.001	19.993	103.789	19.783	16.901	0.483
550.000	345.922	80.003	19.996	103.795	19.784	16.827	0.510
550.500	346.188	80.002	19.991	103.798	19.790	16.442	0.513
551.000	346.413	79.997	20.001	103.800	19.791	16.313	0.500
551.500	346.729	80.003	19.993	103.800	19.795	16.035	0.516
552.000	346.948	80.003	19.990	103.798	19.799	15.744	0.538
552.500	347.158	79.997	19.995	103.793	19.807	15.214	0.482
553.000	347.467	80.002	19.994	103.787	19.807	15.199	0.474
553.500	347.683	80.002	19.994	103.785	19.812	14.888	0.522
554.000	347.916	79.999	19.997	103.789	19.816	14.599	0.487
554.500	348.147	80.001	19.994	103.791	19.818	14.437	0.457
555.000	348.395	80.002	19.995	103.794	19.817	14.488	0.471
555.500	348.682	80.002	19.994	103.800	19.826	13.844	0.507
556.000	348.974	80.003	19.992	103.802	19.827	13.828	0.557
556.500	349.162	79.996	20.001	103.797	19.828	13.739	0.529
557.000	349.466	80.001	19.994	103.795	19.833	13.408	0.486
557.500	349.732	80.000	19.994	103.790	19.837	13.081	0.531
558.000	349.975	79.999	19.997	103.785	19.836	13.160	0.539
558.500	350.199	80.001	19.993	103.779	19.837	13.062	0.488
559.000	350.471	80.004	19.994	103.777	19.841	12.782	0.482
559.500	350.696	80.001	19.994	103.776	19.845	12.563	0.496
560.000	350.990	79.999	19.996	103.775	19.846	12.452	0.508
560.500	351.192	80.001	19.996	103.771	19.845	12.497	0.508
561.000	351.451	80.002	19.996	103.770	19.848	12.338	0.479
561.500	351.709	80.000	19.997	103.772	19.853	11.979	0.489
562.000	351.970	80.001	19.994	103.771	19.853	11.957	0.518
562.500	352.223	80.002	19.994	103.771	19.856	11.788	0.516
563.000	352.461	80.002	19.996	103.772	19.854	11.931	0.502
563.500	352.720	80.001	19.996	103.772	19.856	11.745	0.494
564.000	352.943	80.002	19.997	103.769	19.861	11.388	0.489
564.500	353.234	80.002	19.994	103.769	19.860	11.474	0.498
565.000	353.509	80.002	19.994	103.770	19.864	11.216	0.540
565.500	353.772	79.994	19.997	103.769	19.866	11.027	0.553
566.000	353.987	80.005	19.992	103.770	19.866	11.034	0.508
566.500	354.233	80.000	20.004	103.771	19.868	10.911	0.469
567.000	354.502	80.005	19.998	103.770	19.866	11.018	0.488
567.500	354.778	80.002	19.992	103.770	19.870	10.789	0.530
568.000	354.998	80.000	19.991	103.772	19.870	10.763	0.521
568.500	355.268	80.001	19.997	103.772	19.872	10.596	0.494
569.000	355.537	79.999	19.994	103.771	19.871	10.678	0.515
569.500	355.741	80.000	19.994	103.772	19.872	10.652	0.506
570.000	355.978	80.003	19.998	103.770	19.874	10.519	0.457
570.500	356.271	80.005	19.988	103.768	19.874	10.488	0.485
571.000	356.505	80.002	19.995	103.771	19.876	10.323	0.528
571.500	356.785	80.004	19.994	103.772	19.874	10.476	0.520
572.000	357.013	80.003	19.995	103.773	19.878	10.208	0.511
572.500	357.270	80.003	19.996	103.773	19.880	10.050	0.497
573.000	357.505	80.000	19.996	103.774	19.880	10.058	0.489
573.500	357.799	80.000	19.993	103.770	19.880	10.050	0.511
574.000	358.018	79.999	19.998	103.770	19.881	9.964	0.521
574.500	358.245	80.008	19.987	103.768	19.882	9.921	0.480
575.000	358.530	79.997	19.997	103.773	19.887	9.563	0.479
575.500	358.784	80.004	19.995	103.775	19.882	9.899	0.526
576.000	359.047	79.999	19.997	103.781	19.884	9.756	0.528
576.500	359.287	80.000	19.998	103.787	19.888	9.510	0.510
577.000	359.548	80.006	19.995	103.794	19.888	9.500	0.502
577.500	359.794	80.000	19.997	103.795	19.887	9.590	0.504
578.000	360.017	80.002	19.995	103.793	19.886	9.639	0.488
578.500	360.335	80.007	19.993	103.788	19.887	9.581	0.505
579.000	360.547	80.002	19.996	103.783	19.886	9.635	0.535
579.500	360.812	80.002	19.994	103.776	19.891	9.283	0.504
580.000	361.033	80.003	19.995	103.772	19.890	9.338	0.481
580.500	361.256	79.999	20.002	103.772	19.889	9.447	0.465
581.000	361.540	79.998	19.999	103.771	19.892	9.199	0.476
581.500	361.769	79.998	19.994	103.769	19.895	9.011	0.510
582.000	362.012	80.003	19.991	103.769	19.895	9.034	0.493
582.500	362.314	80.001	19.995	103.769	19.893	9.140	0.509
583.000	362.526	80.001	19.994	103.772	19.894	9.087	0.530
583.500	362.790	79.998	19.992	103.775	19.895	9.021	0.495
584.000	363.061	80.000	19.993	103.777	19.894	9.073	0.505
584.500	363.250	79.995	19.996	103.778	19.896	8.964	0.498
585.000	363.546	80.003	19.994	103.777	19.897	8.892	0.473
585.500	363.761	79.995	20.002	103.775	19.898	8.772	0.498
586.000	364.050	79.998	19.996	103.773	19.897	8.839	0.507
586.500	364.303	80.000	19.993	103.773	19.895	8.974	0.523
587.000	364.548	80.001	19.991	103.773	19.896	8.913	0.520
587.500	364.787	79.998	19.990	103.774	19.898	8.811	0.491
588.000	365.038	79.997	20.003	103.774	19.900	8.669	0.487
588.500	365.305	80.000	19.995	103.773	19.899	8.747	0.504
589.000	365.538	79.999	19.991	103.775	19.896	8.929	0.509
589.500	365.788	80.001	19.995	103.775	19.901	8.597	0.491
590.000	366.045	79.999	19.997	103.774	19.900	8.649	0.495
590.500	366.336	79.998	19.992	103.773	19.901	8.548	0.528
591.000	366.558	79.995	19.999	103.773	19.902	8.520	0.530
591.500	366.777	79.998	20.000	103.771	19.903	8.462	0.477
592.000	367.059	80.005	19.991	103.771	19.903	8.436	0.472
592.500	367.256	79.995	20.005	103.772	19.903	8.434	0.491
593.000	367.530	79.996	19.995	103.770	19.903	8.421	0.475
593.500	367.808	79.996	19.998	103.770	19.905	8.329	0.511
594.000	368.029	79.996	19.996	103.770	19.905	8.289	0.526
594.500	368.290	79.998	19.999	103.770	19.905	8.311	0.491
595.000	368.537	80.003	19.997	103.769	19.907	8.174	0.495
595.500	368.791	80.000	19.994	103.771	19.906	8.262	0.504
596.000	369.032	79.998	19.999	103.772	19.907	8.172	0.498
596.500	369.305	80.000	19.994	103.771	19.906	8.258	0.505
597.000	369.520	79.998	19.993	103.772	19.907	8.129	0.501
597.500	369.803	79.996	19.992	103.772	19.909	8.041	0.493
598.000	370.046	80.000	19.998	103.771	19.909	8.004	0.512
598.500	370.324	80.001	19.991	103.770	19.908	8.094	0.524
599.000	370.561	80.004	19.991	103.772	19.908	8.107	0.518
599.500	370.802	80.000	19.995	103.774	19.907	8.192	0.496
600.000	371.029	79.995	20.002	103.774	19.911	7.885	0.473
600.500	371.277	80.001	19.993	103.773	19.907	8.137	0.471
601.000	371.535	80.001	19.994	103.773	19.907	8.182	0.490
601.500	371.805	79.999	19.999	103.772	19.909	7.988	0.517
602.000	372.039	80.001	19.990	103.771	19.911	7.871	0.516
602.500	372.294	79.998	19.997	103.773	19.911	7.900	0.497
603.000	372.530	79.998	19.993	103.774	19.912	7.787	0.490
603.500	372.822	79.993	20.002	103.774	19.909	8.033	0.509
604.000	373.064	80.001	19.989	103.773	19.913	7.756	0.531
604.500	373.308	79.995	19.998	103.774	19.912	7.795	0.510
605.000	373.561	79.996	19.998	103.772	19.912	7.810	0.492
605.500	373.860	80.001	19.994	103.772	19.912	7.816	0.524
606.000	374.104	79.996	19.995	103.772	19.915	7.578	0.547
606.500	374.356	79.997	19.993	103.774	19.914	7.681	0.519
607.000	374.612	80.000	19.999	103.773	19.912	7.820	0.502
607.500	374.821	79.997	20.000	103.774	19.910	7.945	0.487
608.000	375.108	79.994	20.000	103.773	19.913	7.707	0.480
608.500	375.346	79.996	19.996	103.772	19.911	7.869	0.510
609.000	375.599	80.000	19.992	103.772	19.913	7.765	0.508
609.500	375.834	79.995	19.999	103.773	19.912	7.781	0.490
610.000	376.116	80.001	19.997	103.772	19.913	7.757	0.503
610.500	376.387	80.001	19.993	103.773	19.914	7.695	0.535
611.000	376.606	79.997	20.001	103.774	19.914	7.681	0.521
611.500	376.842	80.001	19.996	103.774	19.917	7.480	0.473
612.000	377.118	80.004	19.994	103.773	19.915	7.585	0.483
612.500	377.344	79.998	19.996	103.775	19.920	7.255	0.507
613.000	377.606	80.002	19.992	103.775	19.918	7.386	0.495
613.500	377.841	79.999	19.999	103.774	19.917	7.487	0.492
614.000	378.123	79.999	19.994	103.774	19.916	7.495	0.507
614.500	378.353	80.003	19.995	103.774	19.916	7.507	0.514
615.000	378.601	80.003	19.989	103.773	19.919	7.333	0.495
615.500	378.863	80.000	19.995	103.774	19.920	7.237	0.495
616.000	379.085	80.001	19.993	103.773	19.916	7.495	0.497
616.500	379.356	80.000	19.996	103.774	19.920	7.256	0.488
617.000	379.621	80.000	19.993	103.773	19.918	7.360	0.515
617.500	379.857	80.007	19.988	103.773	19.921	7.190	0.518
618.000	380.123	80.007	19.993	103.775	19.921	7.192	0.501
618.500	380.356	80.008	19.991	103.775	19.922	7.090	0.500
619.000	380.645	80.000	19.998	103.776	19.921	7.151	0.510
619.500	380.897	80.002	19.995	103.775	19.921	7.147	0.532
620.000	381.098	80.003	19.994	103.774	19.922	7.090	0.497
620.500	381.361	80.001	19.996	103.771	19.919	7.299	0.459
621.000	381.599	80.001	19.995	103.771	19.920	7.227	0.482
621.500	381.845	80.002	19.992	103.770	19.920	7.210	0.492
622.000	382.117	80.000	19.990	103.771	19.921	7.171	0.501
622.500	382.347	79.997	19.999	103.771	19.917	7.431	0.510
623.000	382.604	80.002	19.996	103.771	19.921	7.151	0.494
623.500	382.825	80.001	19.996	103.770	19.920	7.253	0.483
624.000	383.093	80.003	19.992	103.769	19.921	7.173	0.484
624.500	383.385	80.001	19.994	103.769	19.922	7.090	0.524
625.000	383.601	80.007	19.992	103.769	19.920	7.216	0.534
625.500	383.887	79.999	19.996	103.770	19.919	7.315	0.505
626.000	384.089	80.000	19.995	103.769	19.924	6.985	0.495
626.500	384.374	80.000	19.996	103.769	19.923	7.010	0.488
627.000	384.614	79.999	19.997	103.769	19.921	7.188	0.506
627.500	384.888	80.004	19.990	103.768	19.919	7.327	0.520
628.000	385.117	80.000	19.997	103.767	19.922	7.090	0.509
628.500	385.371	80.000	19.998	103.768	19.919	7.303	0.493
629.000	385.594	80.003	19.999	103.765	19.923	7.018	0.480
629.500	385.881	80.002	19.998	103.765	19.924	6.987	0.493
630.000	386.139	80.001	19.994	103.765	19.925	6.916	0.528
630.500	386.414	80.003	19.994	103.765	19.925	6.854	0.539
631.000	386.634	80.000	19.994	103.766	19.927	6.746	0.514
631.500	386.893	80.002	19.994	103.769	19.924	6.953	0.487
632.000	387.128	80.001	19.994	103.769	19.925	6.893	0.486
632.500	387.403	80.006	19.995	103.771	19.926	6.822	0.502
633.000	387.638	80.001	19.995	103.772	19.927	6.770	0.510
633.500	387.911	80.003	19.992	103.772	19.921	7.176	0.509
634.000	388.153	80.001	19.994	103.772	19.926	6.795	0.511
634.500	388.403	80.001	19.993	103.772	19.926	6.838	0.503
635.000	388.639	80.000	19.993	103.772	19.925	6.875	0.489
635.500	388.890	80.004	19.995	103.770	19.926	6.836	0.487
636.000	389.162	80.004	19.995	103.771	19.925	6.881	0.506
636.500	389.395	80.004	19.995	103.771	19.926	6.839	0.514
637.000	389.634	80.003	19.992	103.771	19.929	6.599	0.488
637.500	389.907	80.002	19.995	103.771	19.929	6.636	0.492
638.000	390.121	80.004	19.994	103.770	19.928	6.709	0.500
638.500	390.377	80.002	19.998	103.769	19.929	6.580	0.479
639.000	390.617	80.003	19.995	103.768	19.928	6.656	0.483
639.500	390.898	80.002	19.994	103.768	19.926	6.834	0.509
640.000	391.161	80.002	19.994	103.769	19.927	6.750	0.532
640.500	391.386	80.002	19.996	103.771	19.927	6.738	0.516
641.000	391.648	80.002	19.993	103.771	19.928	6.660	0.488
641.500	391.913	80.002	19.993	103.771	19.930	6.564	0.507
642.000	392.165	80.005	19.994	103.771	19.929	6.638	0.522
642.500	392.408	80.004	19.994	103.770	19.928	6.683	0.506
643.000	392.659	80.003	19.995	103.770	19.928	6.711	0.495
643.500	392.926	80.003	19.994	103.770	19.925	6.887	0.506
644.000	393.167	80.003	19.996	103.770	19.929	6.638	0.513
644.500	393.441	80.003	19.996	103.770	19.925	6.863	0.512
645.000	393.675	80.003	19.993	103.770	19.928	6.681	0.512
645.500	393.928	80.005	19.996	103.769	19.928	6.644	0.497
646.000	394.196	80.005	19.996	103.768	19.931	6.466	0.503
646.500	394.466	80.005	19.995	103.763	19.929	6.627	0.530
647.000	394.679	80.004	19.996	103.763	19.930	6.502	0.511
647.500	394.903	80.005	19.994	103.763	19.933	6.355	0.460
648.000	395.175	80.004	19.995	103.764	19.933	6.359	0.466
648.500	395.439	80.004	19.994	103.765	19.930	6.554	0.516
649.000	395.691	80.003	19.995	103.769	19.931	6.486	0.526
649.500	395.960	80.003	19.994	103.770	19.930	6.529	0.518
650.000	396.164	80.003	19.994	103.770	19.932	6.419	0.497
650.500	396.433	80.003	19.993	103.770	19.928	6.666	0.473
651.000	396.691	80.003	19.994	103.770	19.931	6.461	0.500
651.500	396.946	80.003	19.996	103.770	19.931	6.484	0.520
652.000	397.183	80.003	19.998	103.770	19.930	6.508	0.502
652.500	397.442	80.002	19.995	103.770	19.932	6.378	0.494
653.000	397.665	80.001	19.996	103.770	19.932	6.406	0.489
653.500	397.935	80.001	19.996	103.770	19.931	6.494	0.488
654.000	398.229	80.001	19.996	103.769	19.932	6.427	0.529
654.500	398.404	79.999	19.997	103.769	19.927	6.740	0.516
655.000	398.665	80.000	19.995	103.768	19.931	6.457	0.452
655.500	398.951	80.001	19.995	103.768	19.931	6.494	0.492
656.000	399.185	80.000	19.994	103.766	19.933	6.359	0.534
656.500	399.451	80.000	19.994	103.768	19.935	6.165	0.510
657.000	399.681	80.000	19.995	103.769	19.934	6.244	0.498
657.500	399.946	80.000	19.994	103.770	19.932	6.414	0.495
658.000	400.179	79.999	19.995	103.771	19.933	6.351	0.497
658.500	400.454	80.002	19.994	103.772	19.934	6.279	0.503
659.000	400.696	80.001	19.994	103.771	19.933	6.290	0.512
659.500	400.960	80.000	19.994	103.772	19.935	6.202	0.511
660.000	401.206	80.001	19.994	103.771	19.935	6.206	0.508
660.500	401.466	80.000	19.995	103.771	19.932	6.363	0.508
661.000	401.692	80.001	19.994	103.771	19.933	6.314	0.496
661.500	401.930	80.000	19.994	103.772	19.935	6.206	0.475
662.000	402.229	80.000	19.994	103.772	19.933	6.314	0.501
662.500	402.436	80.001	19.994	103.772	19.932	6.423	0.521
663.000	402.706	80.000	19.995	103.772	19.934	6.232	0.492
663.500	402.939	80.000	19.994	103.772	19.936	6.132	0.490
664.000	403.216	80.000	19.994	103.772	19.936	6.126	0.507
664.500	403.435	79.999	19.994	103.772	19.935	6.151	0.502
665.000	403.721	80.001	19.994	103.772	19.930	6.533	0.500
665.500	403.960	79.999	19.995	103.773	19.935	6.210	0.515
666.000	404.185	80.000	19.996	103.773	19.932	6.392	0.495
666.500	404.420	80.002	19.994	103.773	19.935	6.189	0.462
667.000	404.697	80.000	19.995	103.773	19.940	5.860	0.486
667.500	404.952	79.999	19.995	103.773	19.935	6.175	0.522
668.000	405.188	80.000	19.994	103.773	19.937	6.028	0.512
668.500	405.431	80.001	19.994	103.773	19.935	6.169	0.485
669.000	405.669	79.998	19.995	103.773	19.937	6.046	0.480
669.500	405.961	79.999	19.993	103.773	19.935	6.191	0.505
670.000	406.200	80.000	19.994	103.773	19.934	6.279	0.530
670.500	406.438	79.999	19.996	103.773	19.934	6.238	0.504
671.000	406.693	80.000	19.995	103.773	19.933	6.333	0.486
671.500	406.949	79.999	19.994	103.774	19.936	6.130	0.502
672.000	407.190	80.002	19.993	103.774	19.933	6.318	0.504
672.500	407.428	80.000	19.995	103.774	19.933	6.296	0.488
673.000	407.712	79.999	19.995	103.773	19.932	6.399	0.500
673.500	407.967	80.001	19.994	103.773	19.935	6.192	0.531
674.000	408.205	79.999	19.994	103.772	19.935	6.157	0.516
674.500	408.440	79.999	19.995	103.772	19.934	6.221	0.483
675.000	408.718	80.002	19.995	103.771	19.933	6.358	0.492
675.500	408.956	80.001	19.995	103.771	19.935	6.180	0.515
676.000	409.214	80.000	19.993	103.769	19.935	6.172	0.506
676.500	409.464	80.000	19.996	103.769	19.944	5.556	0.502
677.000	409.710	80.002	19.995	103.768	19.949	5.192	0.502
677.500	409.970	79.999	19.995	103.769	19.945	5.468	0.501
678.000	410.195	80.001	19.994	103.770	19.941	5.752	0.495
678.500	410.494	80.001	19.994	103.773	19.936	6.116	0.504
679.000	410.723	80.000	19.995	103.773	19.935	6.194	0.526
679.500	410.945	80.001	19.994	103.772	19.941	5.725	0.489
680.000	411.231	80.000	19.995	103.772	19.938	5.952	0.480
680.500	411.489	80.000	19.996	103.771	19.939	5.934	0.526
681.000	411.758	79.999	19.995	103.771	19.936	6.112	0.535
681.500	411.988	79.999	19.995	103.771	19.941	5.784	0.513
682.000	412.249	79.999	19.995	103.771	19.937	6.036	0.495
682.500	412.493	80.000	19.996	103.770	19.939	5.934	0.498
683.000	412.743	80.000	19.996	103.769	19.937	6.059	0.500
683.500	412.957	79.999	19.994	103.766	19.936	6.108	0.479
684.000	413.238	80.001	19.994	103.764	19.936	6.139	0.480
684.500	413.479	80.000	19.994	103.762	19.938	5.980	0.509
685.000	413.722	80.002	19.995	103.761	19.937	6.072	0.503
685.500	413.990	80.000	19.997	103.762	19.936	6.129	0.497
686.000	414.238	79.999	19.996	103.763	19.938	5.969	0.513
686.500	414.445	80.000	19.995	103.762	19.937	6.008	0.485
687.000	414.732	80.000	19.994	103.757	19.939	5.910	0.475
687.500	414.950	80.001	19.995	103.752	19.939	5.907	0.499
688.000	415.184	79.998	19.994	103.752	19.942	5.662	0.478
688.500	415.457	79.999	19.996	103.752	19.940	5.840	0.479
689.000	415.696	80.000	19.993	103.755	19.942	5.709	0.510
689.500	415.943	79.999	19.995	103.760	19.938	5.955	0.499
690.000	416.232	80.000	19.995	103.766	19.936	6.145	0.511
690.500	416.451	80.001	19.997	103.765	19.939	5.910	0.522
691.000	416.698	80.001	19.994	103.765	19.941	5.785	0.487
691.500	416.938	80.002	19.995	103.766	19.941	5.744	0.477
692.000	417.214	80.003	19.990	103.767	19.941	5.755	0.501
692.500	417.521	80.001	19.996	103.769	19.941	5.782	0.549
693.000	417.731	79.999	19.995	103.768	19.943	5.619	0.550
693.500	417.993	80.001	19.995	103.765	19.939	5.885	0.495
694.000	418.256	79.998	19.998	103.762	19.940	5.820	0.498
694.500	418.483	80.003	19.995	103.756	19.941	5.777	0.507
695.000	418.744	79.995	19.994	103.753	19.944	5.581	0.490
695.500	418.979	79.996	20.006	103.755	19.941	5.761	0.492
696.000	419.247	80.002	19.994	103.757	19.940	5.843	0.499
696.500	419.482	79.999	20.003	103.760	19.942	5.672	0.503
697.000	419.792	79.997	19.995	103.763	19.942	5.715	0.524
697.500	419.973	80.000	19.995	103.764	19.943	5.619	0.518
698.000	420.213	80.003	19.991	103.764	19.945	5.486	0.456
698.500	420.503	79.997	19.996	103.766	19.942	5.697	0.475
699.000	420.753	80.002	19.995	103.764	19.943	5.641	0.535
699.500	420.988	80.003	19.994	103.765	19.941	5.729	0.512
700.000	421.243	80.001	19.996	103.765	19.940	5.836	0.487
700.500	421.521	80.003	19.993	103.764	19.942	5.703	0.511
701.000	421.765	80.002	19.998	103.763	19.942	5.707	0.527
701.500	422.004	80.002	19.996	103.760	19.940	5.836	0.503
702.000	422.267	80.000	19.997	103.757	19.942	5.717	0.493
702.500	422.512	80.002	20.000	103.755	19.943	5.605	0.506
703.000	422.770	79.999	19.999	103.749	19.940	5.856	0.506
703.500	422.994	80.003	19.991	103.748	19.943	5.625	0.492
704.000	423.288	80.000	19.996	103.753	19.941	5.752	0.500
704.500	423.505	80.005	19.993	103.756	19.940	5.816	0.514
705.000	423.750	80.002	19.993	103.751	19.941	5.754	0.486
705.500	423.986	80.003	19.994	103.754	19.938	5.951	0.471
706.000	424.240	80.002	19.994	103.756	19.941	5.789	0.486
706.500	424.492	80.001	19.994	103.754	19.939	5.933	0.498
707.000	424.735	80.003	19.994	103.753	19.941	5.781	0.500
707.500	425.037	80.002	19.996	103.760	19.941	5.773	0.520
708.000	425.246	80.002	19.994	103.762	19.942	5.698	0.528
708.500	425.540	80.002	19.994	103.763	19.941	5.786	0.506
709.000	425.777	80.002	19.994	103.764	19.943	5.640	0.517
709.500	426.029	80.002	19.993	103.764	19.942	5.701	0.510
710.000	426.243	80.002	19.994	103.766	19.943	5.644	0.477
710.500	426.504	80.002	19.995	103.766	19.944	5.531	0.471
711.000	426.741	80.002	19.993	103.764	19.940	5.836	0.487
711.500	426.978	80.002	19.995	103.761	19.942	5.701	0.486
712.000	427.255	80.003	19.993	103.763	19.942	5.693	0.494
712.500	427.497	80.001	19.994	103.762	19.943	5.619	0.516
713.000	427.745	80.002	19.996	103.760	19.942	5.714	0.504
713.500	428.000	80.000	19.997	103.759	19.940	5.826	0.496
714.000	428.266	80.001	19.995	103.761	19.942	5.697	0.512
714.500	428.490	80.001	19.996	103.757	19.939	5.877	0.506
715.000	428.719	80.000	19.994	103.754	19.940	5.796	0.471
715.500	428.992	80.000	19.994	103.756	19.941	5.728	0.477
716.000	429.222	80.000	19.995	103.758	19.942	5.671	0.502
716.500	429.485	80.001	19.994	103.754	19.943	5.602	0.498
717.000	429.761	80.002	19.995	103.756	19.944	5.573	0.516
717.500	429.985	80.001	19.995	103.755	19.944	5.552	0.519
718.000	430.243	80.001	19.994	103.751	19.942	5.657	0.491
718.500	430.509	80.001	19.993	103.747	19.942	5.677	0.503
719.000	430.752	80.000	19.995	103.749	19.944	5.581	0.517
719.500	430.942	80.001	19.993	103.747	19.942	5.677	0.471
720.000	431.204	80.002	19.993	103.749	19.945	5.507	0.443
720.500	431.445	80.001	19.994	103.755	19.941	5.785	0.477
721.000	431.696	80.002	19.994	103.761	19.943	5.641	0.497
721.500	431.971	80.003	19.994	103.766	19.942	5.656	0.509
722.000	432.229	80.002	19.994	103.769	19.946	5.379	0.530
722.500	432.458	80.003	19.994	103.768	19.941	5.731	0.509
723.000	432.734	80.001	19.994	103.763	19.941	5.739	0.496
723.500	432.959	80.003	19.995	103.760	19.942	5.676	0.504
724.000	433.211	80.002	19.995	103.756	19.945	5.494	0.489
724.500	433.442	80.004	19.994	103.753	19.943	5.621	0.480
725.000	433.726	80.004	19.994	103.752	19.942	5.654	0.499
725.500	433.980	80.003	19.993	103.751	19.943	5.585	0.527
726.000	434.273	80.005	19.994	103.749	19.944	5.577	0.542
726.500	434.480	80.002	19.993	103.748	19.942	5.693	0.523
727.000	434.733	80.003	19.995	103.746	19.940	5.826	0.480
727.500	435.012	80.003	19.993	103.746	19.941	5.771	0.496
728.000	435.222	80.003	19.995	103.748	19.944	5.537	0.511
728.500	435.496	80.006	19.994	103.749	19.943	5.644	0.486
729.000	435.723	80.004	19.994	103.746	19.944	5.560	0.492
729.500	436.002	80.003	19.994	103.745	19.943	5.609	0.503
730.000	436.199	80.004	19.993	103.745	19.942	5.707	0.491
730.500	436.496	80.002	19.994	103.747	19.943	5.593	0.485
731.000	436.742	80.004	19.994	103.751	19.945	5.468	0.518
731.500	436.997	80.002	19.994	103.757	19.945	5.457	0.522
732.000	437.239	80.003	19.992	103.763	19.945	5.474	0.499
732.500	437.496	80.002	19.995	103.768	19.944	5.540	0.498
733.000	437.731	80.002	19.993	103.769	19.943	5.609	0.496
733.500	437.932	80.003	19.992	103.768	19.945	5.505	0.464
734.000	438.214	80.001	19.994	103.767	19.945	5.469	0.460
734.500	438.487	80.002	19.994	103.766	19.947	5.362	0.519
735.000	438.706	80.001	19.995	103.762	19.946	5.372	0.523
735.500	438.952	80.001	19.994	103.760	19.948	5.282	0.479
736.000	439.207	80.000	19.994	103.755	19.946	5.374	0.483
736.500	439.445	80.001	19.993	103.749	19.946	5.400	0.497
737.000	439.694	80.000	19.994	103.747	19.948	5.284	0.490
737.500	439.982	80.001	19.993	103.750	19.945	5.501	0.512
738.000	440.232	80.000	19.993	103.752	19.944	5.544	0.538
738.500	440.457	80.001	19.994	103.756	19.945	5.476	0.506
739.000	440.728	80.001	19.993	103.761	19.942	5.665	0.485
739.500	440.988	80.002	19.994	103.762	19.946	5.379	0.513
740.000	441.224	80.001	19.994	103.760	19.945	5.460	0.514
740.500	441.437	80.001	19.994	103.760	19.946	5.379	0.472
741.000	441.704	80.001	19.995	103.763	19.945	5.477	0.465
741.500	441.953	80.000	19.993	103.760	19.946	5.430	0.498
742.000	442.202	79.999	19.995	103.763	19.945	5.481	0.507
742.500	442.446	80.001	19.993	103.763	19.946	5.434	0.495
743.000	442.706	80.000	19.994	103.758	19.945	5.465	0.498
743.500	442.950	80.001	19.994	103.751	19.946	5.424	0.504
744.000	443.197	80.000	19.994	103.753	19.947	5.356	0.498
744.500	443.468	80.001	19.995	103.747	19.948	5.297	0.504
745.000	443.740	80.001	19.996	103.745	19.946	5.393	0.530
745.500	443.948	80.001	19.995	103.748	19.949	5.190	0.512
746.000	444.218	80.002	19.994	103.753	19.948	5.278	0.479
746.500	444.475	80.002	19.994	103.751	19.947	5.341	0.502
747.000	444.701	80.001	19.994	103.755	19.948	5.289	0.505
747.500	444.950	80.001	19.994	103.756	19.946	5.377	0.479
748.000	445.222	80.001	19.995	103.752	19.947	5.325	0.498
748.500	445.466	80.001	19.994	103.749	19.945	5.507	0.519
749.000	445.728	80.000	19.995	103.751	19.946	5.431	0.511
749.500	445.984	80.001	19.995	103.750	19.945	5.493	0.512
750.000	446.202	80.001	19.995	103.746	19.945	5.480	0.496
750.500	446.427	80.001	19.995	103.745	19.949	5.214	0.459
751.000	446.719	80.002	19.995	103.742	19.944	5.562	0.480
751.500	446.946	80.000	19.995	103.736	19.946	5.423	0.518
752.000	447.206	80.001	19.995	103.734	19.946	5.401	0.503
752.500	447.441	80.000	19.996	103.736	19.947	5.356	0.491
753.000	447.724	80.001	19.995	103.737	19.946	5.413	0.507
753.500	447.973	80.001	19.994	103.739	19.948	5.253	0.525
754.000	448.189	80.001	19.995	103.739	19.948	5.278	0.499
754.500	448.493	80.001	19.993	103.740	19.946	5.434	0.493
755.000	448.729	80.001	19.996	103.740	19.951	5.036	0.530
755.500	449.000	80.001	19.998	103.746	19.949	5.196	0.523
756.000	449.234	80.002	19.996	103.751	19.949	5.198	0.506
756.500	449.476	80.001	19.999	103.752	19.949	5.226	0.490
757.000	449.718	80.001	20.000	103.751	19.948	5.263	0.480
757.500	449.973	80.001	20.000	103.750	19.947	5.368	0.490
758.000	450.216	80.002	19.999	103.744	19.947	5.306	0.498
758.500	450.508	80.001	19.997	103.743	19.950	5.098	0.516
759.000	450.694	80.000	19.997	103.748	19.946	5.380	0.506
759.500	451.006	80.002	19.996	103.749	19.949	5.184	0.488
760.000	451.235	80.001	19.995	103.751	19.949	5.190	0.519
760.500	451.492	80.002	19.996	103.754	19.951	5.080	0.513
761.000	451.732	80.000	19.996	103.754	19.943	5.589	0.491
761.500	451.976	80.001	19.995	103.751	19.948	5.294	0.491
762.000	452.222	80.002	19.994	103.749	19.948	5.231	0.488
762.500	452.478	80.000	19.996	103.750	19.948	5.267	0.496
763.000	452.722	80.002	19.995	103.749	19.951	5.032	0.501
763.500	452.977	80.001	19.995	103.747	19.947	5.347	0.499
764.000	453.278	80.000	19.996	103.748	19.951	5.020	0.527
764.500	453.490	80.000	19.995	103.751	19.948	5.241	0.534
765.000	453.755	80.000	19.995	103.749	19.949	5.188	0.495
765.500	454.036	80.002	19.995	103.749	19.947	5.314	0.511
766.000	454.271	80.001	19.995	103.752	19.950	5.138	0.531
766.500	454.532	80.000	19.994	103.752	19.950	5.118	0.506
767.000	454.775	80.000	19.995	103.753	19.950	5.146	0.500
767.500	455.062	80.001	19.996	103.756	19.951	5.040	0.517
768.000	455.339	80.001	19.995	103.760	19.948	5.265	0.547
768.500	455.589	80.001	19.995	103.757	19.950	5.155	0.546
769.000	455.826	80.000	19.995	103.754	19.948	5.253	0.507
769.500	456.102	80.000	19.995	103.750	19.952	5.012	0.500
770.000	456.346	80.001	19.996	103.746	19.951	5.081	0.517
770.500	456.626	80.001	19.995	103.740	19.951	5.069	0.522
771.000	456.876	79.999	19.996	103.742	19.948	5.261	0.526
771.500	457.123	80.000	19.995	103.747	19.955	4.795	0.514
772.000	457.413	80.000	19.995	103.751	19.954	4.831	0.518
772.500	457.639	79.999	19.996	103.751	19.952	4.981	0.527
773.000	457.953	80.002	19.995	103.756	19.951	5.044	0.527
773.500	458.180	80.000	19.995	103.758	19.951	5.022	0.540
774.000	458.423	80.000	19.996	103.754	19.951	5.067	0.506
774.500	458.696	80.000	19.995	103.752	19.953	4.895	0.493
775.000	458.943	80.001	19.995	103.757	19.947	5.304	0.518
775.500	459.233	80.001	19.996	103.756	19.953	4.926	0.528
776.000	459.490	80.001	19.995	103.756	19.950	5.112	0.542
776.500	459.758	80.001	19.994	103.761	19.953	4.944	0.537
777.000	459.999	80.000	19.996	103.764	19.950	5.094	0.517
777.500	460.268	80.001	19.996	103.764	19.952	5.014	0.510
778.000	460.508	80.000	19.996	103.764	19.951	5.061	0.509
778.500	460.753	80.002	19.995	103.764	19.954	4.854	0.496
779.000	461.018	80.001	19.995	103.762	19.950	5.112	0.497
779.500	461.310	80.002	19.996	103.759	19.952	4.963	0.534
780.000	461.572	80.001	19.996	103.757	19.955	4.789	0.556
780.500	461.816	80.001	19.996	103.755	19.950	5.123	0.530
781.000	462.082	80.002	19.996	103.755	19.950	5.118	0.508
781.500	462.359	80.001	19.995	103.752	19.950	5.149	0.527
782.000	462.644	80.002	19.995	103.754	19.951	5.073	0.552
782.500	462.890	80.001	19.996	103.757	19.949	5.184	0.546
783.000	463.148	80.000	19.996	103.760	19.951	5.042	0.517
783.500	463.389	80.001	19.996	103.760	19.950	5.132	0.502
784.000	463.657	80.001	19.995	103.763	19.950	5.103	0.505
784.500	463.921	80.002	19.994	103.761	19.952	5.005	0.521
785.000	464.174	80.001	19.996	103.762	19.951	5.081	0.524
785.500	464.434	80.003	19.996	103.761	19.951	5.023	0.515
786.000	464.742	80.002	19.995	103.757	19.950	5.097	0.540
786.500	464.988	80.002	19.995	103.754	19.951	5.032	0.561
787.000	465.226	80.003	19.994	103.752	19.955	4.795	0.519
787.500	465.505	80.003	19.995	103.749	19.951	5.047	0.501
788.000	465.763	80.001	19.994	103.746	19.950	5.137	0.527
788.500	466.023	80.002	19.994	103.747	19.950	5.104	0.528
789.000	466.260	80.001	19.995	103.749	19.951	5.061	0.507
789.500	466.567	80.002	19.994	103.749	19.954	4.832	0.520
790.000	466.821	80.002	19.994	103.750	19.949	5.180	0.552
790.500	467.063	80.002	19.995	103.750	19.952	5.004	0.529
791.000	467.361	80.003	19.994	103.750	19.954	4.877	0.518
791.500	467.601	80.001	19.995	103.746	19.952	5.008	0.539
792.000	467.905	80.003	19.993	103.748	19.951	5.049	0.541
792.500	468.159	80.002	19.993	103.747	19.951	5.035	0.551
793.000	468.381	80.002	19.995	103.751	19.953	4.933	0.517
793.500	468.658	80.001	19.995	103.754	19.953	4.910	0.488
794.000	468.957	80.003	19.994	103.756	19.955	4.789	0.538
794.500	469.205	80.002	19.993	103.759	19.952	4.965	0.561
795.000	469.449	80.002	19.993	103.763	19.953	4.900	0.519
795.500	469.734	80.002	19.995	103.763	19.953	4.928	0.510
796.000	469.972	80.002	19.994	103.764	19.952	5.018	0.527
796.500	470.252	80.002	19.993	103.765	19.955	4.793	0.521
797.000	470.546	80.001	19.994	103.759	19.953	4.918	0.546
797.500	470.813	80.001	19.994	103.757	19.953	4.906	0.568
798.000	471.092	80.002	19.993	103.753	19.955	4.767	0.554
798.500	471.353	80.002	19.994	103.747	19.955	4.785	0.543
799.000	471.591	80.002	19.994	103.745	19.958	4.580	0.520
799.500	471.846	80.002	19.994	103.749	19.955	4.762	0.496
800.000	472.133	80.001	19.993	103.747	19.953	4.906	0.518
800.500	472.417	80.002	19.994	103.748	19.956	4.689	0.556
801.000	472.688	80.001	19.994	103.751	19.956	4.693	0.562
801.500	472.947	80.002	19.994	103.751	19.956	4.687	0.542
802.000	473.213	80.001	19.995	103.745	19.953	4.935	0.527
802.500	473.499	80.002	19.994	103.743	19.954	4.843	0.539
803.000	473.771	80.002	19.994	103.740	19.954	4.818	0.556
803.500	474.041	80.003	19.994	103.738	19.957	4.644	0.550
804.000	474.292	80.002	19.995	103.737	19.958	4.583	0.532
804.500	474.568	80.004	19.993	103.739	19.958	4.532	0.524
805.000	474.860	80.003	19.994	103.740	19.956	4.705	0.547
805.500	475.121	80.001	19.994	103.740	19.954	4.850	0.561
806.000	475.392	80.003	19.994	103.743	19.954	4.830	0.543
806.500	475.642	80.002	19.994	103.748	19.956	4.707	0.526
807.000	475.943	80.004	19.994	103.748	19.958	4.561	0.536
807.500	476.230	80.003	19.993	103.748	19.955	4.762	0.569
808.000	476.483	80.002	19.994	103.750	19.957	4.638	0.564
808.500	476.714	80.004	19.993	103.749	19.954	4.847	0.512
809.000	476.996	80.005	19.994	103.746	19.957	4.611	0.499
809.500	477.262	80.005	19.994	103.745	19.953	4.918	0.531
810.000	477.553	80.004	19.994	103.746	19.954	4.839	0.552
810.500	477.833	80.005	19.995	103.747	19.956	4.681	0.563
811.000	478.086	80.003	19.995	103.748	19.954	4.824	0.552
811.500	478.348	80.005	19.994	103.746	19.955	4.802	0.524
812.000	478.632	80.002	19.994	103.744	19.957	4.650	0.531
812.500	478.928	80.004	19.995	103.741	19.958	4.542	0.563
813.000	479.159	80.004	19.994	103.737	19.955	4.736	0.554
813.500	479.455	80.003	19.994	103.734	19.955	4.747	0.527
814.000	479.701	80.003	19.994	103.732	19.959	4.460	0.535
814.500	480.005	80.003	19.993	103.734	19.956	4.720	0.546
815.000	480.232	80.001	19.993	103.733	19.959	4.491	0.540
815.500	480.525	80.003	19.996	103.734	19.955	4.806	0.526
816.000	480.761	80.003	19.996	103.741	19.960	4.384	0.525
816.500	481.030	80.001	19.996	103.749	19.959	4.513	0.517
817.000	481.309	80.002	19.997	103.753	19.959	4.499	0.526
817.500	481.580	80.001	19.995	103.757	19.956	4.667	0.549
818.000	481.850	80.002	19.994	103.756	19.958	4.544	0.545
818.500	482.098	80.001	19.995	103.750	19.958	4.585	0.529
819.000	482.385	80.002	19.995	103.744	19.959	4.466	0.527
819.500	482.667	80.001	19.995	103.739	19.957	4.630	0.552
820.000	482.933	80.001	19.995	103.737	19.957	4.605	0.558
820.500	483.163	80.001	19.996	103.739	19.956	4.671	0.522
821.000	483.445	80.002	19.995	103.739	19.960	4.450	0.504
821.500	483.733	80.003	19.996	103.740	19.956	4.702	0.541
822.000	483.983	80.003	19.996	103.741	19.957	4.603	0.554
822.500	484.268	80.002	19.994	103.738	19.958	4.585	0.536
823.000	484.530	80.002	19.995	103.736	19.959	4.476	0.541
823.500	484.756	80.002	19.994	103.736	19.958	4.579	0.517
824.000	485.057	80.002	19.995	103.733	19.958	4.556	0.507
824.500	485.312	80.000	19.995	103.732	19.958	4.579	0.542
825.000	485.586	80.002	19.994	103.732	19.958	4.567	0.543
825.500	485.867	80.002	19.994	103.731	19.955	4.777	0.542
826.000	486.113	80.001	19.995	103.731	19.956	4.700	0.541
826.500	486.355	80.002	19.995	103.731	19.960	4.440	0.507
827.000	486.634	80.003	19.995	103.731	19.957	4.642	0.504
827.500	486.917	80.003	19.994	103.732	19.958	4.589	0.541
828.000	487.206	80.002	19.995	103.732	19.959	4.476	0.567
828.500	487.476	80.001	19.993	103.732	19.959	4.523	0.566
829.000	487.719	80.001	19.995	103.734	19.958	4.558	0.536
829.500	487.979	80.003	19.995	103.733	19.957	4.609	0.508
830.000	488.267	80.002	19.995	103.733	19.958	4.560	0.525
830.500	488.539	80.003	19.995	103.733	19.961	4.313	0.553
831.000	488.791	80.002	19.995	103.733	19.958	4.591	0.541
831.500	489.052	80.002	19.995	103.732	19.958	4.530	0.519
832.000	489.328	80.002	19.995	103.732	19.958	4.548	0.526
832.500	489.591	80.002	19.995	103.733	19.957	4.644	0.538
833.000	489.847	80.002	19.994	103.733	19.959	4.495	0.529
833.500	490.126	80.003	19.994	103.733	19.959	4.517	0.527
834.000	490.377	80.001	19.995	103.733	19.964	4.169	0.533
834.500	490.627	80.002	19.995	103.733	19.959	4.460	0.516
835.000	490.895	80.002	19.995	103.732	19.959	4.515	0.510
835.500	491.180	80.003	19.994	103.731	19.960	4.440	0.536
836.000	491.433	80.002	19.995	103.731	19.957	4.601	0.545
836.500	491.721	80.002	19.996	103.731	19.960	4.452	0.539
837.000	491.956	80.001	19.995	103.731	19.959	4.456	0.532
837.500	492.244	80.001	19.994	103.731	19.957	4.657	0.523
838.000	492.464	80.002	19.995	103.731	19.960	4.403	0.516
838.500	492.767	80.002	19.994	103.731	19.961	4.376	0.516
839.000	493.032	80.001	19.994	103.734	19.961	4.333	0.546
839.500	493.271	80.002	19.994	103.735	19.961	4.343	0.536
840.000	493.528	80.003	19.995	103.735	19.957	4.650	0.500
840.500	493.811	80.002	19.995	103.735	19.961	4.331	0.518
841.000	494.119	80.001	19.996	103.735	19.961	4.327	0.566
841.500	494.392	80.002	19.996	103.733	19.959	4.523	0.586
842.000	494.629	80.002	19.995	103.734	19.959	4.460	0.545
842.500	494.910	80.002	19.995	103.734	19.961	4.341	0.514
843.000	495.184	80.003	19.996	103.736	19.961	4.343	0.537
843.500	495.435	80.000	19.996	103.741	19.961	4.341	0.540
844.000	495.690	80.002	19.996	103.741	19.959	4.489	0.516
844.500	495.947	80.001	19.995	103.739	19.959	4.478	0.509
845.000	496.185	80.000	19.997	103.739	19.960	4.448	0.503
845.500	496.468	80.001	19.996	103.737	19.961	4.378	0.508
846.000	496.733	80.001	19.995	103.733	19.962	4.266	0.535
846.500	496.990	80.001	19.996	103.732	19.961	4.327	0.535
847.000	497.267	80.002	19.996	103.733	19.961	4.341	0.528
847.500	497.516	80.001	19.995	103.733	19.961	4.370	0.530
848.000	497.778	80.002	19.995	103.734	19.961	4.354	0.518
848.500	498.031	80.000	19.994	103.735	19.959	4.454	0.513
849.000	498.307	80.000	19.995	103.735	19.962	4.311	0.522
849.500	498.549	80.000	19.995	103.736	19.961	4.372	0.524
850.000	498.812	80.000	19.995	103.737	19.961	4.368	0.512
850.500	499.094	80.000	19.995	103.737	19.960	4.386	0.525
851.000	499.348	80.000	19.995	103.737	19.960	4.407	0.540
851.500	499.599	79.999	19.995	103.737	19.959	4.495	0.520
852.000	499.836	80.001	19.996	103.737	19.962	4.255	0.497
852.500	500.107	80.000	19.996	103.737	19.960	4.419	0.498
853.000	500.389	80.002	19.996	103.737	19.960	4.419	0.530
853.500	500.653	79.999	19.996	103.738	19.962	4.255	0.549
854.000	500.900	80.000	19.995	103.739	19.962	4.280	0.529
854.500	501.166	80.001	19.995	103.739	19.964	4.108	0.512
855.000	501.388	80.001	19.995	103.739	19.962	4.298	0.501
855.500	501.659	80.002	19.996	103.738	19.962	4.245	0.490
856.000	501.948	80.001	19.996	103.737	19.962	4.249	0.526
856.500	502.192	80.001	19.995	103.736	19.963	4.190	0.546
857.000	502.422	80.001	19.996	103.736	19.963	4.225	0.504
857.500	502.692	80.001	19.996	103.736	19.960	4.409	0.487
858.000	502.943	80.001	19.995	103.735	19.963	4.216	0.510
858.500	503.201	80.002	19.994	103.735	19.961	4.372	0.515
859.000	503.461	80.001	19.995	103.734	19.962	4.290	0.514
859.500	503.746	80.001	19.995	103.734	19.963	4.198	0.531
860.000	503.978	80.001	19.995	103.734	19.963	4.238	0.531
860.500	504.216	80.003	19.996	103.734	19.962	4.294	0.493
861.000	504.478	80.002	19.996	103.734	19.964	4.138	0.485
861.500	504.732	80.003	19.996	103.735	19.962	4.300	0.508
862.000	504.988	80.002	19.994	103.735	19.962	4.245	0.513
862.500	505.233	80.001	19.995	103.735	19.962	4.284	0.506
863.000	505.469	80.003	19.996	103.735	19.960	4.411	0.491
863.500	505.745	80.001	19.993	103.737	19.965	4.100	0.496
864.000	506.002	80.002	19.994	103.736	19.961	4.335	0.522
864.500	506.278	80.003	19.995	103.736	19.963	4.223	0.533
865.000	506.497	80.002	19.996	103.736	19.963	4.200	0.514
865.500	506.753	80.002	19.996	103.737	19.963	4.218	0.485
866.000	506.996	80.001	19.996	103.736	19.962	4.243	0.487
866.500	507.288	80.001	19.994	103.736	19.959	4.476	0.517
867.000	507.545	80.002	19.995	103.736	19.963	4.225	0.542
867.500	507.795	80.002	19.996	103.736	19.960	4.403	0.528
868.000	508.062	80.002	19.996	103.734	19.959	4.460	0.512
868.500	508.314	80.001	19.997	103.734	19.959	4.503	0.518
869.000	508.570	80.001	19.996	103.733	19.961	4.325	0.514
869.500	508.821	80.001	19.995	103.735	19.960	4.393	0.507
870.000	509.112	80.001	19.995	103.739	19.962	4.307	0.524
870.500	509.361	80.001	19.995	103.744	19.961	4.323	0.541
871.000	509.591	80.001	19.996	103.746	19.963	4.225	0.510
871.500	509.831	80.001	19.996	103.747	19.964	4.145	0.474
872.000	510.078	80.001	19.996	103.746	19.962	4.306	0.478
872.500	510.346	80.002	19.996	103.741	19.959	4.493	0.501
873.000	510.593	80.001	19.995	103.736	19.962	4.284	0.515
873.500	510.876	80.003	19.996	103.734	19.959	4.480	0.523
874.000	511.093	80.000	19.996	103.733	19.961	4.335	0.515
874.500	511.355	80.000	19.996	103.733	19.958	4.532	0.489
875.000	511.609	80.000	19.996	103.734	19.963	4.229	0.497
875.500	511.846	79.999	19.999	103.735	19.963	4.202	0.504
876.000	512.099	80.001	19.997	103.737	19.959	4.477	0.491
876.500	512.365	80.002	19.997	103.738	19.962	4.303	0.504
877.000	512.620	80.001	19.997	103.737	19.960	4.389	0.520
877.500	512.884	80.002	19.996	103.735	19.963	4.192	0.520
878.000	513.118	80.002	19.997	103.734	19.965	4.075	0.508
878.500	513.384	80.003	19.996	103.731	19.964	4.129	0.499
879.000	513.636	80.002	19.996	103.730	19.960	4.411	0.509
879.500	513.906	80.001	19.995	103.730	19.963	4.227	0.520
880.000	514.159	80.002	19.997	103.731	19.961	4.343	0.522
880.500	514.407	80.003	19.995	103.733	19.960	4.425	0.512
881.000	514.667	80.001	19.994	103.734	19.964	4.129	0.505
881.500	514.944	80.003	19.996	103.735	19.964	4.170	0.523
882.000	515.181	80.003	19.997	103.737	19.964	4.163	0.526
882.500	515.427	80.001	19.998	103.736	19.964	4.139	0.498
883.000	515.687	80.003	19.996	103.737	19.965	4.092	0.494
883.500	515.963	80.003	19.996	103.739	19.966	4.000	0.521
884.000	516.224	80.003	19.994	103.737	19.964	4.110	0.536
884.500	516.483	80.003	19.997	103.736	19.964	4.122	0.528
885.000	516.740	80.003	19.995	103.738	19.965	4.073	0.518
885.500	516.989	80.004	19.996	103.736	19.967	3.955	0.511
886.000	517.236	80.002	19.995	103.733	19.963	4.198	0.501
886.500	517.515	80.002	19.995	103.733	19.963	4.186	0.511
887.000	517.741	80.004	19.997	103.733	19.963	4.200	0.516
887.500	518.009	80.004	19.994	103.731	19.964	4.129	0.500
888.000	518.243	80.005	19.995	103.731	19.965	4.075	0.498
888.500	518.490	80.004	19.994	103.731	19.966	3.975	0.491
889.000	518.754	80.004	19.995	103.731	19.966	4.028	0.496
889.500	519.024	80.005	19.994	103.731	19.965	4.043	0.523
890.000	519.292	80.005	19.997	103.733	19.969	3.766	0.536
890.500	519.527	80.004	19.996	103.733	19.967	3.955	0.520
891.000	519.823	80.004	19.996	103.732	19.965	4.053	0.517
891.500	520.067	80.004	19.995	103.732	19.968	3.820	0.535
892.000	520.327	80.004	19.995	103.733	19.965	4.065	0.522
892.500	520.596	80.004	19.995	103.731	19.964	4.121	0.517
893.000	520.835	80.004	19.995	103.730	19.965	4.035	0.519
893.500	521.082	80.004	19.995	103.730	19.963	4.196	0.497
894.000	521.343	80.002	19.995	103.729	19.964	4.166	0.497
894.500	521.601	80.002	19.996	103.729	19.962	4.247	0.513
895.000	521.861	80.005	19.993	103.730	19.966	4.030	0.518
895.500	522.144	80.004	19.995	103.730	19.964	4.169	0.531
896.000	522.371	80.002	19.995	103.730	19.964	4.131	0.527
896.500	522.621	80.002	19.993	103.730	19.963	4.184	0.493
897.000	522.887	80.001	19.995	103.730	19.966	4.000	0.496
897.500	523.133	80.002	19.995	103.729	19.963	4.223	0.514
898.000	523.398	80.002	19.994	103.729	19.963	4.227	0.511
898.500	523.650	80.002	19.995	103.730	19.964	4.151	0.514
899.000	523.913	80.002	19.994	103.730	19.964	4.161	0.516
899.500	524.192	80.002	19.993	103.730	19.966	4.028	0.528
900.000	524.391	80.002	19.993	103.730	19.964	4.153	0.510
900.500	524.628	80.001	19.995	103.730	19.967	3.957	0.457
901.000	524.940	80.002	19.996	103.729	19.961	4.325	0.493
901.500	525.142	80.002	19.994	103.729	19.966	3.987	0.532
902.000	525.434	80.001	19.995	103.728	19.965	4.047	0.504
902.500	525.688	80.002	19.994	103.728	19.965	4.077	0.519
903.000	525.952	80.002	19.995	103.726	19.964	4.169	0.532
903.500	526.221	80.001	19.993	103.727	19.965	4.055	0.526
904.000	526.502	80.002	19.994	103.729	19.964	4.124	0.542
904.500	526.725	80.002	19.994	103.729	19.964	4.128	0.527
905.000	526.965	80.002	19.994	103.729	19.965	4.034	0.483
905.500	527.238	80.002	19.996	103.731	19.968	3.866	0.488
906.000	527.487	80.000	19.995	103.732	19.967	3.938	0.518
906.500	527.754	80.001	19.995	103.732	19.965	4.067	0.519
907.000	527.967	80.001	19.994	103.732	19.969	3.803	0.497
907.500	528.223	80.002	19.994	103.732	19.967	3.932	0.474
908.000	528.479	80.001	19.996	103.732	19.967	3.920	0.491
908.500	528.719	80.002	19.994	103.731	19.966	3.981	0.504
909.000	529.007	80.001	19.996	103.731	19.964	4.157	0.512
909.500	529.250	80.002	19.995	103.732	19.966	3.997	0.529
910.000	529.516	80.001	19.995	103.732	19.968	3.842	0.520
910.500	529.786	80.002	19.995	103.733	19.967	3.920	0.522
911.000	530.043	80.002	19.995	103.733	19.968	3.883	0.532
911.500	530.250	80.002	19.995	103.733	19.968	3.834	0.496
912.000	530.512	80.001	19.995	103.732	19.966	3.971	0.467
912.500	530.780	80.002	19.995	103.732	19.967	3.920	0.500
913.000	531.053	80.001	19.994	103.732	19.967	3.901	0.536
913.500	531.291	80.003	19.995	103.732	19.969	3.815	0.526
914.000	531.561	80.002	19.995	103.733	19.968	3.885	0.509
914.500	531.795	80.001	19.995	103.733	19.968	3.860	0.505
915.000	532.026	80.003	19.994	103.733	19.968	3.832	0.484
915.500	532.313	80.003	19.995	103.733	19.967	3.912	0.492
916.000	532.574	80.001	19.994	103.734	19.969	3.760	0.534
916.500	532.834	80.002	19.994	103.734	19.968	3.879	0.535
917.000	533.076	80.002	19.994	103.734	19.969	3.819	0.511
917.500	533.349	80.002	19.994	103.734	19.968	3.832	0.509
918.000	533.587	80.003	19.994	103.735	19.968	3.889	0.514
918.500	533.868	80.003	19.994	103.734	19.968	3.860	0.515
919.000	534.112	80.004	19.994	103.734	19.969	3.819	0.522
919.500	534.382	80.002	19.995	103.734	19.968	3.889	0.520
920.000	534.654	80.002	19.994	103.734	19.970	3.705	0.528
920.500	534.924	80.003	19.995	103.734	19.967	3.907	0.542
921.000	535.192	80.002	19.994	103.735	19.970	3.713	0.540
921.500	535.412	80.003	19.994	103.736	19.968	3.864	0.513
922.000	535.671	80.003	19.993	103.736	19.967	3.920	0.484
922.500	535.932	80.002	19.995	103.736	19.964	4.110	0.500
923.000	536.201	80.002	19.994	103.735	19.966	3.989	0.525
923.500	536.412	80.001	19.995	103.735	19.965	4.100	0.505
924.000	536.710	80.003	19.995	103.735	19.970	3.731	0.494
924.500	536.976	80.001	19.994	103.735	19.967	3.957	0.536
925.000	537.197	80.001	19.994	103.734	19.970	3.705	0.525
925.500	537.480	80.002	19.995	103.733	19.967	3.901	0.496
926.000	537.735	80.001	19.994	103.733	19.968	3.883	0.521
926.500	537.966	80.003	19.994	103.733	19.967	3.921	0.512
927.000	538.258	80.001	19.994	103.734	19.968	3.856	0.504
927.500	538.486	80.002	19.995	103.736	19.966	3.965	0.522
928.000	538.728	80.003	19.995	103.737	19.967	3.912	0.495
928.500	539.024	80.003	19.994	103.737	19.966	4.020	0.504
929.000	539.236	80.001	19.995	103.738	19.965	4.084	0.523
929.500	539.515	80.001	19.995	103.740	19.965	4.038	0.500
930.000	539.765	80.000	19.994	103.738	19.966	3.983	0.510
930.500	540.038	80.003	19.994	103.738	19.965	4.065	0.526
931.000	540.272	80.002	19.995	103.738	19.969	3.819	0.515
931.500	540.510	80.001	19.995	103.737	19.970	3.742	0.490
932.000	540.787	80.000	19.994	103.736	19.970	3.748	0.494
932.500	541.029	80.000	19.995	103.736	19.968	3.858	0.517
933.000	541.367	80.001	19.994	103.735	19.967	3.918	0.549
933.500	541.542	80.000	19.995	103.735	19.964	4.125	0.546
934.000	541.837	80.001	19.996	103.735	19.965	4.086	0.491
934.500	542.038	80.000	19.994	103.735	19.965	4.080	0.483
935.000	542.294	79.998	19.994	103.735	19.969	3.805	0.477
935.500	542.572	80.001	19.998	103.735	19.965	4.037	0.496
936.000	542.769	80.001	19.998	103.740	19.966	4.026	0.504
936.500	543.058	80.000	19.998	103.743	19.964	4.157	0.480
937.000	543.382	80.001	19.996	103.743	19.967	3.955	0.549
937.500	543.604	80.001	19.996	103.743	19.967	3.904	0.580
938.000	543.830	80.001	19.998	103.742	19.962	4.311	0.498
938.500	544.093	80.002	19.996	103.737	19.965	4.043	0.469
939.000	544.352	80.002	19.995	103.732	19.964	4.104	0.505
939.500	544.650	80.002	19.996	103.732	19.964	4.161	0.539
940.000	544.850	80.002	19.997	103.732	19.965	4.077	0.527
940.500	545.094	80.003	19.995	103.732	19.966	3.985	0.471
941.000	545.365	80.003	19.995	103.732	19.967	3.912	0.480
941.500	545.605	80.005	19.995	103.733	19.965	4.059	0.513
942.000	545.854	80.003	19.996	103.733	19.965	4.086	0.500
942.500	546.112	80.002	19.996	103.733	19.967	3.955	0.498
943.000	546.373	80.002	19.995	103.732	19.967	3.924	0.513
943.500	546.671	80.003	19.996	103.731	19.963	4.196	0.539
944.000	546.883	80.003	19.997	103.730	19.967	3.916	0.535
944.500	547.180	80.003	19.996	103.730	19.966	3.985	0.510
945.000	547.412	80.003	19.997	103.729	19.966	4.000	0.519
945.500	547.702	80.003	19.997	103.730	19.967	3.907	0.525
946.000	547.963	80.003	19.995	103.730	19.966	3.967	0.537
946.500	548.200	80.003	19.996	103.730	19.965	4.055	0.525
947.000	548.453	80.003	19.995	103.730	19.969	3.780	0.494
947.500	548.697	80.003	19.996	103.730	19.965	4.042	0.493
948.000	548.927	80.004	19.995	103.730	19.964	4.167	0.486
948.500	549.204	80.003	19.995	103.729	19.966	4.018	0.491
949.000	549.475	80.004	19.996	103.730	19.967	3.959	0.528
949.500	549.730	80.003	19.995	103.730	19.962	4.280	0.537
950.000	549.985	80.003	19.996	103.729	19.964	4.159	0.518
950.500	550.259	80.003	19.995	103.730	19.964	4.114	0.520
951.000	550.503	80.003	19.996	103.731	19.966	4.016	0.524
951.500	550.754	80.004	19.994	103.730	19.961	4.360	0.506
952.000	550.991	80.003	19.994	103.730	19.964	4.155	0.491
952.500	551.233	80.002	19.996	103.730	19.965	4.079	0.484
953.000	551.518	80.002	19.994	103.729	19.964	4.147	0.503
953.500	551.739	80.002	19.996	103.729	19.963	4.237	0.517
954.000	552.013	80.002	19.995	103.729	19.963	4.184	0.500
954.500	552.261	80.002	19.996	103.730	19.963	4.241	0.508
955.000	552.525	80.002	19.996	103.730	19.961	4.378	0.517
955.500	552.784	80.003	19.995	103.731	19.960	4.391	0.518
956.000	553.074	80.003	19.996	103.733	19.963	4.186	0.536
956.500	553.304	80.001	19.995	103.736	19.963	4.235	0.535
957.000	553.551	80.003	19.996	103.739	19.959	4.493	0.499
957.500	553.840	80.002	19.996	103.741	19.963	4.233	0.506
958.000	554.093	80.003	19.995	103.741	19.963	4.231	0.538
958.500	554.365	80.001	19.995	103.738	19.962	4.260	0.533
959.000	554.611	80.002	19.995	103.736	19.963	4.188	0.522
959.500	554.867	80.002	19.995	103.733	19.968	3.881	0.510
960.000	555.155	80.002	19.997	103.732	19.962	4.284	0.523
960.500	555.399	80.002	19.996	103.731	19.963	4.210	0.538
961.000	555.643	80.003	19.996	103.733	19.964	4.104	0.510
961.500	555.898	80.002	19.996	103.733	19.963	4.225	0.493
962.000	556.134	80.002	19.997	103.733	19.962	4.272	0.495
962.500	556.424	80.004	19.995	103.733	19.962	4.309	0.509
963.000	556.662	80.002	19.997	103.732	19.962	4.290	0.527
963.500	556.891	80.002	19.996	103.731	19.965	4.081	0.498
964.000	557.167	80.001	19.997	103.730	19.961	4.376	0.486
964.500	557.429	80.004	19.994	103.728	19.962	4.292	0.521
965.000	557.657	80.002	19.996	103.728	19.960	4.450	0.514
965.500	557.911	80.003	19.995	103.727	19.960	4.425	0.486
966.000	558.207	80.004	19.995	103.727	19.960	4.415	0.516
966.500	558.418	80.004	19.995	103.727	19.961	4.348	0.529
967.000	558.681	80.004	19.996	103.727	19.959	4.474	0.491
967.500	558.930	80.004	19.995	103.727	19.961	4.348	0.493
968.000	559.221	80.005	19.996	103.727	19.963	4.180	0.526
968.500	559.486	80.003	19.995	103.729	19.961	4.337	0.548
969.000	559.701	80.003	19.995	103.730	19.962	4.260	0.518
969.500	559.987	80.004	19.996	103.730	19.962	4.272	0.491
970.000	560.222	80.003	19.994	103.731	19.961	4.352	0.511
970.500	560.470	80.005	19.995	103.731	19.959	4.462	0.502
971.000	560.713	80.005	19.995	103.732	19.964	4.133	0.486
971.500	561.011	80.005	19.996	103.731	19.964	4.143	0.516
972.000	561.300	80.004	19.995	103.733	19.960	4.393	0.564
972.500	561.541	80.003	19.994	103.733	19.961	4.360	0.558
973.000	561.782	80.004	19.996	103.734	19.963	4.172	0.506
973.500	562.039	80.006	19.994	103.733	19.965	4.079	0.490
974.000	562.272	80.003	19.994	103.733	19.961	4.331	0.494
974.500	562.524	80.004	19.996	103.732	19.961	4.329	0.488
975.000	562.803	80.005	19.996	103.733	19.962	4.251	0.508
975.500	563.052	80.004	19.993	103.732	19.961	4.341	0.529
976.000	563.296	80.004	19.995	103.732	19.960	4.389	0.510
976.500	563.531	80.002	19.996	103.732	19.961	4.350	0.486
977.000	563.797	80.002	19.994	103.732	19.961	4.341	0.490
977.500	564.062	80.003	19.994	103.731	19.961	4.313	0.516
978.000	564.323	80.000	19.995	103.731	19.962	4.284	0.528
978.500	564.558	80.002	19.995	103.732	19.960	4.413	0.511
979.000	564.832	80.001	19.994	103.732	19.962	4.300	0.503
979.500	565.072	80.002	19.993	103.733	19.960	4.415	0.512
980.000	565.331	80.003	19.996	103.733	19.962	4.301	0.507
980.500	565.597	80.002	19.995	103.733	19.961	4.313	0.512
981.000	565.858	80.001	19.994	103.733	19.962	4.266	0.526
981.500	566.109	80.002	19.993	103.733	19.960	4.450	0.519
982.000	566.332	80.001	19.994	103.733	19.960	4.419	0.493
982.500	566.638	80.002	19.994	103.733	19.960	4.446	0.501
983.000	566.864	80.001	19.995	103.733	19.957	4.622	0.531
983.500	567.112	80.001	19.994	103.733	19.963	4.231	0.503
984.000	567.401	80.001	19.994	103.733	19.959	4.499	0.506
984.500	567.637	80.000	19.995	103.733	19.960	4.397	0.531
985.000	567.875	80.003	19.996	103.733	19.959	4.485	0.500
985.500	568.183	80.002	19.995	103.732	19.961	4.335	0.510
986.000	568.390	80.001	19.994	103.733	19.963	4.231	0.530
986.500	568.650	80.000	19.994	103.732	19.960	4.415	0.491
987.000	568.930	80.000	19.994	103.732	19.962	4.245	0.503
987.500	569.161	80.001	19.994	103.732	19.959	4.499	0.526
988.000	569.420	80.003	19.993	103.733	19.966	4.030	0.501
988.500	569.682	80.000	19.995	103.734	19.961	4.333	0.505
989.000	569.959	80.002	19.993	103.734	19.963	4.225	0.530
989.500	570.171	80.001	19.994	103.733	19.963	4.202	0.514
990.000	570.448	80.001	19.993	103.733	19.962	4.278	0.489
990.500	570.698	80.001	19.994	103.733	19.962	4.253	0.508
991.000	570.971	80.000	19.993	103.732	19.962	4.311	0.524
991.500	571.217	80.001	19.995	103.733	19.961	4.370	0.521
992.000	571.467	80.002	19.995	103.733	19.960	4.417	0.508
992.500	571.721	80.002	19.996	103.733	19.964	4.116	0.500
993.000	571.972	80.000	19.996	103.733	19.962	4.251	0.504
993.500	572.254	80.000	19.996	103.733	19.963	4.223	0.519
994.000	572.499	79.999	19.995	103.731	19.960	4.450	0.530
994.500	572.756	80.001	19.994	103.732	19.964	4.157	0.515
995.000	572.975	79.999	19.995	103.733	19.964	4.155	0.489
995.500	573.253	79.999	19.997	103.734	19.963	4.208	0.486
996.000	573.537	80.000	19.998	103.736	19.964	4.163	0.529
996.500	573.781	80.000	19.996	103.738	19.963	4.186	0.545
997.000	574.053	80.001	19.995	103.738	19.959	4.473	0.523
997.500	574.328	80.001	19.995	103.737	19.961	4.376	0.531
998.000	574.543	80.001	19.995	103.736	19.962	4.278	0.518
998.500	574.858	80.001	19.995	103.735	19.961	4.344	0.510
999.000	575.091	80.001	19.994	103.734	19.962	4.296	0.539
999.500	575.397	80.001	19.994	103.734	19.962	4.251	0.544
1000.000	575.637	80.001	19.995	103.734	19.962	4.284	0.542
1000.500	575.909	80.001	19.995	103.734	19.964	4.143	0.529
1001.000	576.180	80.003	19.995	103.734	19.965	4.051	0.528
1001.500	576.403	80.002	19.994	103.734	19.965	4.069	0.519
1002.000	576.688	80.002	19.995	103.734	19.962	4.247	0.501
1002.500	576.927	80.004	19.994	103.734	19.966	3.996	0.516
1003.000	577.158	80.001	19.994	103.733	19.961	4.317	0.497
1003.500	577.383	80.002	19.994	103.733	19.965	4.069	0.463
1004.000	577.675	80.002	19.994	103.733	19.962	4.252	0.487
1004.500	577.923	80.001	19.994	103.732	19.964	4.157	0.529
1005.000	578.184	80.003	19.994	103.731	19.965	4.049	0.524
1005.500	578.428	80.001	19.994	103.731	19.959	4.505	0.507
1006.000	578.689	80.000	19.995	103.732	19.964	4.159	0.505
1006.500	578.953	80.002	19.995	103.732	19.963	4.190	0.515
1007.000	579.213	80.000	19.995	103.732	19.962	4.260	0.524
1007.500	579.486	80.001	19.994	103.731	19.960	4.387	0.528
1008.000	579.729	80.002	19.995	103.731	19.962	4.262	0.524
1008.500	580.006	80.001	19.995	103.730	19.966	4.014	0.518
1009.000	580.250	80.001	19.994	103.730	19.965	4.073	0.521
1009.500	580.522	80.001	19.995	103.729	19.960	4.409	0.518
1010.000	580.785	80.001	19.994	103.730	19.962	4.247	0.526
1010.500	581.049	80.001	19.995	103.730	19.961	4.362	0.531
1011.000	581.264	80.002	19.994	103.731	19.963	4.172	0.503
1011.500	581.514	80.001	19.994	103.731	19.962	4.295	0.472
1012.000	581.813	80.001	19.994	103.731	19.962	4.286	0.507
1012.500	582.064	80.001	19.994	103.731	19.963	4.217	0.549
1013.000	582.293	80.002	19.994	103.731	19.962	4.249	0.515
1013.500	582.570	80.000	19.996	103.728	19.960	4.401	0.493
1014.000	582.854	80.000	19.995	103.725	19.964	4.163	0.534
1014.500	583.103	79.999	19.995	103.725	19.961	4.360	0.547
1015.000	583.340	80.001	19.995	103.725	19.961	4.352	0.510
1015.500	583.606	80.003	19.994	103.726	19.962	4.262	0.495
1016.000	583.875	80.002	19.994	103.728	19.959	4.466	0.519
1016.500	584.111	80.002	19.995	103.731	19.962	4.280	0.520
1017.000	584.387	80.003	19.994	103.730	19.961	4.381	0.509
1017.500	584.643	80.001	19.995	103.731	19.961	4.378	0.522
1018.000	584.895	80.000	19.995	103.731	19.965	4.092	0.520
1018.500	585.173	80.001	19.995	103.730	19.961	4.348	0.518
1019.000	585.462	80.002	19.995	103.731	19.963	4.239	0.548
1019.500	585.663	80.001	19.994	103.731	19.959	4.487	0.529
1020.000	585.949	80.002	19.995	103.730	19.962	4.288	0.489
1020.500	586.206	80.001	19.995	103.730	19.960	4.426	0.515
1021.000	586.452	80.001	19.996	103.730	19.961	4.327	0.523
1021.500	586.720	80.002	19.994	103.727	19.964	4.131	0.509
1022.000	586.977	80.002	19.995	103.728	19.958	4.542	0.520
1022.500	587.245	80.002	19.995	103.728	19.962	4.268	0.525
1023.000	587.512	80.003	19.994	103.728	19.961	4.364	0.530
1023.500	587.731	80.002	19.994	103.728	19.959	4.509	0.510
1024.000	587.983	80.004	19.995	103.729	19.959	4.462	0.478
1024.499	588.223	80.003	19.996	103.729	19.961	4.342	0.481
1024.999	588.524	80.002	19.994	103.729	19.958	4.557	0.517
1025.499	588.763	80.002	19.996	103.729	19.961	4.362	0.541
1025.999	589.009	80.003	19.995	103.729	19.960	4.428	0.513
1026.499	589.280	80.004	19.996	103.729	19.961	4.382	0.501
1026.999	589.544	80.002	19.995	103.729	19.960	4.389	0.526
1027.499	589.820	80.004	19.996	103.728	19.959	4.477	0.537
1027.999	590.056	80.005	19.996	103.727	19.962	4.284	0.526
1028.499	590.329	80.003	19.994	103.728	19.960	4.387	0.511
1028.999	590.569	80.002	19.995	103.727	19.961	4.331	0.511
1029.499	590.829	80.004	19.994	103.727	19.961	4.325	0.506
1029.999	591.079	80.003	19.995	103.726	19.959	4.458	0.506
1030.499	591.364	80.003	19.996	103.727	19.958	4.583	0.523
1031.000	591.600	80.002	19.996	103.726	19.959	4.460	0.528
1031.500	591.845	80.003	19.996	103.727	19.959	4.487	0.501
1032.000	592.121	80.001	19.996	103.727	19.959	4.456	0.501
1032.500	592.375	80.002	19.996	103.728	19.960	4.421	0.526
1033.000	592.628	80.004	19.997	103.729	19.959	4.493	0.518
1033.500	592.894	80.001	19.996	103.729	19.960	4.427	0.513
1033.999	593.136	80.002	19.996	103.730	19.961	4.329	0.514
1034.499	593.372	80.002	19.995	103.729	19.959	4.466	0.494
1034.999	593.659	80.002	19.996	103.730	19.960	4.452	0.501
1035.499	593.917	80.001	19.995	103.729	19.962	4.253	0.534
1036.000	594.195	80.003	19.995	103.729	19.960	4.452	0.540
1036.500	594.470	80.002	19.995	103.729	19.961	4.317	0.544
1036.999	594.669	80.002	19.995	103.730	19.957	4.628	0.514
1037.499	594.971	80.001	19.995	103.729	19.958	4.550	0.488
1037.999	595.211	80.004	19.996	103.729	19.961	4.368	0.522
1038.499	595.461	80.002	19.995	103.728	19.960	4.434	0.516
1038.999	595.709	80.003	19.995	103.728	19.960	4.448	0.494
1039.499	595.992	80.002	19.995	103.728	19.960	4.452	0.514
1039.999	596.241	80.003	19.995	103.728	19.963	4.214	0.531
1040.499	596.513	80.003	19.994	103.729	19.960	4.395	0.526
1040.999	596.764	80.002	19.994	103.730	19.959	4.501	0.522
1041.499	597.019	80.001	19.996	103.730	19.962	4.288	0.515
1041.999	597.263	80.002	19.995	103.729	19.958	4.524	0.503
1042.499	597.526	80.003	19.995	103.731	19.962	4.299	0.503
1043.000	597.787	80.003	19.995	103.730	19.959	4.497	0.515
1043.500	598.047	80.003	19.996	103.730	19.959	4.479	0.522
1043.999	598.265	80.003	19.995	103.730	19.959	4.481	0.499
1044.499	598.535	80.003	19.994	103.732	19.958	4.544	0.483
1044.999	598.821	80.001	19.995	103.731	19.960	4.419	0.522
1045.499	599.038	80.002	19.993	103.732	19.962	4.311	0.529
1046.000	599.315	80.002	19.995	103.732	19.963	4.239	0.498
1046.501	599.569	80.003	19.993	103.732	19.958	4.530	0.512
1047.000	599.822	80.004	19.995	103.732	19.958	4.526	0.519
1047.499	600.091	80.002	19.993	103.732	19.958	4.530	0.515
1047.999	600.348	80.002	19.994	103.732	19.958	4.567	0.524
1048.499	600.615	80.001	19.995	103.732	19.961	4.338	0.525
1048.999	600.861	80.003	19.994	103.732	19.961	4.376	0.518
1049.500	601.087	80.002	19.994	103.732	19.959	4.503	0.492
1050.000	601.323	80.003	19.994	103.732	19.956	4.677	0.467
1050.499	601.611	80.004	19.995	103.732	19.958	4.567	0.493
1050.999	601.855	80.003	19.995	103.732	19.957	4.620	0.528
1051.499	602.093	80.003	19.994	103.732	19.956	4.708	0.507
1052.000	602.398	80.003	19.994	103.732	19.958	4.587	0.512
1052.501	602.583	80.002	19.995	103.732	19.955	4.738	0.517
1053.000	602.863	80.003	19.996	103.731	19.956	4.695	0.478
1053.499	603.162	80.002	19.995	103.730	19.958	4.556	0.522
1054.000	603.404	80.001	19.995	103.730	19.958	4.581	0.559
1054.500	603.645	80.003	19.995	103.730	19.958	4.532	0.512
1054.999	603.907	80.001	19.994	103.728	19.958	4.565	0.493
1055.499	604.167	80.002	19.997	103.728	19.958	4.579	0.513
1055.999	604.416	80.003	19.998	103.728	19.960	4.413	0.515
1056.499	604.639	80.002	19.996	103.727	19.959	4.505	0.490
1057.000	604.910	80.002	19.997	103.727	19.961	4.380	0.484
1057.500	605.182	80.002	19.997	103.729	19.957	4.649	0.519
1057.999	605.377	80.002	19.996	103.727	19.958	4.538	0.505
1058.499	605.669	80.001	19.995	103.727	19.958	4.548	0.477
1058.999	605.912	80.001	19.995	103.727	19.959	4.477	0.511
1059.499	606.159	80.000	19.994	103.728	19.957	4.622	0.512
1059.999	606.439	80.002	19.995	103.728	19.958	4.528	0.508
1060.499	606.675	80.002	19.995	103.732	19.957	4.657	0.522
1060.999	606.929	80.001	19.995	103.733	19.958	4.559	0.503
1061.500	607.162	80.001	19.995	103.734	19.955	4.757	0.489
1062.000	607.422	80.001	19.994	103.734	19.959	4.495	0.490
1062.499	607.668	80.000	19.995	103.734	19.956	4.734	0.499
1062.999	607.947	80.001	19.996	103.733	19.957	4.597	0.515
1063.499	608.208	80.000	19.995	103.733	19.959	4.472	0.533
1063.999	608.437	80.000	19.995	103.733	19.957	4.606	0.516
1064.499	608.669	80.002	19.995	103.732	19.956	4.732	0.476
1064.999	608.922	80.001	19.995	103.732	19.960	4.444	0.473
1065.499	609.197	80.000	19.994	103.732	19.957	4.598	0.506
1065.999	609.432	80.000	19.994	103.733	19.960	4.413	0.519
1066.500	609.711	80.001	19.995	103.733	19.956	4.704	0.512
1067.000	609.989	80.001	19.995	103.733	19.959	4.506	0.536
1067.499	610.215	80.002	19.994	103.732	19.958	4.569	0.531
1067.999	610.478	80.000	19.995	103.731	19.957	4.645	0.497
1068.499	610.751	80.002	19.994	103.730	19.958	4.542	0.512
1068.999	610.986	80.000	19.994	103.730	19.959	4.479	0.522
1069.499	611.226	80.002	19.994	103.730	19.960	4.432	0.491
1069.999	611.506	80.002	19.994	103.730	19.958	4.540	0.497
1070.499	611.758	80.001	19.995	103.730	19.959	4.511	0.526
1070.999	612.021	80.001	19.995	103.729	19.958	4.528	0.524
1071.500	612.262	80.002	19.994	103.729	19.957	4.614	0.510
1072.001	612.521	80.000	19.995	103.729	19.962	4.297	0.502
1072.500	612.765	80.002	19.994	103.729	19.956	4.718	0.501
1072.999	613.071	80.002	19.995	103.729	19.957	4.659	0.526
1073.499	613.303	80.002	19.995	103.730	19.960	4.442	0.544
1073.999	613.560	80.002	19.994	103.730	19.958	4.589	0.513
1074.499	613.784	80.002	19.993	103.731	19.955	4.757	0.485
1074.999	614.053	80.002	19.995	103.731	19.959	4.473	0.487
1075.499	614.330	80.002	19.994	103.730	19.957	4.602	0.520
1075.999	614.576	80.002	19.995	103.729	19.958	4.593	0.535
1076.499	614.823	80.001	19.995	103.728	19.958	4.591	0.507
1076.999	615.081	80.002	19.995	103.723	19.957	4.626	0.498
1077.499	615.327	80.002	19.994	103.722	19.958	4.573	0.504
1078.000	615.581	80.002	19.994	103.722	19.957	4.632	0.502
1078.501	615.895	80.000	19.995	103.723	19.959	4.507	0.534
1079.001	616.091	80.000	19.994	103.723	19.955	4.735	0.539
1079.500	616.392	80.003	19.994	103.727	19.960	4.395	0.504
1079.999	616.612	80.004	19.994	103.729	19.956	4.698	0.509
1080.499	616.902	80.003	19.993	103.730	19.955	4.755	0.515
1080.999	617.147	80.002	19.995	103.729	19.958	4.548	0.522
1081.499	617.415	80.001	19.994	103.729	19.957	4.610	0.524
1081.999	617.690	80.002	19.994	103.729	19.957	4.624	0.528
1082.499	617.916	80.003	19.994	103.728	19.955	4.770	0.522
1082.999	618.151	80.002	19.994	103.728	19.957	4.643	0.481
1083.499	618.448	80.003	19.994	103.729	19.962	4.260	0.497
1083.999	618.663	80.003	19.993	103.729	19.960	4.395	0.522
1084.499	618.914	80.001	19.994	103.730	19.957	4.628	0.489
1084.999	619.192	80.001	19.995	103.730	19.961	4.340	0.498
1085.499	619.474	80.000	19.994	103.730	19.958	4.550	0.544
1085.999	619.709	80.001	19.995	103.730	19.958	4.532	0.539
1086.499	619.974	80.003	19.994	103.729	19.959	4.507	0.509
1087.000	620.241	80.001	19.994	103.730	19.957	4.649	0.516
1087.501	620.486	80.002	19.996	103.730	19.957	4.605	0.522
1088.000	620.734	80.002	19.995	103.730	19.959	4.519	0.503
1088.499	621.021	80.001	19.997	103.730	19.957	4.599	0.514
1088.999	621.276	79.998	19.996	103.730	19.957	4.612	0.538
1089.499	621.505	80.002	19.997	103.728	19.957	4.646	0.513
1089.999	621.760	80.002	19.995	103.729	19.958	4.528	0.484
1090.499	622.041	80.000	19.995	103.728	19.957	4.597	0.510
1090.999	622.291	80.002	19.996	103.728	19.959	4.464	0.533
1091.499	622.545	80.001	19.996	103.728	19.956	4.685	0.518
1091.999	622.826	80.000	19.996	103.728	19.955	4.782	0.520
1092.499	623.056	80.002	19.995	103.728	19.956	4.667	0.523
1092.999	623.317	80.002	19.995	103.728	19.958	4.552	0.501
1093.499	623.579	80.003	19.995	103.726	19.958	4.544	0.507
1093.999	623.810	80.001	19.994	103.725	19.954	4.808	0.508
1094.499	624.092	80.000	19.995	103.725	19.956	4.722	0.503
1095.000	624.340	80.002	19.995	103.726	19.958	4.536	0.521
1095.500	624.634	80.002	19.995	103.727	19.956	4.667	0.536
1096.000	624.853	80.001	19.994	103.728	19.957	4.620	0.528
1096.500	625.087	80.003	19.994	103.730	19.959	4.489	0.483
1096.999	625.371	80.001	19.995	103.731	19.960	4.438	0.485
1097.499	625.620	80.003	19.995	103.732	19.956	4.706	0.526
1097.999	625.881	80.004	19.995	103.731	19.958	4.561	0.522
1098.499	626.095	80.001	19.995	103.732	19.957	4.638	0.493
1099.000	626.368	80.001	19.995	103.733	19.956	4.704	0.481
1099.500	626.630	80.001	19.995	103.732	19.958	4.542	0.511
1099.999	626.885	79.999	19.997	103.732	19.955	4.800	0.526
1100.499	627.150	80.001	19.997	103.732	19.957	4.610	0.518
1100.999	627.382	80.003	19.995	103.731	19.959	4.485	0.508
1101.499	627.669	80.004	19.995	103.731	19.952	4.954	0.508
1102.000	627.921	80.001	19.995	103.731	19.954	4.855	0.529
1102.500	628.144	80.002	19.994	103.731	19.955	4.778	0.507
1102.999	628.384	80.001	19.995	103.733	19.957	4.647	0.469
1103.499	628.676	80.004	19.995	103.733	19.958	4.561	0.498
1103.999	628.927	80.005	19.993	103.734	19.958	4.561	0.538
1104.500	629.184	80.003	19.993	103.734	19.954	4.870	0.526
1105.000	629.431	80.003	19.994	103.735	19.957	4.657	0.506
1105.499	629.658	80.002	19.994	103.734	19.958	4.524	0.489
1105.999	629.960	80.002	19.995	103.734	19.954	4.853	0.501
1106.499	630.227	80.002	19.994	103.732	19.955	4.794	0.549
1106.999	630.426	80.002	19.995	103.732	19.955	4.806	0.518
1107.499	630.725	80.003	19.994	103.731	19.956	4.712	0.482
1107.999	630.985	80.004	19.994	103.731	19.955	4.741	0.528
1108.499	631.228	80.003	19.995	103.731	19.953	4.929	0.531
1108.999	631.525	80.004	19.994	103.731	19.957	4.622	0.522
1109.499	631.734	80.004	19.992	103.731	19.955	4.755	0.523
1110.000	632.006	80.004	19.993	103.733	19.955	4.763	0.493
1110.500	632.263	80.001	19.994	103.733	19.954	4.818	0.505
1110.999	632.543	80.005	19.994	103.733	19.956	4.718	0.533
1111.499	632.787	80.004	19.993	103.734	19.956	4.665	0.531
1111.999	633.027	80.002	19.993	103.734	19.955	4.771	0.504
1112.499	633.277	80.004	19.994	103.730	19.955	4.761	0.487
1112.999	633.525	80.002	19.994	103.730	19.955	4.738	0.494
1113.500	633.826	80.003	19.994	103.730	19.955	4.751	0.524
1114.001	634.069	80.004	19.994	103.730	19.953	4.894	0.546
1114.501	634.311	80.000	19.995	103.729	19.957	4.608	0.515
1115.000	634.576	80.002	19.994	103.731	19.956	4.685	0.496
1115.499	634.810	80.003	19.996	103.731	19.959	4.462	0.503
1115.999	635.076	80.002	19.997	103.731	19.955	4.742	0.499
1116.499	635.310	80.002	19.997	103.731	19.953	4.908	0.500
1116.999	635.599	80.002	19.995	103.732	19.957	4.640	0.512
1117.499	635.853	80.002	19.995	103.733	19.956	4.679	0.533
1117.999	636.113	80.002	19.994	103.734	19.959	4.509	0.528
1118.499	636.359	80.001	19.995	103.734	19.956	4.700	0.510
1118.999	636.626	80.003	19.995	103.734	19.957	4.648	0.510
1119.499	636.874	80.001	19.995	103.734	19.957	4.612	0.514
1119.999	637.111	80.002	19.996	103.733	19.959	4.495	0.500
1120.499	637.402	80.001	19.995	103.733	19.958	4.575	0.506
1120.999	637.643	80.003	19.994	103.733	19.957	4.636	0.530
1121.499	637.878	80.002	19.995	103.733	19.958	4.550	0.504
1121.999	638.131	80.001	19.995	103.733	19.956	4.691	0.482
1122.499	638.386	80.002	19.995	103.733	19.955	4.757	0.498
1122.999	638.674	80.003	19.993	103.733	19.959	4.512	0.526
1123.499	638.864	80.001	19.994	103.733	19.957	4.659	0.511
1123.999	639.131	80.001	19.994	103.732	19.957	4.636	0.467
1124.500	639.390	79.999	19.995	103.732	19.959	4.493	0.491
1125.000	639.706	80.003	19.995	103.732	19.957	4.636	0.551
1125.500	639.933	80.002	19.994	103.732	19.959	4.491	0.559
1126.000	640.141	80.003	19.994	103.733	19.958	4.583	0.489
1126.499	640.447	80.003	19.995	103.734	19.953	4.921	0.474
1126.999	640.722	80.002	19.994	103.734	19.956	4.667	0.548
1127.499	640.949	80.001	19.995	103.734	19.953	4.886	0.541
1127.999	641.219	80.003	19.994	103.733	19.952	4.970	0.499
1128.499	641.416	80.003	19.995	103.732	19.955	4.745	0.482
1128.999	641.720	80.002	19.995	103.732	19.958	4.567	0.484
1129.499	641.968	80.004	19.995	103.731	19.956	4.671	0.527
1129.999	642.230	80.005	19.994	103.732	19.955	4.776	0.531
1130.499	642.509	80.003	19.995	103.733	19.954	4.874	0.526
1130.999	642.761	80.003	19.995	103.734	19.954	4.857	0.536
1131.499	643.024	80.005	19.994	103.732	19.955	4.745	0.523
1131.999	643.228	80.005	19.994	103.733	19.956	4.696	0.491
1132.499	643.499	80.004	19.995	103.732	19.955	4.737	0.471
1133.000	643.780	80.003	19.995	103.731	19.956	4.698	0.514
1133.500	644.012	80.003	19.994	103.731	19.954	4.816	0.533
1133.999	644.254	80.004	19.994	103.729	19.956	4.728	0.493
1134.499	644.524	80.003	19.995	103.728	19.956	4.675	0.493
1134.999	644.769	80.003	19.995	103.727	19.956	4.708	0.514
1135.499	645.036	80.004	19.995	103.727	19.954	4.863	0.514
1135.999	645.283	80.005	19.995	103.727	19.953	4.880	0.513
1136.499	645.547	80.004	19.995	103.729	19.953	4.941	0.512
1137.000	645.784	80.004	19.995	103.727	19.955	4.776	0.506
1137.500	646.046	80.003	19.994	103.727	19.951	5.078	0.500
1137.999	646.318	80.004	19.995	103.726	19.952	5.017	0.517
1138.499	646.549	80.004	19.995	103.727	19.955	4.775	0.519
1138.999	646.841	80.003	19.995	103.726	19.952	5.009	0.513
1139.500	647.081	80.004	19.994	103.727	19.954	4.825	0.527
1140.000	647.303	80.002	19.994	103.728	19.952	4.962	0.497
1140.499	647.577	80.003	19.995	103.729	19.956	4.667	0.479
1140.999	647.830	80.001	19.995	103.727	19.957	4.628	0.512
1141.499	648.102	80.002	19.995	103.728	19.959	4.516	0.526
1141.999	648.345	80.001	19.995	103.729	19.954	4.847	0.519
1142.500	648.615	80.004	19.995	103.729	19.956	4.732	0.514
1143.000	648.843	80.002	19.995	103.729	19.956	4.671	0.506
1143.500	649.095	80.002	19.996	103.730	19.953	4.915	0.489
1144.000	649.403	80.001	19.995	103.731	19.955	4.773	0.520
1144.499	649.619	80.000	19.995	103.730	19.954	4.862	0.542
1144.999	649.881	80.000	19.996	103.733	19.956	4.726	0.501
1145.499	650.149	80.002	19.996	103.732	19.957	4.649	0.504
1145.999	650.423	80.001	19.996	103.733	19.955	4.741	0.536
1146.499	650.670	80.001	19.996	103.732	19.953	4.917	0.532
1146.999	650.963	80.002	19.995	103.732	19.954	4.851	0.530
1147.499	651.173	80.001	19.996	103.729	19.957	4.634	0.521
1147.999	651.406	80.002	19.994	103.730	19.957	4.628	0.473
1148.499	651.702	80.001	19.995	103.730	19.957	4.628	0.486
1148.999	651.938	80.000	19.995	103.730	19.956	4.714	0.530
1149.499	652.217	80.001	19.997	103.730	19.954	4.808	0.524
1149.999	652.439	80.001	19.996	103.730	19.954	4.845	0.508
1150.499	652.717	80.001	19.996	103.730	19.954	4.866	0.501
1150.999	652.965	80.000	19.996	103.729	19.953	4.939	0.513
1151.499	653.202	80.000	19.996	103.729	19.954	4.821	0.506
1151.999	653.473	80.001	19.996	103.729	19.957	4.630	0.497
1152.500	653.729	80.001	19.996	103.729	19.954	4.847	0.517
1153.000	653.998	80.001	19.995	103.729	19.956	4.694	0.526
1153.499	654.271	80.002	19.995	103.730	19.954	4.874	0.533
1153.999	654.529	80.001	19.995	103.730	19.954	4.827	0.536
1154.500	654.779	80.001	19.996	103.730	19.952	4.954	0.520
1155.000	655.037	80.002	19.996	103.729	19.954	4.868	0.509
1155.499	655.333	80.002	19.995	103.729	19.955	4.788	0.531
1155.999	655.562	80.001	19.996	103.730	19.956	4.694	0.539
1156.499	655.851	80.001	19.996	103.729	19.954	4.843	0.522
1156.999	656.079	80.001	19.995	103.729	19.955	4.794	0.518
1157.499	656.342	80.002	19.996	103.729	19.953	4.882	0.504
1157.999	656.594	80.003	19.994	103.729	19.952	4.962	0.503
1158.499	656.845	80.001	19.996	103.729	19.954	4.831	0.509
1158.999	657.104	80.003	19.994	103.729	19.954	4.859	0.506
1159.500	657.362	80.002	19.995	103.729	19.955	4.794	0.514
1160.000	657.609	80.002	19.995	103.730	19.953	4.935	0.511
1160.499	657.875	80.002	19.995	103.730	19.953	4.888	0.509
1160.999	658.126	80.002	19.995	103.729	19.952	4.964	0.515
1161.499	658.386	80.002	19.995	103.729	19.954	4.837	0.514
1161.999	658.637	80.002	19.995	103.730	19.949	5.174	0.511
1162.499	658.922	80.002	19.995	103.729	19.949	5.219	0.523
1162.999	659.217	80.001	19.994	103.730	19.950	5.090	0.558
1163.499	659.423	80.003	19.995	103.731	19.949	5.168	0.541
1163.999	659.667	80.003	19.994	103.731	19.951	5.088	0.476
1164.499	659.916	80.003	19.994	103.731	19.949	5.189	0.472
1164.999	660.177	80.002	19.994	103.728	19.950	5.109	0.501
1165.499	660.455	80.003	19.995	103.728	19.950	5.096	0.524
1165.999	660.697	80.001	19.995	103.727	19.953	4.924	0.529
1166.500	660.968	80.001	19.995	103.728	19.953	4.918	0.516
1167.000	661.224	80.002	19.994	103.726	19.952	5.015	0.520
1167.499	661.492	80.002	19.995	103.729	19.954	4.839	0.526
1167.999	661.755	80.001	19.994	103.727	19.954	4.867	0.527
1168.499	662.010	80.002	19.995	103.728	19.953	4.929	0.524
1169.000	662.255	80.001	19.995	103.728	19.952	4.984	0.509
1169.500	662.524	80.001	19.994	103.730	19.953	4.923	0.507
1170.000	662.735	80.000	19.995	103.732	19.954	4.841	0.498
1170.500	663.060	80.003	19.996	103.735	19.954	4.812	0.508
1170.999	663.276	80.002	19.996	103.735	19.951	5.025	0.538
1171.499	663.548	80.001	19.994	103.735	19.952	4.966	0.514
1171.999	663.789	80.002	19.994	103.735	19.952	4.966	0.500
1172.499	664.055	80.001	19.996	103.734	19.953	4.902	0.510
1172.999	664.293	80.000	19.995	103.735	19.951	5.029	0.506
1173.499	664.561	80.001	19.995	103.734	19.951	5.078	0.505
1173.999	664.834	80.000	19.995	103.735	19.952	4.992	0.523
1174.500	665.105	80.002	19.994	103.734	19.952	5.001	0.542
1175.000	665.320	79.999	19.995	103.734	19.953	4.912	0.515
1175.499	665.584	80.000	19.996	103.734	19.953	4.900	0.482
1175.999	665.839	80.002	19.999	103.738	19.949	5.187	0.499
1176.500	666.090	80.001	19.997	103.738	19.950	5.121	0.513
1177.000	666.329	80.002	19.997	103.738	19.952	4.964	0.498
1177.499	666.603	80.001	19.997	103.739	19.952	4.992	0.501
1177.999	666.839	80.002	19.996	103.739	19.952	4.988	0.511
1178.499	667.102	80.002	19.996	103.735	19.948	5.275	0.504
1178.999	667.369	80.001	19.994	103.735	19.954	4.833	0.515
1179.499	667.653	80.002	19.997	103.734	19.950	5.121	0.541
1179.999	667.889	80.000	19.995	103.733	19.948	5.271	0.536
1180.499	668.134	80.001	19.995	103.730	19.950	5.140	0.500
1180.999	668.423	80.001	19.995	103.729	19.952	4.951	0.507
1181.499	668.706	80.001	19.995	103.729	19.950	5.121	0.553
1181.999	668.939	80.003	19.995	103.729	19.949	5.162	0.544
1182.499	669.224	80.002	19.994	103.731	19.951	5.025	0.517
1182.999	669.480	80.002	19.994	103.733	19.949	5.185	0.530
1183.499	669.699	80.002	19.994	103.734	19.950	5.132	0.508
1183.999	669.979	80.002	19.995	103.733	19.950	5.152	0.487
1184.499	670.216	80.004	19.994	103.733	19.949	5.162	0.508
1184.999	670.476	80.002	19.994	103.732	19.950	5.130	0.507
1185.499	670.726	80.002	19.994	103.733	19.948	5.252	0.504
1185.999	671.012	80.003	19.993	103.733	19.948	5.252	0.523
1186.499	671.248	80.003	19.995	103.733	19.948	5.293	0.529
1186.999	671.517	80.003	19.994	103.734	19.947	5.300	0.514
1187.500	671.780	80.003	19.994	103.734	19.948	5.257	0.518
1188.000	672.012	80.002	19.994	103.733	19.949	5.203	0.513
1188.499	672.270	80.002	19.994	103.733	19.949	5.228	0.492
1188.999	672.521	80.002	19.994	103.734	19.946	5.424	0.499
1189.499	672.799	80.003	19.994	103.734	19.947	5.355	0.519
1189.999	673.025	80.002	19.994	103.734	19.948	5.298	0.517
1190.499	673.313	80.003	19.993	103.734	19.948	5.294	0.509
1190.999	673.552	80.002	19.994	103.734	19.949	5.201	0.520
1191.499	673.803	80.003	19.994	103.733	19.947	5.365	0.509
1192.000	674.084	80.002	19.995	103.733	19.947	5.320	0.511
1192.500	674.331	80.002	19.993	103.733	19.949	5.212	0.530
1193.000	674.619	80.003	19.994	103.733	19.950	5.128	0.531
1193.500	674.838	80.002	19.994	103.733	19.950	5.154	0.521
1193.999	675.120	80.005	19.994	103.733	19.948	5.236	0.504
1194.499	675.368	80.003	19.994	103.733	19.949	5.169	0.516
1194.999	675.616	80.003	19.994	103.732	19.948	5.250	0.513
1195.499	675.904	80.002	19.993	103.732	19.947	5.357	0.516
1195.999	676.146	80.002	19.995	103.732	19.951	5.081	0.533
1196.499	676.435	80.003	19.994	103.731	19.947	5.332	0.530
1196.999	676.659	80.003	19.994	103.729	19.949	5.212	0.522
1197.499	676.974	80.003	19.993	103.728	19.949	5.179	0.527
1197.999	677.187	80.002	19.994	103.728	19.949	5.208	0.534
1198.499	677.435	80.004	19.993	103.728	19.948	5.238	0.494
1198.999	677.708	80.003	19.994	103.728	19.948	5.250	0.490
1199.500	677.926	80.001	19.994	103.729	19.948	5.261	0.506
1200.000	678.221	80.003	19.994	103.731	19.949	5.177	0.503
1200.499	678.449	80.003	19.994	103.730	19.948	5.240	0.518
1200.999	678.685	80.003	19.995	103.729	19.950	5.103	0.493
1201.499	678.963	80.003	19.993	103.726	19.950	5.132	0.489
1201.999	679.203	80.002	19.994	103.725	19.949	5.177	0.516
1202.499	679.504	80.004	19.994	103.723	19.951	5.058	0.530
1202.999	679.722	80.003	19.993	103.723	19.949	5.216	0.530
1203.499	679.972	80.004	19.994	103.724	19.950	5.124	0.494
1203.999	680.253	80.003	19.993	103.725	19.950	5.110	0.500
1204.499	680.477	80.003	19.994	103.726	19.949	5.196	0.518
1204.999	680.723	80.003	19.993	103.728	19.949	5.187	0.487
1205.499	681.061	80.003	19.994	103.729	19.947	5.302	0.527
1206.000	681.231	80.003	19.994	103.729	19.946	5.398	0.546
1206.500	681.548	80.004	19.994	103.730	19.947	5.304	0.498
1207.000	681.766	80.003	19.994	103.729	19.948	5.284	0.511
1207.500	682.011	80.004	19.994	103.729	19.948	5.292	0.499
1207.999	682.338	80.004	19.995	103.729	19.947	5.353	0.517
1208.499	682.342	80.004	19.994	103.729	19.946	5.371	0.451
1208.999	682.755	80.004	19.993	103.728	19.949	5.228	0.374
1209.499	683.073	80.003	19.994	103.728	19.950	5.142	0.575
1209.999	683.326	80.005	19.995	103.729	19.945	5.470	0.651
1210.499	683.562	80.004	19.995	103.729	19.947	5.308	0.530
1210.999	683.816	80.004	19.995	103.729	19.948	5.296	0.489
1211.499	684.083	80.003	19.995	103.730	19.947	5.345	0.505
1211.999	684.349	80.003	19.995	103.729	19.949	5.226	0.527
1212.500	684.582	80.005	19.995	103.725	19.949	5.183	0.516
1213.000	684.842	80.005	19.995	103.722	19.949	5.196	0.496
1213.499	685.066	80.004	19.995	103.721	19.949	5.185	0.488
1214.000	685.321	80.005	19.994	103.720	19.949	5.210	0.481
1214.500	685.607	80.004	19.994	103.720	19.935	6.149	0.510
1214.999	685.845	80.005	19.994	103.721	19.949	5.187	0.532
1215.499	686.122	80.003	19.995	103.719	19.945	5.457	0.520
1216.000	686.364	80.003	19.994	103.719	19.952	4.956	0.517
1216.500	686.657	80.004	19.994	103.718	19.951	5.072	0.526
1216.999	686.885	80.004	19.994	103.717	19.946	5.387	0.528
1217.500	687.171	80.005	19.994	103.720	19.947	5.357	0.518
1218.001	687.389	80.005	19.993	103.722	19.948	5.242	0.509
1218.500	687.631	80.004	19.995	103.723	19.950	5.152	0.482
1218.999	687.916	80.003	19.995	103.724	19.944	5.543	0.494
1219.499	688.103	80.003	19.995	103.725	19.945	5.463	0.499
1220.000	688.422	80.003	19.994	103.726	19.947	5.349	0.489
1220.500	688.680	80.003	19.996	103.728	19.947	5.312	0.542
1220.999	688.903	80.003	19.995	103.726	19.946	5.385	0.529
1221.499	689.157	80.004	19.995	103.724	19.949	5.169	0.479
1221.999	689.421	80.002	19.996	103.722	19.947	5.347	0.497
1222.499	689.692	80.001	19.995	103.719	19.946	5.435	0.527
1222.999	689.942	80.001	19.994	103.718	19.947	5.318	0.528
1223.499	690.214	80.002	19.995	103.718	19.949	5.187	0.521
1223.999	690.454	80.002	19.995	103.721	19.948	5.238	0.517
1224.499	690.747	80.002	19.995	103.723	19.948	5.271	0.522
1224.999	690.968	80.003	19.995	103.727	19.947	5.332	0.523
1225.499	691.250	80.003	19.997	103.730	19.949	5.201	0.508
1225.999	691.496	80.002	19.994	103.732	19.949	5.181	0.516
1226.499	691.778	80.002	19.994	103.732	19.946	5.424	0.528
1226.999	692.085	80.002	19.994	103.732	19.946	5.393	0.559
1227.499	692.239	80.002	19.995	103.731	19.948	5.265	0.525
1227.999	692.553	80.002	19.995	103.731	19.949	5.226	0.464
1228.499	692.420	80.004	19.994	103.730	19.946	5.373	0.324
1228.999	693.035	80.003	19.994	103.730	19.947	5.364	0.332
1229.499	693.290	80.001	19.995	103.730	19.947	5.337	0.676
1229.999	693.532	80.002	19.995	103.731	19.947	5.331	0.683
1230.499	693.967	80.002	19.994	103.731	19.946	5.390	0.587
1230.999	694.022	80.000	19.995	103.731	19.948	5.241	0.584
1231.499	694.412	80.000	19.995	103.730	19.947	5.304	0.468
1231.999	694.602	80.001	19.995	103.730	19.946	5.404	0.512
1232.499	694.837	80.001	19.995	103.730	19.949	5.207	0.502
1232.999	695.103	80.002	19.994	103.730	19.949	5.162	0.463
1233.499	695.362	80.001	19.996	103.731	19.945	5.461	0.513
1233.999	695.650	80.002	19.995	103.731	19.947	5.355	0.536
1234.499	695.921	80.003	19.995	103.731	19.948	5.236	0.553
1234.999	696.177	80.001	19.995	103.732	19.949	5.207	0.543
1235.499	696.428	80.003	19.998	103.732	19.948	5.240	0.517
1235.999	696.699	80.002	19.998	103.733	19.948	5.236	0.515
1236.499	696.916	80.002	19.998	103.733	19.947	5.326	0.505
1236.999	697.201	80.001	19.996	103.733	19.944	5.539	0.495
1237.500	697.442	80.002	19.996	103.733	19.944	5.521	0.514
1238.000	697.748	80.001	19.996	103.732	19.947	5.367	0.537
1238.500	697.977	80.000	19.996	103.730	19.945	5.479	0.541
1239.000	698.188	80.002	19.995	103.728	19.946	5.381	0.487
1239.499	698.513	80.003	19.997	103.726	19.943	5.637	0.488
1239.999	698.725	80.001	19.996	103.719	19.944	5.572	0.537
1240.499	698.980	80.001	19.995	103.713	19.943	5.644	0.502
1240.999	699.258	80.002	19.996	103.714	19.944	5.525	0.500
1241.499	699.527	80.001	19.995	103.715	19.944	5.549	0.540
1241.999	699.729	80.001	19.996	103.718	19.943	5.625	0.509
1242.499	700.048	80.001	19.996	103.724	19.945	5.498	0.496
1242.999	700.253	80.002	19.995	103.730	19.945	5.504	0.522
1243.499	700.528	80.001	19.996	103.730	19.945	5.494	0.502
1244.000	700.760	80.001	19.996	103.728	19.945	5.494	0.494
1244.500	701.011	80.001	19.995	103.728	19.947	5.357	0.495
1245.000	701.270	80.002	19.996	103.728	19.946	5.404	0.497
1245.500	701.542	80.001	19.996	103.728	19.946	5.426	0.521
1245.999	701.772	80.001	19.994	103.729	19.946	5.430	0.516
1246.499	702.064	80.001	19.995	103.730	19.946	5.385	0.512
1246.999	702.336	80.001	19.996	103.731	19.948	5.289	0.543
1247.499	702.561	80.001	19.995	103.731	19.946	5.418	0.531
1248.000	702.780	80.001	19.995	103.731	19.946	5.392	0.470
1248.500	703.072	80.001	19.995	103.731	19.946	5.416	0.477
1248.999	703.314	80.002	19.995	103.732	19.946	5.404	0.523
1249.500	703.571	80.002	19.996	103.732	19.946	5.439	0.516
1250.000	703.841	80.002	19.996	103.732	19.946	5.377	0.513
1250.499	704.084	80.001	19.995	103.732	19.945	5.461	0.520
1250.999	704.328	80.002	19.995	103.732	19.945	5.482	0.500
1251.499	704.571	80.001	19.996	103.728	19.946	5.433	0.486
1251.999	704.859	80.001	19.996	103.727	19.946	5.422	0.509
1252.499	705.073	80.001	19.995	103.728	19.947	5.318	0.517
1252.999	705.337	80.001	19.995	103.728	19.947	5.330	0.490
1253.499	705.549	80.001	19.993	103.728	19.942	5.668	0.477
1253.999	705.797	80.002	19.995	103.733	19.948	5.293	0.468
1254.499	706.057	80.000	19.995	103.733	19.944	5.517	0.484
1254.999	706.321	80.001	19.995	103.733	19.945	5.488	0.516
1255.499	706.571	80.001	19.995	103.733	19.947	5.357	0.519
1255.999	706.850	80.002	19.994	103.733	19.949	5.160	0.521
1256.500	707.077	80.000	19.995	103.731	19.947	5.343	0.517
1257.000	707.342	80.000	19.994	103.732	19.946	5.375	0.499
1257.499	707.625	80.001	19.994	103.731	19.945	5.471	0.520
1257.999	707.861	80.001	19.994	103.730	19.945	5.473	0.533
1258.499	708.112	80.001	19.996	103.728	19.944	5.578	0.503
1258.999	708.400	80.002	19.996	103.730	19.945	5.474	0.513
1259.500	708.621	80.002	19.995	103.730	19.942	5.654	0.524
1260.001	708.886	80.003	19.995	103.731	19.947	5.334	0.497
1260.500	709.115	80.001	19.995	103.731	19.944	5.519	0.490
1260.999	709.367	80.002	19.995	103.733	19.944	5.523	0.487
1261.499	709.643	80.001	19.995	103.732	19.945	5.507	0.505
1261.999	709.880	80.002	19.995	103.732	19.943	5.615	0.521
1262.499	710.114	80.002	19.995	103.730	19.943	5.613	0.492
1262.999	710.409	80.004	19.994	103.729	19.944	5.556	0.500
1263.500	710.648	80.002	19.995	103.728	19.943	5.621	0.531
1264.000	710.936	80.002	19.995	103.728	19.945	5.492	0.530
1264.499	711.157	80.004	19.995	103.728	19.944	5.533	0.518
1264.999	711.377	80.003	19.994	103.728	19.943	5.599	0.475
1265.499	711.655	80.003	19.994	103.729	19.943	5.601	0.470
1265.999	711.912	80.003	19.995	103.729	19.944	5.572	0.517
1266.499	712.124	80.002	19.994	103.729	19.942	5.668	0.502
1266.999	712.406	80.004	19.995	103.728	19.945	5.461	0.481
1267.499	712.595	80.003	19.995	103.729	19.944	5.533	0.482
1267.999	712.906	80.003	19.994	103.729	19.942	5.709	0.485
1268.499	713.120	80.004	19.995	103.729	19.943	5.642	0.513
1268.999	713.388	80.002	19.995	103.730	19.945	5.500	0.503
1269.499	713.630	80.003	19.994	103.729	19.945	5.463	0.496
1269.999	713.908	80.003	19.995	103.728	19.946	5.439	0.515
1270.499	714.123	80.003	19.994	103.728	19.944	5.523	0.506
1270.999	714.414	80.004	19.995	103.726	19.946	5.427	0.500
1271.499	714.632	80.004	19.994	103.726	19.946	5.390	0.508
1272.000	714.874	80.003	19.995	103.724	19.943	5.592	0.485
1272.501	715.129	80.003	19.994	103.723	19.945	5.455	0.478
1273.000	715.369	80.002	19.994	103.722	19.944	5.547	0.496
1273.500	715.638	80.002	19.995	103.723	19.944	5.514	0.501
1274.001	715.895	80.003	19.995	103.722	19.945	5.453	0.517
1274.500	716.130	80.003	19.994	103.722	19.945	5.510	0.509
1274.999	716.396	80.003	19.995	103.723	19.944	5.527	0.497
1275.499	716.647	80.002	19.994	103.724	19.943	5.611	0.509
1276.000	716.922	80.003	19.995	103.724	19.944	5.547	0.522
1276.500	717.180	80.002	19.995	103.724	19.944	5.543	0.529
1276.999	717.396	80.003	19.996	103.727	19.941	5.725	0.503
1277.499	717.666	80.003	19.994	103.725	19.942	5.685	0.480
1277.999	717.920	80.003	19.994	103.725	19.944	5.540	0.505
1278.499	718.136	80.003	19.994	103.726	19.943	5.619	0.497
1278.999	718.443	80.003	19.994	103.726	19.942	5.652	0.497
1279.499	718.652	80.002	19.994	103.727	19.943	5.642	0.520
1279.999	718.892	80.002	19.995	103.729	19.944	5.574	0.483
1280.499	719.145	80.003	19.994	103.730	19.942	5.673	0.471
1280.999	719.397	80.003	19.995	103.728	19.942	5.689	0.499
1281.499	719.627	80.003	19.995	103.727	19.941	5.777	0.494
1281.999	719.875	80.002	19.995	103.727	19.942	5.664	0.480
1282.499	720.138	80.002	19.995	103.726	19.943	5.601	0.494
1283.000	720.399	80.003	19.995	103.725	19.944	5.564	0.517
1283.501	720.605	80.004	19.995	103.728	19.944	5.562	0.495
1284.001	720.886	80.002	19.995	103.728	19.944	5.547	0.477
1284.500	721.158	80.003	19.993	103.728	19.946	5.437	0.520
1284.999	721.395	80.004	19.994	103.729	19.945	5.482	0.531
1285.499	721.637	80.001	19.994	103.730	19.942	5.707	0.494
1285.999	721.897	80.003	19.994	103.729	19.945	5.455	0.490
1286.499	722.168	80.003	19.993	103.729	19.941	5.764	0.516
1286.999	722.398	80.004	19.994	103.729	19.941	5.740	0.516
1287.499	722.668	80.002	19.994	103.729	19.941	5.725	0.501
1288.000	722.885	80.003	19.995	103.727	19.946	5.429	0.494
1288.500	723.148	80.004	19.995	103.723	19.944	5.560	0.483
1288.999	723.414	80.004	19.993	103.721	19.941	5.744	0.504
1289.500	723.628	80.005	19.994	103.719	19.942	5.670	0.505
1290.000	723.885	80.005	19.994	103.716	19.945	5.474	0.476
1290.500	724.130	80.004	19.995	103.717	19.943	5.635	0.487
1291.000	724.354	80.005	19.995	103.720	19.943	5.592	0.486
1291.499	724.612	80.004	19.994	103.721	19.941	5.733	0.476
1291.999	724.884	80.005	19.994	103.722	19.943	5.584	0.506
1292.499	725.130	80.004	19.994	103.723	19.943	5.613	0.524
1292.999	725.370	80.005	19.993	103.723	19.944	5.576	0.502
1293.499	725.621	80.003	19.994	103.725	19.943	5.598	0.489
1293.999	725.854	80.004	19.994	103.727	19.943	5.641	0.487
1294.499	726.102	80.003	19.994	103.727	19.942	5.688	0.482
1294.999	726.375	80.002	19.993	103.729	19.942	5.664	0.501
1295.499	726.643	80.004	19.997	103.730	19.938	5.948	0.531
1295.999	726.879	80.003	19.997	103.731	19.944	5.558	0.522
1296.499	727.118	80.004	19.995	103.732	19.942	5.660	0.489
1296.999	727.356	80.004	19.997	103.732	19.945	5.500	0.476
1297.499	727.637	80.005	19.996	103.732	19.944	5.531	0.498
1297.999	727.902	80.004	19.994	103.730	19.944	5.512	0.532
1298.499	728.120	80.004	19.996	103.726	19.941	5.750	0.515
1298.999	728.380	80.004	19.996	103.725	19.943	5.643	0.481
1299.499	728.654	80.004	19.995	103.724	19.943	5.604	0.506
1299.999	728.919	80.003	19.995	103.723	19.942	5.699	0.536
1300.500	729.113	80.003	19.996	103.724	19.943	5.621	0.499
1301.000	729.391	80.004	19.996	103.727	19.939	5.891	0.465
1301.499	729.609	80.003	19.995	103.728	19.942	5.672	0.484
1301.999	729.893	80.003	19.995	103.728	19.940	5.832	0.499
1302.499	730.147	80.003	19.995	103.730	19.938	5.950	0.520
1302.999	730.390	80.003	19.995	103.730	19.939	5.865	0.518
1303.500	730.659	80.002	19.995	103.729	19.940	5.817	0.504
1304.000	730.884	80.001	19.995	103.730	19.940	5.828	0.503
1304.499	731.153	80.002	19.996	103.729	19.939	5.930	0.494
1304.999	731.406	80.002	19.994	103.729	19.942	5.713	0.509
1305.500	731.613	80.001	19.996	103.730	19.935	6.151	0.491
1306.000	731.917	80.002	19.994	103.730	19.943	5.631	0.485
1306.499	732.174	80.002	19.995	103.729	19.938	5.969	0.536
1306.999	732.435	80.002	19.995	103.728	19.941	5.789	0.540
1307.499	732.675	80.002	19.995	103.727	19.941	5.760	0.509
1307.999	732.912	80.001	19.995	103.727	19.937	6.024	0.489
1308.499	733.179	80.001	19.996	103.727	19.940	5.852	0.491
1308.999	733.382	80.002	19.995	103.728	19.941	5.772	0.487
1309.499	733.669	80.002	19.996	103.730	19.940	5.836	0.480
1309.999	733.897	80.001	19.996	103.731	19.939	5.865	0.503
1310.500	734.202	80.001	19.995	103.732	19.939	5.886	0.524
1311.000	734.419	80.001	19.994	103.732	19.939	5.866	0.527
1311.499	734.708	80.002	19.995	103.733	19.939	5.895	0.514
1311.999	734.960	80.000	19.995	103.733	19.941	5.782	0.524
1312.500	735.173	80.002	19.994	103.733	19.939	5.923	0.504
1313.000	735.427	80.000	19.996	103.731	19.935	6.152	0.466
1313.499	735.688	80.000	19.995	103.729	19.938	5.998	0.491
1313.999	735.932	80.002	19.994	103.728	19.938	5.957	0.510
1314.499	736.220	80.000	19.996	103.728	19.939	5.869	0.519
1314.999	736.451	80.001	19.994	103.729	19.939	5.930	0.525
1315.499	736.631	80.001	19.995	103.731	19.939	5.869	0.465
1315.999	736.919	80.001	19.994	103.733	19.935	6.161	0.440
1316.499	737.172	80.002	19.995	103.733	19.940	5.852	0.504
1316.999	737.442	80.000	19.995	103.733	19.939	5.865	0.532
1317.499	737.666	80.002	19.994	103.733	19.939	5.867	0.509
1317.999	737.931	80.002	19.994	103.732	19.938	6.002	0.492
1318.499	738.159	80.002	19.994	103.732	19.936	6.106	0.491
1318.999	738.445	80.002	19.996	103.731	19.938	5.959	0.503
1319.499	738.691	80.001	19.994	103.733	19.936	6.104	0.523
1320.000	738.961	80.002	19.994	103.736	19.938	6.000	0.524
1320.500	739.204	80.001	19.994	103.730	19.933	6.337	0.515
1321.000	739.490	80.001	19.994	103.722	19.933	6.348	0.521
1321.500	739.722	80.003	19.994	103.715	19.935	6.151	0.523
1322.000	739.992	80.002	19.995	103.705	19.937	6.065	0.510
1322.500	740.200	80.002	19.996	103.695	19.933	6.298	0.490
1322.999	740.478	80.003	19.994	103.704	19.936	6.131	0.482
1323.499	740.738	80.001	19.995	103.713	19.935	6.176	0.512
1324.000	740.975	80.004	19.995	103.720	19.936	6.123	0.518
1324.500	741.254	80.002	19.996	103.724	19.939	5.916	0.506
1324.999	741.490	80.002	19.995	103.729	19.936	6.078	0.516
1325.499	741.748	80.002	19.994	103.727	19.938	5.992	0.505
1325.999	742.001	80.001	19.995	103.725	19.937	6.018	0.503
1326.499	742.277	80.003	19.995	103.724	19.938	5.969	0.520
1326.999	742.529	80.002	19.995	103.727	19.937	6.040	0.528
1327.500	742.796	80.003	19.995	103.725	19.937	6.022	0.523
1328.000	743.049	80.002	19.996	103.724	19.936	6.096	0.519
1328.499	743.300	80.002	19.995	103.724	19.936	6.129	0.512
