Sample ID:	C:\MCC\MCC Cal\Test\Straw_MCC_30K_220317_R1.txt
Sample Weight (mg):	4.54
Heating Rate (C/s):	0.5
Combustor Temp (C):	900
N2 Flow Rate (cc/min):	80
O2 Flow Rate (cc/min):	20
Calibration File:	C:\MCC\MCC Cal\Coeff1 JN10440_30_210304.txt.txt
T Correction Coefficients:	0	1.024463	0
Time Shift (s):	14
*
Time (s)	Temperature (C)	N2 flow rate (cc/min)	O2 flow rate (cc/min)	Flow Rate (cc/min)	Oxygen (%)	HRR (W/g)	Heating rate (C/s)
0.000	106.432	80.004	19.994	103.576	20.033	0.032	0.013
0.500	106.377	80.002	19.994	103.577	20.032	0.053	-0.007
1.000	106.439	80.003	19.995	103.576	20.033	0.041	-0.008
1.500	106.381	80.003	19.995	103.576	20.029	0.298	0.006
2.000	106.382	80.003	19.995	103.576	20.032	0.101	-0.026
2.500	106.403	80.002	19.995	103.576	20.027	0.456	-0.017
3.000	106.442	80.002	19.995	103.575	20.029	0.312	0.041
3.500	106.392	80.003	19.993	103.575	20.029	0.273	0.025
4.000	106.402	80.001	19.993	103.575	20.029	0.267	-0.026
4.500	106.402	80.001	19.995	103.575	20.029	0.271	-0.015
5.000	106.361	80.001	19.995	103.575	20.031	0.132	-0.016
5.500	106.386	80.003	19.994	103.578	20.028	0.379	-0.028
6.000	106.356	80.002	19.993	103.583	20.030	0.249	-0.010
6.500	106.349	80.003	19.995	103.585	20.029	0.284	-0.021
7.000	106.392	80.002	19.995	103.590	20.028	0.383	-0.001
7.500	106.384	80.002	19.996	103.595	20.029	0.279	0.036
8.000	106.406	79.998	19.996	103.594	20.028	0.391	0.025
8.500	106.384	80.001	19.995	103.593	20.029	0.285	0.007
9.000	106.448	80.001	19.994	103.596	20.028	0.352	0.021
9.500	106.427	80.001	19.995	103.594	20.025	0.585	0.042
10.000	106.453	80.001	19.995	103.590	20.025	0.569	0.024
10.500	106.467	80.000	19.995	103.591	20.024	0.654	0.022
11.001	106.443	80.000	19.995	103.595	20.028	0.378	0.015
11.501	106.435	80.001	19.995	103.594	20.023	0.745	-0.021
12.000	106.466	80.001	19.996	103.597	20.025	0.589	-0.004
12.500	106.474	80.002	19.995	103.604	20.024	0.623	0.031
13.000	106.460	80.001	19.995	103.610	20.027	0.465	0.016
13.500	106.491	80.002	19.995	103.615	20.022	0.801	0.005
14.000	106.459	80.002	19.995	103.624	20.025	0.575	0.008
14.500	106.475	80.001	19.995	103.627	20.025	0.575	-0.008
15.000	106.480	80.002	19.996	103.631	20.025	0.575	0.003
15.500	106.479	80.001	19.995	103.633	20.021	0.850	0.012
16.000	106.518	80.001	19.996	103.636	20.021	0.882	0.021
16.500	106.464	80.001	19.995	103.638	20.019	1.010	0.011
17.000	106.498	80.001	19.995	103.645	20.017	1.133	-0.018
17.500	106.519	80.000	19.995	103.656	20.019	0.997	0.018
18.000	106.534	80.000	19.998	103.667	20.016	1.204	0.046
18.500	106.528	80.002	19.998	103.677	20.019	1.026	0.022
19.000	106.567	80.000	19.996	103.686	20.017	1.133	0.021
19.500	106.600	80.001	19.996	103.693	20.017	1.143	0.052
20.000	106.594	80.001	19.997	103.695	20.015	1.291	0.050
20.500	106.640	80.001	19.996	103.700	20.016	1.218	0.034
21.000	106.717	80.003	19.995	103.702	20.014	1.372	0.082
21.500	106.666	80.001	19.996	103.709	20.011	1.600	0.074
22.000	106.712	80.002	19.996	103.716	20.010	1.639	0.010
22.500	106.747	80.001	19.996	103.722	20.011	1.572	0.038
23.000	106.776	80.003	19.995	103.728	20.006	1.938	0.072
23.500	106.812	80.003	19.995	103.738	20.009	1.691	0.064
24.000	106.839	80.003	19.994	103.745	20.004	2.043	0.064
24.500	106.884	80.002	19.996	103.753	20.008	1.815	0.068
25.000	106.912	80.001	19.996	103.759	20.007	1.853	0.073
25.500	106.941	80.001	19.995	103.767	20.005	2.031	0.065
26.000	107.011	80.001	19.994	103.768	20.003	2.167	0.078
26.500	107.041	80.002	19.994	103.767	20.002	2.199	0.100
27.000	107.100	80.002	19.995	103.766	20.002	2.217	0.094
27.500	107.130	80.001	19.995	103.766	20.000	2.328	0.089
28.000	107.221	80.002	19.994	103.766	20.001	2.267	0.105
28.500	107.268	80.002	19.995	103.765	20.000	2.364	0.130
29.000	107.322	80.001	19.995	103.766	20.001	2.326	0.120
29.500	107.354	80.001	19.995	103.767	20.001	2.311	0.093
30.000	107.399	80.001	19.995	103.768	20.001	2.303	0.081
30.500	107.456	80.002	19.995	103.768	19.999	2.437	0.090
31.000	107.508	80.002	19.994	103.769	20.000	2.378	0.106
31.500	107.615	80.001	19.995	103.774	19.998	2.482	0.134
32.000	107.677	80.001	19.996	103.776	20.000	2.387	0.164
32.500	107.760	80.001	19.996	103.777	19.996	2.617	0.157
33.000	107.808	80.000	19.994	103.777	19.998	2.500	0.138
33.500	107.917	80.001	19.995	103.777	19.993	2.848	0.144
34.000	107.931	80.000	19.995	103.773	19.994	2.801	0.140
34.500	108.059	80.000	19.996	103.772	19.997	2.579	0.132
35.000	108.125	80.002	19.996	103.771	19.996	2.619	0.168
35.500	108.187	80.000	19.995	103.772	19.996	2.628	0.161
36.000	108.282	80.002	19.996	103.775	19.995	2.739	0.142
36.500	108.378	80.000	19.994	103.775	19.993	2.864	0.174
37.000	108.420	80.000	19.996	103.775	19.993	2.850	0.165
37.500	108.515	80.001	19.996	103.778	19.991	3.002	0.138
38.000	108.599	79.999	19.995	103.785	19.991	2.996	0.158
38.500	108.687	80.000	19.995	103.791	19.991	2.983	0.175
39.000	108.826	80.000	19.996	103.798	19.987	3.272	0.200
39.500	108.890	80.001	19.995	103.807	19.989	3.147	0.215
40.000	108.987	80.001	19.996	103.811	19.990	3.044	0.182
40.501	109.061	80.001	19.996	103.812	19.991	3.010	0.166
41.001	109.185	80.002	19.995	103.812	19.989	3.131	0.185
41.500	109.268	80.002	19.996	103.807	19.991	2.975	0.202
42.000	109.416	80.001	19.996	103.801	19.990	3.072	0.219
42.500	109.465	80.001	19.996	103.794	19.991	2.973	0.214
43.000	109.583	80.001	19.996	103.789	19.990	3.084	0.182
43.500	109.714	80.001	19.996	103.783	19.991	3.006	0.208
44.000	109.799	80.002	19.996	103.782	19.991	2.979	0.232
44.500	109.908	80.001	19.996	103.782	19.993	2.880	0.205
45.000	110.047	80.002	19.995	103.786	19.991	2.979	0.221
45.500	110.122	80.002	19.996	103.787	19.990	3.054	0.231
46.000	110.247	80.001	19.996	103.790	19.992	2.963	0.207
46.500	110.314	80.002	19.996	103.786	19.993	2.826	0.196
47.001	110.471	80.003	19.995	103.784	19.990	3.040	0.207
47.501	110.534	80.001	19.995	103.781	19.989	3.116	0.222
48.000	110.659	80.002	19.995	103.779	19.991	2.999	0.204
48.500	110.770	80.003	19.995	103.779	19.991	2.995	0.212
49.000	110.872	80.003	19.995	103.784	19.992	2.908	0.225
49.500	111.029	80.003	19.994	103.789	19.991	2.975	0.236
50.000	111.135	80.001	19.995	103.795	19.992	2.926	0.260
50.500	111.255	80.003	19.994	103.796	19.992	2.938	0.244
51.000	111.327	80.002	19.995	103.793	19.989	3.153	0.209
51.500	111.467	80.001	19.994	103.789	19.993	2.868	0.202
52.000	111.587	80.002	19.994	103.786	19.991	3.003	0.236
52.501	111.735	80.002	19.994	103.785	19.990	3.086	0.264
53.001	111.803	80.002	19.996	103.787	19.989	3.112	0.242
53.501	111.949	80.003	19.995	103.792	19.990	3.074	0.216
54.001	112.091	80.001	19.995	103.795	19.991	3.003	0.251
54.500	112.220	80.002	19.994	103.793	19.989	3.130	0.279
55.000	112.348	80.003	19.993	103.789	19.988	3.197	0.264
55.500	112.456	80.000	19.993	103.789	19.990	3.080	0.247
56.000	112.603	80.002	19.994	103.785	19.987	3.302	0.245
56.500	112.752	80.002	19.995	103.784	19.988	3.252	0.276
57.000	112.869	80.002	19.994	103.789	19.990	3.086	0.282
57.500	112.995	80.002	19.995	103.794	19.987	3.298	0.255
58.000	113.141	80.002	19.994	103.797	19.988	3.232	0.258
58.500	113.303	80.001	19.995	103.804	19.989	3.177	0.290
59.000	113.418	80.000	19.994	103.811	19.991	3.009	0.292
59.500	113.569	80.003	19.994	103.812	19.989	3.167	0.271
60.000	113.701	80.001	19.994	103.812	19.990	3.098	0.274
60.500	113.813	80.002	19.994	103.811	19.989	3.142	0.263
61.000	114.009	80.001	19.995	103.811	19.989	3.114	0.276
61.500	114.094	80.001	19.995	103.812	19.991	3.001	0.294
62.000	114.281	80.001	19.993	103.812	19.988	3.187	0.276
62.500	114.415	80.001	19.992	103.811	19.991	3.003	0.297
63.000	114.560	80.000	19.994	103.810	19.989	3.175	0.300
63.500	114.697	80.001	19.994	103.810	19.987	3.314	0.280
64.000	114.829	80.000	19.994	103.810	19.989	3.130	0.275
64.500	114.967	80.002	19.994	103.809	19.987	3.266	0.270
65.000	115.118	80.001	19.994	103.810	19.987	3.276	0.280
65.501	115.277	80.001	19.994	103.810	19.989	3.116	0.299
66.001	115.393	80.002	19.994	103.810	19.986	3.367	0.292
66.501	115.551	80.001	19.994	103.810	19.985	3.407	0.275
67.001	115.703	80.001	19.994	103.810	19.985	3.458	0.292
67.501	115.853	80.001	19.995	103.810	19.984	3.490	0.306
68.001	116.004	80.002	19.994	103.810	19.984	3.494	0.302
68.500	116.168	80.003	19.994	103.810	19.983	3.605	0.308
69.000	116.321	80.002	19.993	103.810	19.985	3.431	0.316
69.500	116.440	80.002	19.994	103.814	19.985	3.443	0.294
70.000	116.594	80.004	19.993	103.814	19.984	3.486	0.272
70.500	116.765	80.004	19.994	103.814	19.986	3.393	0.299
71.000	116.931	80.004	19.994	103.814	19.986	3.342	0.331
71.500	117.113	80.005	19.993	103.813	19.985	3.419	0.343
72.000	117.284	80.004	19.994	103.809	19.986	3.350	0.351
72.500	117.445	80.004	19.994	103.808	19.983	3.596	0.343
73.000	117.624	80.003	19.994	103.808	19.981	3.720	0.336
73.500	117.778	80.003	19.993	103.808	19.983	3.592	0.336
74.000	117.960	80.004	19.994	103.807	19.983	3.596	0.334
74.500	118.121	80.004	19.993	103.809	19.983	3.600	0.340
75.000	118.298	80.003	19.995	103.809	19.983	3.546	0.340
75.500	118.430	80.004	19.994	103.811	19.980	3.805	0.323
76.000	118.629	80.002	19.995	103.813	19.982	3.633	0.320
76.500	118.792	80.004	19.995	103.813	19.982	3.623	0.347
77.000	118.979	80.002	19.995	103.811	19.981	3.750	0.356
77.500	119.122	80.001	19.994	103.811	19.982	3.667	0.340
78.000	119.288	80.003	19.997	103.810	19.984	3.509	0.320
78.501	119.451	80.003	19.997	103.816	19.983	3.550	0.319
79.001	119.622	80.002	19.997	103.821	19.981	3.685	0.331
79.500	119.797	80.003	19.995	103.823	19.980	3.794	0.340
80.000	119.971	80.001	19.996	103.827	19.978	3.946	0.347
80.500	120.136	80.002	19.995	103.830	19.979	3.877	0.344
81.000	120.312	80.001	19.996	103.825	19.978	3.966	0.340
81.500	120.458	80.001	19.995	103.825	19.978	3.938	0.332
82.000	120.663	80.001	19.995	103.831	19.979	3.857	0.336
82.500	120.813	80.001	19.995	103.833	19.978	3.936	0.353
83.000	121.050	80.002	19.994	103.838	19.975	4.134	0.371
83.500	121.241	80.001	19.994	103.843	19.977	4.025	0.408
84.000	121.399	80.003	19.994	103.845	19.976	4.102	0.389
84.500	121.603	80.001	19.995	103.845	19.977	4.033	0.356
85.000	121.768	80.003	19.995	103.846	19.977	4.021	0.366
85.500	121.983	80.002	19.994	103.845	19.976	4.059	0.375
86.000	122.121	80.002	19.995	103.844	19.978	3.950	0.366
86.500	122.302	80.001	19.995	103.840	19.974	4.189	0.336
87.000	122.544	80.002	19.994	103.838	19.974	4.209	0.371
87.500	122.728	80.001	19.995	103.837	19.976	4.057	0.424
88.000	122.945	80.001	19.995	103.838	19.979	3.897	0.413
88.500	123.124	80.002	19.995	103.840	19.976	4.104	0.398
89.000	123.289	80.001	19.995	103.845	19.977	4.023	0.370
89.500	123.497	80.001	19.995	103.847	19.977	3.990	0.359
90.000	123.692	80.001	19.994	103.848	19.977	3.990	0.388
90.500	123.881	80.000	19.995	103.848	19.976	4.053	0.394
91.000	124.094	80.003	19.994	103.847	19.979	3.885	0.393
91.500	124.269	80.002	19.995	103.847	19.977	3.982	0.395
92.000	124.465	80.000	19.996	103.847	19.978	3.954	0.379
92.501	124.634	80.002	19.994	103.848	19.978	3.903	0.368
93.001	124.842	80.000	19.995	103.849	19.979	3.889	0.371
93.500	125.018	80.003	19.994	103.851	19.979	3.895	0.380
94.000	125.267	80.000	19.994	103.851	19.978	3.930	0.405
94.500	125.435	80.001	19.995	103.851	19.978	3.946	0.421
95.000	125.648	80.001	19.994	103.850	19.979	3.847	0.400
95.500	125.818	80.001	19.994	103.850	19.980	3.788	0.382
96.000	126.038	80.002	19.995	103.848	19.977	4.011	0.386
96.500	126.208	80.003	19.993	103.847	19.978	3.946	0.390
97.000	126.435	80.001	19.995	103.848	19.978	3.950	0.393
97.500	126.625	80.002	19.995	103.849	19.975	4.162	0.407
98.000	126.845	80.001	19.995	103.849	19.979	3.869	0.414
98.500	127.014	80.001	19.995	103.850	19.981	3.754	0.399
99.000	127.267	80.002	19.995	103.851	19.978	3.968	0.405
99.500	127.474	80.002	19.995	103.851	19.980	3.808	0.442
100.000	127.657	80.002	19.995	103.850	19.979	3.869	0.425
100.500	127.874	80.002	19.994	103.850	19.980	3.792	0.395
101.000	128.104	80.002	19.994	103.850	19.978	3.924	0.424
101.500	128.295	80.001	19.995	103.850	19.980	3.792	0.434
102.000	128.542	80.002	19.994	103.850	19.979	3.851	0.429
102.500	128.749	80.003	19.994	103.850	19.981	3.754	0.446
103.000	128.931	80.001	19.995	103.851	19.977	3.978	0.421
103.500	129.163	80.001	19.995	103.850	19.977	4.037	0.402
104.000	129.408	80.002	19.995	103.850	19.982	3.667	0.446
104.500	129.615	80.002	19.996	103.850	19.977	3.972	0.464
105.000	129.858	80.001	19.995	103.850	19.979	3.859	0.451
105.500	130.013	80.002	19.995	103.849	19.977	4.021	0.424
106.000	130.263	80.000	19.996	103.849	19.975	4.120	0.402
106.500	130.492	80.000	19.994	103.849	19.978	3.950	0.441
107.000	130.657	80.000	19.996	103.846	19.979	3.895	0.436
107.500	130.893	80.001	19.995	103.842	19.979	3.853	0.398
108.000	131.152	80.002	19.994	103.842	19.976	4.055	0.448
108.500	131.365	80.001	19.995	103.842	19.978	3.908	0.483
109.000	131.548	80.001	19.995	103.842	19.978	3.950	0.434
109.500	131.782	80.001	19.996	103.845	19.979	3.851	0.406
110.001	131.998	80.001	19.997	103.848	19.974	4.221	0.434
110.501	132.229	80.001	19.996	103.849	19.980	3.790	0.449
111.000	132.444	80.000	19.996	103.848	19.980	3.756	0.446
111.500	132.648	79.999	19.996	103.849	19.978	3.903	0.433
112.000	132.889	80.001	19.995	103.849	19.976	4.091	0.432
112.500	133.108	80.001	19.996	103.850	19.977	3.986	0.453
113.000	133.347	80.001	19.994	103.850	19.982	3.683	0.459
113.500	133.544	80.001	19.995	103.850	19.980	3.762	0.447
114.000	133.827	80.002	19.995	103.850	19.977	4.021	0.458
114.500	134.025	79.999	19.995	103.850	19.980	3.762	0.480
115.000	134.259	80.000	19.995	103.848	19.980	3.804	0.456
115.500	134.475	80.001	19.995	103.848	19.977	4.015	0.441
116.000	134.697	79.998	19.995	103.847	19.974	4.225	0.444
116.500	134.913	80.000	19.995	103.847	19.976	4.108	0.438
117.000	135.106	80.001	19.995	103.847	19.976	4.049	0.423
117.500	135.368	80.002	19.995	103.850	19.977	4.021	0.432
118.001	135.575	80.001	19.995	103.850	19.977	4.031	0.462
118.501	135.804	80.000	19.995	103.850	19.979	3.887	0.453
119.001	136.019	80.000	19.995	103.848	19.976	4.100	0.440
119.501	136.291	80.000	19.995	103.847	19.981	3.732	0.465
120.000	136.514	80.000	19.994	103.847	19.976	4.110	0.491
120.500	136.740	80.001	19.994	103.847	19.978	3.952	0.472
121.000	136.975	80.001	19.995	103.848	19.976	4.096	0.455
121.500	137.213	80.000	19.994	103.850	19.974	4.205	0.467
122.000	137.468	80.002	19.994	103.851	19.976	4.092	0.483
122.500	137.676	80.002	19.994	103.852	19.976	4.082	0.478
123.000	137.899	80.001	19.994	103.852	19.980	3.791	0.447
123.500	138.164	80.002	19.995	103.852	19.974	4.213	0.460
124.000	138.367	80.000	19.994	103.851	19.978	3.943	0.478
124.500	138.596	80.001	19.995	103.850	19.975	4.181	0.450
125.000	138.835	80.001	19.995	103.850	19.977	4.013	0.450
125.500	139.065	80.003	19.995	103.849	19.976	4.045	0.469
126.000	139.286	80.001	19.995	103.848	19.974	4.183	0.460
126.500	139.520	80.005	19.993	103.848	19.979	3.888	0.453
127.000	139.749	80.003	19.994	103.848	19.977	4.027	0.460
127.500	139.965	80.001	19.995	103.847	19.979	3.867	0.454
128.000	140.254	80.003	19.995	103.846	19.975	4.164	0.474
128.500	140.444	80.002	19.995	103.846	19.976	4.075	0.492
129.000	140.657	80.003	19.994	103.847	19.977	3.976	0.441
129.500	140.919	80.002	19.995	103.846	19.974	4.205	0.439
130.000	141.117	80.003	19.995	103.846	19.977	3.993	0.467
130.500	141.383	80.003	19.995	103.847	19.977	4.031	0.462
131.000	141.644	80.002	19.995	103.845	19.970	4.470	0.495
131.500	141.834	80.002	19.994	103.842	19.975	4.157	0.489
132.000	142.085	80.001	19.995	103.839	19.977	4.001	0.446
132.500	142.337	80.001	19.995	103.839	19.979	3.886	0.472
133.000	142.577	80.001	19.994	103.838	19.976	4.041	0.498
133.500	142.803	80.001	19.996	103.838	19.979	3.886	0.479
134.000	143.057	80.001	19.997	103.833	19.979	3.889	0.473
134.500	143.302	80.001	19.996	103.831	19.975	4.136	0.490
135.000	143.495	80.001	19.996	103.830	19.975	4.156	0.468
135.500	143.751	80.001	19.996	103.831	19.978	3.936	0.443
136.000	143.994	80.001	19.995	103.833	19.977	3.979	0.474
136.500	144.251	80.001	19.996	103.839	19.979	3.865	0.500
137.000	144.497	80.001	19.995	103.843	19.979	3.888	0.502
137.500	144.736	79.999	19.995	103.843	19.977	4.011	0.494
138.000	144.980	80.000	19.998	103.844	19.980	3.773	0.484
138.500	145.221	80.001	19.997	103.844	19.979	3.843	0.484
139.000	145.444	80.002	19.997	103.845	19.979	3.853	0.475
139.500	145.702	80.001	19.998	103.846	19.978	3.956	0.473
140.000	145.964	80.000	19.998	103.844	19.981	3.748	0.501
140.500	146.194	80.002	19.997	103.843	19.980	3.764	0.506
141.000	146.448	80.002	19.997	103.843	19.977	3.999	0.487
141.500	146.677	80.001	19.996	103.842	19.981	3.732	0.483
142.000	146.894	80.001	19.997	103.840	19.978	3.965	0.464
142.500	147.122	80.002	19.995	103.839	19.977	4.003	0.445
143.000	147.395	80.002	19.995	103.839	19.980	3.771	0.473
143.500	147.659	80.003	19.995	103.838	19.975	4.151	0.520
144.000	147.881	80.002	19.995	103.838	19.980	3.773	0.512
144.500	148.099	80.001	19.994	103.841	19.980	3.787	0.463
145.000	148.355	80.003	19.994	103.845	19.978	3.964	0.456
145.500	148.601	80.003	19.994	103.847	19.981	3.722	0.487
146.000	148.849	80.004	19.994	103.846	19.981	3.732	0.498
146.500	149.099	80.003	19.994	103.844	19.981	3.740	0.496
147.000	149.352	80.003	19.994	103.841	19.979	3.884	0.501
147.500	149.610	80.003	19.995	103.839	19.977	3.971	0.507
148.000	149.836	80.002	19.994	103.837	19.977	4.012	0.498
148.500	150.110	80.003	19.994	103.836	19.978	3.937	0.492
149.000	150.354	80.004	19.995	103.833	19.980	3.820	0.509
149.500	150.587	80.003	19.994	103.835	19.978	3.917	0.498
150.000	150.839	80.003	19.994	103.837	19.981	3.694	0.481
150.500	151.092	80.004	19.994	103.837	19.977	3.969	0.495
151.000	151.314	80.004	19.994	103.840	19.975	4.116	0.490
151.500	151.534	80.004	19.995	103.842	19.978	3.906	0.459
152.000	151.826	80.003	19.995	103.840	19.978	3.920	0.477
152.500	152.039	80.004	19.994	103.839	19.976	4.074	0.508
153.000	152.285	80.004	19.994	103.836	19.976	4.062	0.482
153.500	152.557	80.006	19.993	103.830	19.979	3.886	0.489
154.000	152.789	80.004	19.995	103.832	19.976	4.070	0.511
154.500	153.059	80.005	19.995	103.832	19.979	3.859	0.503
155.000	153.303	80.006	19.994	103.832	19.978	3.924	0.508
155.500	153.562	80.003	19.994	103.835	19.978	3.966	0.509
156.000	153.774	80.005	19.994	103.840	19.981	3.750	0.487
156.500	154.009	80.004	19.994	103.841	19.979	3.864	0.459
157.000	154.275	80.002	19.995	103.842	19.982	3.617	0.474
157.500	154.481	80.003	19.995	103.838	19.979	3.830	0.486
158.000	154.726	80.004	19.994	103.833	19.979	3.884	0.462
158.500	155.014	80.003	19.994	103.830	19.977	3.969	0.492
159.000	155.271	80.003	19.995	103.823	19.973	4.260	0.538
159.500	155.497	80.001	19.995	103.819	19.978	3.905	0.514
160.000	155.732	80.001	19.995	103.819	19.975	4.131	0.472
160.500	155.964	80.001	19.994	103.823	19.973	4.264	0.464
161.000	156.180	80.000	19.994	103.826	19.974	4.190	0.458
161.500	156.421	80.000	19.994	103.833	19.976	4.060	0.453
162.000	156.676	80.001	19.996	103.835	19.973	4.273	0.476
162.500	156.916	80.001	19.995	103.838	19.979	3.888	0.495
163.000	157.188	80.002	19.995	103.837	19.976	4.089	0.503
163.500	157.450	80.002	19.995	103.835	19.978	3.949	0.523
164.000	157.700	80.001	19.995	103.836	19.977	4.022	0.523
164.500	157.932	80.001	19.995	103.839	19.976	4.066	0.497
165.000	158.190	80.000	19.994	103.841	19.977	3.983	0.486
165.500	158.418	80.000	19.995	103.845	19.975	4.145	0.488
166.000	158.701	80.001	19.995	103.845	19.975	4.155	0.498
166.500	158.908	80.000	19.996	103.841	19.979	3.892	0.501
167.000	159.168	80.002	19.995	103.837	19.975	4.111	0.479
167.500	159.414	80.002	19.994	103.830	19.976	4.069	0.486
168.000	159.677	80.002	19.995	103.825	19.979	3.866	0.507
168.500	159.907	80.001	19.994	103.821	19.976	4.091	0.501
169.000	160.173	80.001	19.995	103.818	19.976	4.056	0.494
169.500	160.363	80.003	19.995	103.815	19.978	3.917	0.476
170.000	160.674	80.002	19.996	103.820	19.979	3.872	0.479
170.500	160.914	80.002	19.995	103.820	19.977	4.004	0.526
171.000	161.165	79.999	19.994	103.822	19.979	3.832	0.521
171.500	161.389	80.001	19.995	103.824	19.977	4.018	0.483
172.000	161.635	80.002	19.995	103.824	19.976	4.056	0.472
172.500	161.863	80.000	19.995	103.820	19.976	4.083	0.472
173.000	162.149	80.000	19.994	103.819	19.976	4.083	0.494
173.500	162.388	80.000	19.995	103.819	19.976	4.058	0.520
174.000	162.636	80.003	19.995	103.818	19.976	4.066	0.506
174.500	162.818	80.001	19.993	103.818	19.975	4.113	0.458
175.000	163.068	80.000	19.994	103.819	19.974	4.182	0.431
175.500	163.332	80.002	19.995	103.820	19.975	4.163	0.473
176.000	163.593	80.001	19.995	103.822	19.974	4.240	0.520
176.500	163.832	80.001	19.994	103.821	19.975	4.143	0.513
177.000	164.125	80.001	19.995	103.822	19.976	4.042	0.516
177.500	164.328	80.001	19.994	103.820	19.975	4.129	0.514
178.000	164.597	80.000	19.994	103.818	19.975	4.143	0.484
178.500	164.895	80.002	19.994	103.813	19.975	4.170	0.519
179.000	165.118	80.001	19.994	103.814	19.973	4.259	0.544
179.500	165.352	80.002	19.993	103.814	19.971	4.421	0.489
180.000	165.620	80.002	19.994	103.815	19.974	4.224	0.479
180.500	165.829	80.002	19.994	103.819	19.974	4.202	0.489
181.000	166.094	80.002	19.995	103.820	19.974	4.204	0.475
181.500	166.339	80.000	19.995	103.819	19.975	4.129	0.492
182.000	166.609	80.001	19.994	103.819	19.975	4.176	0.512
182.500	166.858	80.002	19.996	103.818	19.974	4.251	0.517
183.000	167.089	80.001	19.994	103.815	19.976	4.081	0.500
183.500	167.381	80.000	19.996	103.816	19.976	4.048	0.502
184.000	167.584	80.002	19.995	103.817	19.977	3.982	0.509
184.500	167.854	80.002	19.995	103.819	19.978	3.913	0.484
185.000	168.097	80.000	19.995	103.820	19.975	4.146	0.493
185.500	168.327	80.002	19.995	103.820	19.975	4.164	0.493
186.000	168.578	80.000	19.993	103.821	19.973	4.261	0.477
186.500	168.799	80.001	19.994	103.820	19.976	4.073	0.477
187.000	169.107	80.002	19.994	103.818	19.977	4.020	0.501
187.500	169.343	80.001	19.993	103.817	19.973	4.315	0.536
188.000	169.558	79.999	19.995	103.817	19.976	4.054	0.497
188.500	169.826	80.000	19.994	103.814	19.972	4.374	0.467
189.000	170.039	80.000	19.994	103.813	19.976	4.099	0.482
189.500	170.314	80.000	19.994	103.812	19.975	4.111	0.484
190.000	170.558	80.001	19.994	103.811	19.973	4.281	0.503
190.500	170.815	80.001	19.995	103.811	19.973	4.267	0.510
191.000	171.053	80.002	19.995	103.811	19.975	4.164	0.498
191.500	171.278	80.002	19.994	103.811	19.973	4.261	0.480
192.000	171.560	80.002	19.995	103.813	19.975	4.137	0.485
192.500	171.772	80.001	19.995	103.813	19.976	4.091	0.500
193.000	172.032	80.000	19.996	103.814	19.976	4.101	0.483
193.500	172.275	80.000	19.995	103.814	19.972	4.392	0.488
194.000	172.524	80.001	19.995	103.813	19.973	4.283	0.497
194.500	172.786	80.000	19.995	103.812	19.972	4.376	0.501
195.000	173.032	80.000	19.995	103.811	19.972	4.394	0.510
195.500	173.266	80.000	19.996	103.810	19.971	4.457	0.494
196.000	173.539	80.000	19.996	103.810	19.972	4.336	0.494
196.500	173.770	80.001	19.995	103.809	19.975	4.117	0.505
197.000	174.036	79.999	19.996	103.810	19.975	4.138	0.500
197.500	174.292	79.998	19.995	103.810	19.973	4.320	0.509
198.000	174.554	80.000	19.997	103.810	19.971	4.461	0.520
198.500	174.783	80.001	19.996	103.815	19.971	4.461	0.505
199.000	175.023	79.999	19.998	103.817	19.972	4.392	0.480
199.500	175.270	80.002	19.996	103.817	19.974	4.233	0.477
200.000	175.471	80.001	19.994	103.817	19.974	4.245	0.467
200.500	175.729	80.002	19.996	103.817	19.974	4.186	0.454
201.000	175.976	80.001	19.995	103.811	19.974	4.182	0.482
201.500	176.260	80.002	19.996	103.809	19.974	4.225	0.518
202.000	176.457	80.003	19.996	103.809	19.973	4.255	0.506
202.500	176.707	80.001	19.995	103.813	19.973	4.279	0.464
203.000	176.962	80.001	19.996	103.813	19.974	4.240	0.476
203.500	177.188	80.002	19.996	103.813	19.973	4.297	0.493
204.000	177.451	80.002	19.996	103.813	19.971	4.427	0.485
204.500	177.715	80.002	19.995	103.813	19.970	4.492	0.508
205.000	177.929	80.002	19.995	103.810	19.969	4.555	0.502
205.500	178.192	80.002	19.995	103.810	19.972	4.376	0.477
206.000	178.461	80.002	19.995	103.810	19.972	4.330	0.505
206.500	178.690	80.001	19.995	103.810	19.969	4.549	0.515
207.000	178.939	80.002	19.994	103.809	19.970	4.477	0.488
207.500	179.179	80.001	19.993	103.808	19.972	4.376	0.484
208.001	179.375	80.002	19.995	103.808	19.968	4.665	0.462
208.500	179.661	80.001	19.996	103.809	19.971	4.421	0.459
209.000	179.919	80.003	19.995	103.811	19.973	4.299	0.513
209.500	180.190	80.003	19.996	103.811	19.972	4.394	0.536
210.000	180.430	80.002	19.996	103.811	19.973	4.301	0.520
210.500	180.633	80.001	19.994	103.811	19.972	4.364	0.477
211.000	180.876	80.002	19.993	103.809	19.968	4.631	0.445
211.500	181.115	80.002	19.995	103.808	19.969	4.574	0.464
212.000	181.418	80.002	19.995	103.808	19.971	4.407	0.512
212.500	181.645	80.003	19.994	103.808	19.970	4.506	0.536
213.000	181.883	80.001	19.996	103.810	19.966	4.793	0.497
213.500	182.133	80.002	19.995	103.806	19.969	4.550	0.477
214.001	182.400	80.001	19.995	103.787	19.965	4.882	0.502
214.501	182.606	80.002	19.996	103.767	19.964	4.920	0.495
215.000	182.890	80.002	19.994	103.752	19.966	4.773	0.482
215.500	183.109	80.002	19.995	103.744	19.963	4.971	0.497
216.000	183.353	80.001	19.995	103.742	19.971	4.439	0.483
216.500	183.592	80.001	19.994	103.760	19.965	4.847	0.473
217.000	183.871	80.002	19.995	103.806	19.966	4.805	0.501
217.500	184.121	80.002	19.996	103.844	19.964	4.900	0.523
218.000	184.357	80.001	19.995	103.859	19.967	4.742	0.507
218.500	184.597	80.002	19.996	103.867	19.969	4.552	0.482
219.000	184.837	80.002	19.996	103.867	19.967	4.714	0.478
219.500	185.102	80.000	19.996	103.840	19.963	4.979	0.492
220.000	185.385	80.001	19.995	103.816	19.966	4.754	0.527
220.500	185.610	80.002	19.995	103.807	19.966	4.773	0.528
221.000	185.878	80.003	19.996	103.806	19.967	4.706	0.501
221.500	186.106	80.002	19.996	103.806	19.967	4.748	0.495
222.000	186.352	80.002	19.995	103.805	19.967	4.738	0.485
222.500	186.614	80.002	19.994	103.806	19.964	4.940	0.490
223.000	186.854	80.001	19.995	103.807	19.968	4.653	0.505
223.500	187.087	80.001	19.995	103.806	19.963	5.007	0.488
224.000	187.368	80.001	19.995	103.807	19.967	4.698	0.494
224.500	187.587	80.002	19.995	103.808	19.964	4.926	0.507
225.000	187.879	80.001	19.995	103.809	19.967	4.736	0.505
225.500	188.082	80.003	19.996	103.809	19.963	4.967	0.503
226.000	188.321	80.001	19.996	103.809	19.968	4.643	0.469
226.500	188.578	80.002	19.995	103.808	19.964	4.896	0.469
227.000	188.834	80.002	19.995	103.808	19.963	5.033	0.504
227.500	189.091	80.002	19.995	103.807	19.964	4.940	0.513
228.000	189.305	80.003	19.996	103.807	19.962	5.056	0.493
228.500	189.568	80.002	19.995	103.808	19.964	4.912	0.474
229.001	189.794	80.003	19.995	103.808	19.961	5.126	0.483
229.500	190.065	80.001	19.996	103.809	19.966	4.817	0.493
230.000	190.279	80.002	19.997	103.809	19.961	5.139	0.491
230.500	190.545	80.000	19.996	103.809	19.961	5.120	0.483
231.000	190.774	80.002	19.995	103.808	19.963	4.985	0.488
231.500	191.040	80.003	19.995	103.809	19.964	4.961	0.495
232.000	191.271	80.003	19.995	103.808	19.962	5.098	0.496
232.500	191.536	80.003	19.995	103.808	19.961	5.134	0.497
233.000	191.811	80.003	19.994	103.808	19.963	5.013	0.518
233.500	192.008	80.004	19.994	103.808	19.960	5.181	0.506
234.000	192.249	80.004	19.995	103.807	19.963	4.979	0.455
234.500	192.552	80.003	19.995	103.806	19.961	5.118	0.491
235.000	192.794	80.003	19.994	103.806	19.961	5.151	0.544
235.500	193.013	80.003	19.994	103.806	19.960	5.221	0.502
236.000	193.246	80.004	19.994	103.806	19.957	5.411	0.457
236.500	193.501	80.003	19.994	103.807	19.959	5.266	0.471
237.000	193.806	80.004	19.994	103.808	19.962	5.074	0.524
237.500	194.037	80.002	19.993	103.809	19.961	5.134	0.548
238.000	194.221	80.002	19.994	103.810	19.959	5.258	0.475
238.500	194.512	80.003	19.993	103.809	19.961	5.165	0.445
239.000	194.766	80.002	19.994	103.810	19.960	5.238	0.510
239.500	195.027	80.001	19.994	103.809	19.961	5.157	0.531
240.000	195.260	80.002	19.994	103.809	19.959	5.268	0.504
240.500	195.517	80.002	19.995	103.809	19.958	5.361	0.492
241.000	195.731	80.001	19.995	103.809	19.961	5.137	0.481
241.500	195.993	80.001	19.995	103.809	19.958	5.359	0.474
242.000	196.223	80.000	19.994	103.810	19.955	5.571	0.484
242.500	196.466	80.000	19.994	103.811	19.958	5.337	0.482
243.000	196.695	80.001	19.994	103.811	19.957	5.397	0.473
243.500	196.961	80.001	19.994	103.811	19.957	5.404	0.484
244.000	197.210	80.000	19.994	103.810	19.955	5.539	0.504
244.500	197.451	79.999	19.993	103.809	19.956	5.500	0.502
245.000	197.700	80.000	19.995	103.809	19.954	5.644	0.490
245.500	197.945	80.001	19.995	103.809	19.955	5.561	0.492
246.000	198.199	80.000	19.995	103.808	19.955	5.593	0.496
246.500	198.468	80.000	19.995	103.810	19.954	5.644	0.511
247.000	198.698	80.000	19.995	103.811	19.951	5.887	0.511
247.500	198.934	80.000	19.994	103.811	19.951	5.857	0.482
248.000	199.213	80.000	19.994	103.811	19.956	5.466	0.490
248.500	199.452	80.001	19.994	103.811	19.955	5.596	0.516
249.000	199.679	80.001	19.994	103.811	19.954	5.632	0.493
249.500	199.937	80.000	19.994	103.811	19.953	5.711	0.476
250.000	200.158	80.002	19.993	103.811	19.953	5.693	0.482
250.500	200.415	79.999	19.994	103.810	19.954	5.650	0.479
251.000	200.658	80.000	19.995	103.810	19.955	5.543	0.489
251.500	200.928	80.000	19.994	103.809	19.953	5.687	0.506
252.000	201.181	80.000	19.995	103.809	19.951	5.879	0.517
252.500	201.397	79.999	19.995	103.809	19.954	5.632	0.496
253.000	201.668	80.001	19.994	103.810	19.948	6.079	0.479
253.500	201.913	80.001	19.994	103.811	19.950	5.946	0.502
254.000	202.174	80.001	19.995	103.810	19.949	6.002	0.511
254.500	202.419	80.003	19.994	103.808	19.949	5.998	0.506
255.000	202.670	80.001	19.994	103.809	19.948	6.037	0.501
255.500	202.907	80.002	19.994	103.812	19.947	6.119	0.492
256.000	203.150	80.000	19.995	103.812	19.949	6.010	0.484
256.500	203.425	80.002	19.995	103.811	19.949	5.988	0.499
257.000	203.637	80.000	19.994	103.811	19.946	6.206	0.502
257.500	203.894	79.998	19.994	103.810	19.948	6.083	0.478
258.000	204.117	80.001	19.998	103.806	19.946	6.180	0.474
258.500	204.359	80.001	19.996	103.805	19.943	6.398	0.473
259.000	204.583	80.001	19.997	103.806	19.948	6.087	0.466
259.500	204.855	80.000	19.997	103.806	19.946	6.200	0.481
260.000	205.087	80.001	19.996	103.804	19.943	6.435	0.500
260.500	205.356	80.001	19.995	103.804	19.944	6.374	0.502
261.000	205.617	80.002	19.995	103.804	19.944	6.374	0.515
261.500	205.824	80.002	19.994	103.804	19.943	6.396	0.499
262.000	206.097	80.001	19.994	103.805	19.942	6.512	0.474
262.500	206.385	80.003	19.994	103.804	19.944	6.374	0.521
263.000	206.565	80.002	19.995	103.802	19.943	6.439	0.514
263.500	206.852	80.002	19.993	103.802	19.940	6.635	0.467
264.000	207.131	80.002	19.994	103.802	19.942	6.491	0.517
264.500	207.373	80.001	19.994	103.801	19.938	6.766	0.543
265.000	207.622	80.001	19.994	103.805	19.940	6.645	0.506
265.500	207.883	80.001	19.995	103.807	19.938	6.807	0.501
266.000	208.131	80.003	19.993	103.807	19.941	6.585	0.510
266.500	208.337	80.000	19.994	103.808	19.937	6.872	0.481
267.000	208.609	80.001	19.995	103.808	19.938	6.807	0.466
267.500	208.853	80.001	19.995	103.808	19.939	6.724	0.497
268.000	209.105	80.001	19.993	103.809	19.934	7.048	0.506
268.500	209.327	80.000	19.994	103.810	19.934	7.092	0.485
269.000	209.569	80.000	19.994	103.808	19.936	6.954	0.469
269.500	209.813	80.000	19.995	103.808	19.936	6.924	0.475
270.000	210.089	80.001	19.995	103.809	19.935	6.995	0.503
270.500	210.342	80.001	19.994	103.809	19.932	7.227	0.524
271.001	210.605	80.002	19.994	103.809	19.933	7.124	0.523
271.500	210.824	80.001	19.994	103.809	19.931	7.252	0.499
272.000	211.071	80.001	19.995	103.810	19.930	7.359	0.474
272.500	211.309	80.002	19.994	103.809	19.931	7.298	0.476
273.000	211.563	80.002	19.995	103.807	19.927	7.592	0.488
273.500	211.782	80.000	19.994	103.808	19.927	7.561	0.482
274.000	212.056	80.002	19.995	103.807	19.927	7.573	0.483
274.500	212.289	80.002	19.994	103.807	19.927	7.571	0.500
275.000	212.556	80.002	19.994	103.808	19.931	7.298	0.504
275.500	212.798	80.002	19.995	103.810	19.927	7.588	0.504
276.000	213.062	80.002	19.993	103.809	19.924	7.796	0.507
276.500	213.304	80.001	19.994	103.810	19.928	7.503	0.506
277.000	213.560	80.001	19.994	103.808	19.922	7.901	0.502
277.500	213.793	80.000	19.994	103.807	19.922	7.929	0.493
278.000	214.032	80.000	19.995	103.807	19.923	7.887	0.481
278.500	214.245	80.001	19.995	103.807	19.919	8.115	0.463
279.000	214.510	80.001	19.994	103.807	19.920	8.065	0.465
279.500	214.755	80.002	19.995	103.812	19.920	8.051	0.494
280.000	215.025	80.001	19.995	103.815	19.916	8.336	0.512
280.500	215.260	80.000	19.994	103.815	19.916	8.358	0.510
281.000	215.508	80.001	19.996	103.815	19.916	8.334	0.494
281.500	215.756	80.000	19.995	103.814	19.915	8.419	0.490
282.000	215.971	80.001	19.994	103.811	19.916	8.320	0.480
282.500	216.247	80.003	19.994	103.809	19.912	8.653	0.477
283.000	216.479	80.001	19.995	103.809	19.915	8.443	0.499
283.500	216.739	80.003	19.994	103.809	19.914	8.518	0.500
284.000	216.988	80.003	19.994	103.809	19.917	8.277	0.500
284.500	217.233	80.002	19.994	103.809	19.913	8.594	0.501
285.000	217.470	80.002	19.995	103.809	19.913	8.562	0.488
285.500	217.688	80.004	19.995	103.808	19.912	8.606	0.469
286.000	217.956	80.003	19.994	103.808	19.911	8.706	0.471
286.500	218.189	80.001	19.994	103.809	19.911	8.691	0.493
287.000	218.417	80.002	19.994	103.809	19.910	8.817	0.481
287.500	218.662	80.002	19.995	103.808	19.907	8.978	0.467
288.000	218.929	80.003	19.994	103.808	19.907	8.987	0.492
288.500	219.175	80.003	19.994	103.808	19.907	9.001	0.513
289.000	219.441	80.002	19.995	103.808	19.906	9.065	0.512
289.500	219.674	80.003	19.994	103.808	19.904	9.193	0.505
290.000	219.912	80.002	19.994	103.810	19.904	9.193	0.486
290.500	220.159	80.001	19.995	103.810	19.903	9.286	0.478
291.000	220.395	80.002	19.996	103.810	19.902	9.338	0.484
291.500	220.624	80.002	19.995	103.810	19.903	9.253	0.474
292.000	220.887	80.003	19.995	103.810	19.900	9.467	0.479
292.500	221.143	80.002	19.994	103.808	19.900	9.524	0.505
293.000	221.335	80.001	19.995	103.808	19.898	9.610	0.483
293.500	221.602	80.002	19.993	103.808	19.898	9.662	0.454
294.000	221.843	80.002	19.994	103.808	19.899	9.600	0.483
294.500	222.105	80.002	19.994	103.812	19.897	9.742	0.505
295.000	222.352	80.001	19.994	103.813	19.895	9.833	0.506
295.500	222.595	80.001	19.994	103.814	19.896	9.793	0.500
296.000	222.852	80.001	19.995	103.814	19.893	9.974	0.495
296.500	223.094	80.002	19.995	103.815	19.894	9.901	0.499
297.000	223.310	80.001	19.995	103.812	19.893	9.981	0.478
297.500	223.593	80.002	19.994	103.813	19.892	10.048	0.478
298.000	223.874	80.002	19.995	103.814	19.890	10.217	0.532
298.500	224.097	80.003	19.994	103.814	19.888	10.385	0.534
299.000	224.346	80.002	19.995	103.814	19.888	10.369	0.488
299.500	224.577	80.003	19.995	103.816	19.889	10.296	0.476
300.000	224.801	80.000	19.994	103.815	19.885	10.574	0.468
300.500	225.084	80.002	19.994	103.815	19.885	10.549	0.482
301.000	225.335	80.002	19.996	103.815	19.883	10.736	0.520
301.500	225.580	80.001	19.994	103.815	19.880	10.904	0.514
302.000	225.804	80.002	19.995	103.814	19.880	10.894	0.482
302.500	226.048	80.002	19.995	103.815	19.880	10.921	0.469
303.000	226.292	80.001	19.994	103.817	19.880	10.929	0.479
303.500	226.536	80.002	19.995	103.822	19.876	11.203	0.488
304.000	226.788	80.002	19.995	103.828	19.877	11.130	0.492
304.500	227.032	80.003	19.995	103.830	19.876	11.190	0.496
305.000	227.274	80.002	19.994	103.828	19.874	11.383	0.491
305.500	227.518	80.002	19.994	103.825	19.878	11.077	0.486
306.000	227.743	80.001	19.995	103.820	19.877	11.132	0.478
306.500	228.023	80.002	19.994	103.815	19.877	11.138	0.487
307.000	228.254	80.001	19.994	103.812	19.876	11.209	0.508
307.500	228.545	80.002	19.994	103.814	19.874	11.382	0.516
308.000	228.793	80.002	19.994	103.816	19.873	11.405	0.530
308.500	229.050	80.003	19.994	103.820	19.875	11.314	0.522
309.000	229.311	80.002	19.994	103.820	19.870	11.608	0.512
309.500	229.519	80.002	19.994	103.821	19.870	11.659	0.493
310.000	229.783	80.001	19.996	103.821	19.873	11.433	0.471
310.500	230.035	80.003	19.994	103.819	19.873	11.440	0.494
311.000	230.279	80.002	19.993	103.816	19.868	11.749	0.506
311.500	230.521	80.002	19.993	103.816	19.867	11.850	0.491
312.000	230.755	80.003	19.994	103.814	19.867	11.873	0.481
312.500	230.993	80.002	19.995	103.812	19.864	12.089	0.474
313.000	231.278	80.002	19.994	103.813	19.864	12.034	0.497
313.500	231.517	80.003	19.994	103.816	19.865	12.019	0.524
314.000	231.752	80.002	19.994	103.821	19.865	11.978	0.499
314.500	231.952	80.003	19.995	103.827	19.868	11.801	0.454
315.000	232.223	80.002	19.995	103.834	19.864	12.074	0.453
315.500	232.475	80.001	19.995	103.836	19.862	12.220	0.498
316.000	232.727	80.000	19.995	103.832	19.862	12.228	0.514
316.500	232.927	80.001	19.995	103.833	19.861	12.294	0.478
317.000	233.199	80.001	19.994	103.833	19.860	12.370	0.462
317.500	233.456	79.999	19.994	103.834	19.859	12.459	0.501
318.000	233.741	80.002	19.998	103.834	19.858	12.512	0.535
318.500	233.962	80.000	19.997	103.837	19.857	12.558	0.523
319.000	234.194	80.001	19.996	103.836	19.858	12.514	0.479
319.500	234.464	80.000	19.996	103.829	19.858	12.526	0.478
320.000	234.719	80.001	19.996	103.821	19.859	12.444	0.514
320.500	234.958	80.001	19.995	103.817	19.858	12.505	0.510
321.000	235.197	80.000	19.995	103.813	19.856	12.657	0.486
321.500	235.446	80.001	19.995	103.810	19.852	12.942	0.483
322.000	235.670	80.000	19.994	103.812	19.854	12.769	0.480
322.500	235.938	80.001	19.996	103.816	19.853	12.837	0.483
323.000	236.181	80.000	19.994	103.823	19.854	12.764	0.502
323.500	236.444	80.001	19.996	103.829	19.856	12.617	0.508
324.000	236.671	80.001	19.995	103.834	19.852	12.895	0.498
324.500	236.907	80.001	19.996	103.840	19.851	13.020	0.476
325.000	237.182	80.000	19.995	103.838	19.851	13.004	0.487
325.501	237.429	80.001	19.995	103.833	19.852	12.925	0.517
326.000	237.646	80.002	19.995	103.832	19.852	12.895	0.493
326.500	237.930	80.000	19.995	103.832	19.852	12.929	0.482
327.000	238.159	80.000	19.994	103.832	19.850	13.045	0.507
327.500	238.384	80.002	19.994	103.836	19.847	13.247	0.483
328.000	238.672	80.002	19.994	103.842	19.851	12.988	0.483
328.500	238.925	80.000	19.994	103.843	19.849	13.137	0.527
329.000	239.153	80.002	19.994	103.842	19.849	13.133	0.511
329.500	239.403	80.000	19.993	103.842	19.848	13.182	0.479
330.000	239.690	80.001	19.994	103.844	19.848	13.204	0.507
330.500	239.908	80.002	19.993	103.839	19.848	13.239	0.521
331.000	240.128	80.001	19.993	103.836	19.849	13.126	0.472
331.500	240.381	80.002	19.993	103.832	19.847	13.244	0.456
332.001	240.654	80.003	19.993	103.832	19.847	13.302	0.499
332.500	240.874	80.000	19.995	103.832	19.844	13.459	0.509
333.000	241.163	80.002	19.993	103.837	19.844	13.515	0.501
333.500	241.413	80.001	19.994	103.841	19.846	13.385	0.524
334.000	241.636	80.001	19.994	103.845	19.845	13.431	0.506
334.500	241.881	80.001	19.993	103.841	19.847	13.290	0.470
335.000	242.140	80.002	19.995	103.835	19.846	13.361	0.485
335.500	242.405	80.001	19.994	103.833	19.841	13.699	0.514
336.000	242.657	80.001	19.995	103.832	19.839	13.887	0.521
336.500	242.911	80.000	19.994	103.831	19.841	13.687	0.512
337.000	243.161	80.001	19.994	103.831	19.843	13.596	0.505
337.500	243.401	80.001	19.994	103.836	19.841	13.689	0.497
338.000	243.661	80.003	19.994	103.832	19.842	13.669	0.495
338.500	243.920	80.000	19.994	103.829	19.836	14.049	0.509
339.000	244.153	80.003	19.994	103.832	19.839	13.837	0.505
339.500	244.422	80.001	19.994	103.836	19.836	14.073	0.497
340.000	244.669	80.001	19.994	103.837	19.838	13.915	0.509
340.500	244.931	80.002	19.994	103.837	19.835	14.107	0.513
341.000	245.143	80.002	19.994	103.839	19.836	14.051	0.491
341.500	245.408	80.002	19.996	103.833	19.835	14.173	0.475
342.001	245.698	80.000	19.995	103.827	19.834	14.212	0.516
342.500	245.946	80.002	19.995	103.825	19.833	14.297	0.547
343.000	246.209	80.002	19.994	103.831	19.836	14.085	0.525
343.500	246.440	80.003	19.996	103.832	19.833	14.247	0.503
344.000	246.724	80.002	19.996	103.839	19.831	14.390	0.505
344.500	246.902	80.002	19.996	103.845	19.835	14.166	0.489
345.000	247.203	80.001	19.993	103.845	19.832	14.376	0.470
345.500	247.416	80.002	19.995	103.842	19.829	14.597	0.496
346.000	247.649	80.000	19.994	103.842	19.833	14.272	0.480
346.500	247.940	80.002	19.995	103.839	19.831	14.436	0.485
347.000	248.186	80.001	19.994	103.837	19.831	14.435	0.531
347.500	248.403	80.000	19.995	103.837	19.828	14.607	0.500
348.000	248.639	80.001	19.994	103.837	19.829	14.590	0.458
348.500	248.929	80.001	19.993	103.835	19.825	14.847	0.490
349.000	249.179	80.001	19.996	103.838	19.823	15.021	0.533
349.500	249.463	80.001	19.995	103.837	19.825	14.823	0.537
350.000	249.702	80.000	19.994	103.835	19.823	14.967	0.528
350.500	249.986	80.001	19.995	103.838	19.824	14.920	0.523
351.000	250.244	80.001	19.994	103.840	19.823	15.002	0.533
351.500	250.488	80.000	19.995	103.839	19.823	15.003	0.522
352.000	250.737	80.002	19.994	103.839	19.822	15.079	0.498
352.500	250.961	79.999	19.994	103.844	19.820	15.204	0.483
353.000	251.195	80.001	19.995	103.844	19.822	15.050	0.465
353.500	251.514	80.000	19.995	103.839	19.823	14.979	0.505
354.000	251.719	80.001	19.994	103.836	19.818	15.325	0.539
354.500	252.005	80.000	19.995	103.840	19.821	15.135	0.508
355.000	252.219	80.001	19.994	103.838	19.821	15.169	0.496
355.500	252.490	80.001	19.994	103.837	19.818	15.386	0.492
356.000	252.726	80.001	19.995	103.836	19.818	15.352	0.496
356.500	252.981	80.002	19.995	103.834	19.817	15.452	0.499
357.000	253.241	80.002	19.993	103.830	19.819	15.276	0.503
357.500	253.487	80.000	19.995	103.828	19.819	15.314	0.511
358.001	253.731	80.001	19.995	103.823	19.819	15.305	0.498
358.500	253.978	80.001	19.993	103.825	19.817	15.416	0.491
359.000	254.200	80.003	19.994	103.827	19.814	15.636	0.480
359.500	254.446	80.001	19.995	103.825	19.813	15.715	0.469
360.000	254.729	80.000	19.995	103.822	19.815	15.588	0.498
360.500	254.922	80.002	19.993	103.821	19.812	15.762	0.502
361.000	255.221	80.001	19.994	103.823	19.811	15.841	0.484
361.500	255.454	80.002	19.994	103.825	19.813	15.677	0.512
362.000	255.742	80.002	19.993	103.832	19.812	15.782	0.527
362.500	255.958	80.003	19.994	103.838	19.812	15.749	0.512
363.000	256.206	80.000	19.993	103.846	19.810	15.921	0.484
363.500	256.452	80.004	19.993	103.846	19.810	15.909	0.479
364.000	256.703	80.003	19.994	103.848	19.808	16.056	0.495
364.500	256.934	80.003	19.994	103.848	19.811	15.862	0.489
365.000	257.190	80.004	19.994	103.848	19.813	15.739	0.485
365.500	257.432	80.004	19.993	103.849	19.810	15.915	0.493
366.000	257.693	80.003	19.994	103.847	19.809	15.992	0.500
366.500	257.945	80.002	19.994	103.843	19.810	15.929	0.508
367.000	258.170	80.004	19.994	103.841	19.808	16.046	0.495
367.500	258.442	80.002	19.994	103.839	19.810	15.897	0.487
368.000	258.690	80.001	19.995	103.839	19.810	15.959	0.508
368.500	258.961	80.003	19.994	103.843	19.804	16.345	0.519
369.000	259.222	80.001	19.995	103.846	19.807	16.141	0.525
369.500	259.432	80.002	19.993	103.848	19.806	16.202	0.501
370.000	259.720	80.003	19.994	103.850	19.803	16.390	0.485
370.500	259.999	80.002	19.994	103.849	19.804	16.339	0.533
371.000	260.235	80.003	19.995	103.847	19.801	16.531	0.541
371.500	260.481	80.003	19.994	103.847	19.803	16.428	0.498
372.000	260.731	80.004	19.994	103.847	19.802	16.522	0.489
372.500	260.964	80.002	19.995	103.846	19.802	16.478	0.490
373.000	261.210	80.003	19.995	103.848	19.798	16.759	0.481
373.500	261.481	80.003	19.994	103.849	19.796	16.943	0.498
374.000	261.742	80.002	19.994	103.849	19.796	16.922	0.525
374.500	261.945	80.001	19.997	103.849	19.794	17.093	0.498
375.000	262.219	80.001	19.996	103.850	19.794	17.099	0.470
375.500	262.474	80.000	19.995	103.850	19.792	17.188	0.503
376.000	262.700	80.002	19.996	103.850	19.789	17.418	0.505
376.500	262.978	80.003	19.996	103.850	19.789	17.407	0.493
377.000	263.244	80.002	19.996	103.851	19.791	17.288	0.525
377.500	263.501	80.002	19.995	103.851	19.787	17.543	0.533
378.000	263.765	80.002	19.999	103.851	19.786	17.633	0.522
378.500	263.980	80.002	19.998	103.851	19.786	17.641	0.500
379.000	264.222	80.001	19.999	103.851	19.781	17.994	0.468
379.500	264.509	80.002	19.997	103.851	19.783	17.819	0.493
380.000	264.727	80.002	19.998	103.850	19.781	18.002	0.517
380.500	264.987	80.004	19.995	103.849	19.778	18.208	0.491
381.000	265.229	80.002	19.998	103.850	19.778	18.199	0.490
381.500	265.506	80.003	19.996	103.850	19.777	18.287	0.510
382.000	265.706	80.003	19.997	103.851	19.775	18.398	0.498
382.500	265.995	80.003	19.995	103.855	19.773	18.548	0.483
383.000	266.218	80.002	19.994	103.855	19.775	18.459	0.501
383.500	266.552	80.002	19.996	103.855	19.771	18.738	0.534
384.000	266.760	80.003	19.995	103.855	19.770	18.786	0.550
384.500	267.021	80.004	19.995	103.854	19.770	18.816	0.506
385.000	267.248	80.003	19.995	103.850	19.766	19.049	0.478
385.500	267.516	80.003	19.994	103.850	19.766	19.042	0.491
386.000	267.733	80.002	19.995	103.850	19.762	19.340	0.490
386.500	268.013	80.001	19.995	103.850	19.762	19.347	0.491
387.000	268.207	80.003	19.995	103.853	19.763	19.288	0.485
387.500	268.466	80.003	19.996	103.858	19.759	19.567	0.463
388.000	268.727	80.003	19.996	103.857	19.756	19.767	0.486
388.500	269.001	80.003	19.995	103.858	19.756	19.779	0.527
389.000	269.247	80.004	19.995	103.860	19.757	19.737	0.527
389.500	269.459	80.004	19.994	103.862	19.758	19.674	0.489
390.000	269.729	80.004	19.994	103.857	19.752	20.045	0.470
390.500	270.015	80.003	19.994	103.860	19.750	20.215	0.519
391.000	270.252	80.005	19.995	103.858	19.751	20.167	0.540
391.500	270.535	80.005	19.994	103.858	19.749	20.315	0.522
392.000	270.770	80.006	19.993	103.860	19.749	20.279	0.519
392.500	271.057	80.006	19.995	103.867	19.744	20.638	0.520
393.000	271.291	80.001	19.994	103.870	19.743	20.709	0.521
393.500	271.535	80.004	19.995	103.874	19.740	20.908	0.499
394.000	271.781	80.004	19.994	103.877	19.739	21.006	0.484
394.500	271.997	80.001	19.995	103.876	19.737	21.108	0.476
395.000	272.257	80.003	19.994	103.871	19.733	21.391	0.469
395.500	272.533	80.005	19.994	103.872	19.730	21.641	0.506
396.000	272.764	80.002	19.994	103.875	19.728	21.790	0.521
396.500	273.047	80.003	19.994	103.870	19.727	21.825	0.510
397.000	273.293	80.004	19.994	103.869	19.727	21.870	0.522
397.500	273.516	80.002	19.994	103.875	19.723	22.177	0.499
398.000	273.805	80.002	19.994	103.876	19.724	22.056	0.490
398.500	274.050	80.002	19.994	103.877	19.721	22.309	0.523
399.000	274.272	80.004	19.995	103.883	19.720	22.391	0.501
399.500	274.497	80.001	19.995	103.886	19.717	22.559	0.457
400.000	274.753	80.001	19.994	103.886	19.714	22.806	0.464
400.500	274.973	80.002	19.993	103.888	19.709	23.121	0.479
401.000	275.245	80.001	19.994	103.888	19.707	23.300	0.484
401.500	275.502	80.001	19.995	103.886	19.706	23.392	0.510
402.000	275.753	80.002	19.995	103.885	19.704	23.523	0.519
402.500	276.012	80.001	19.995	103.885	19.699	23.880	0.509
403.000	276.274	80.001	19.995	103.884	19.696	24.045	0.516
403.500	276.502	80.002	19.995	103.883	19.696	24.065	0.505
404.000	276.720	80.001	19.995	103.885	19.695	24.150	0.468
404.500	277.018	80.000	19.995	103.887	19.692	24.360	0.481
405.000	277.269	80.002	19.995	103.886	19.689	24.566	0.532
405.500	277.518	80.000	19.996	103.887	19.688	24.679	0.525
406.000	277.765	80.001	19.995	103.888	19.686	24.778	0.498
406.500	277.997	80.001	19.996	103.892	19.684	24.962	0.487
407.000	278.270	80.001	19.995	103.896	19.679	25.312	0.492
407.500	278.466	80.001	19.996	103.899	19.680	25.248	0.487
408.000	278.732	80.000	19.997	103.905	19.675	25.581	0.466
408.500	278.994	80.002	19.994	103.909	19.672	25.760	0.495
409.000	279.235	80.003	19.994	103.907	19.672	25.777	0.515
409.500	279.460	80.000	19.995	103.906	19.670	25.968	0.484
410.000	279.744	80.000	19.997	103.907	19.665	26.285	0.488
410.500	279.972	80.000	19.996	103.899	19.662	26.485	0.511
411.000	280.217	79.999	19.995	103.893	19.661	26.597	0.492
411.500	280.511	80.003	19.996	103.897	19.658	26.786	0.506
412.000	280.759	80.000	19.996	103.902	19.655	26.980	0.541
412.500	280.986	80.001	19.996	103.904	19.648	27.512	0.509
413.000	281.215	80.001	19.995	103.905	19.647	27.597	0.465
413.500	281.439	80.001	19.996	103.901	19.643	27.859	0.454
414.000	281.703	80.002	19.996	103.902	19.642	27.976	0.470
414.500	281.940	80.002	19.996	103.902	19.639	28.141	0.495
415.000	282.199	80.002	19.995	103.904	19.638	28.207	0.499
415.500	282.450	80.000	19.994	103.912	19.633	28.570	0.503
416.000	282.685	80.002	19.995	103.927	19.630	28.791	0.498
416.500	282.964	80.002	19.995	103.939	19.625	29.150	0.500
417.000	283.198	80.001	19.996	103.943	19.623	29.275	0.514
417.500	283.440	80.002	19.995	103.943	19.618	29.627	0.494
418.000	283.727	80.002	19.996	103.944	19.617	29.746	0.503
418.500	283.958	80.002	19.995	103.946	19.613	30.002	0.524
419.000	284.256	80.002	19.994	103.940	19.610	30.199	0.523
419.500	284.466	79.998	19.995	103.937	19.608	30.387	0.519
420.000	284.684	80.002	19.993	103.941	19.605	30.591	0.468
420.500	284.952	79.999	19.995	103.945	19.602	30.800	0.457
421.000	285.192	80.000	19.995	103.944	19.598	31.112	0.497
421.500	285.421	80.001	19.994	103.942	19.596	31.242	0.489
422.000	285.727	80.001	19.995	103.947	19.591	31.623	0.502
422.500	285.929	79.999	19.997	103.951	19.584	32.065	0.522
423.000	286.203	80.001	19.995	103.951	19.581	32.294	0.492
423.500	286.465	80.001	19.996	103.955	19.578	32.522	0.506
424.000	286.684	80.003	19.995	103.961	19.575	32.747	0.508
424.500	286.962	80.002	19.994	103.963	19.573	32.888	0.489
425.000	287.158	80.002	19.994	103.963	19.569	33.149	0.486
425.500	287.428	80.002	19.993	103.966	19.565	33.439	0.470
426.000	287.679	80.001	19.995	103.968	19.561	33.728	0.494
426.500	287.907	80.002	19.994	103.968	19.558	33.967	0.500
427.000	288.225	80.001	19.995	103.967	19.555	34.194	0.513
427.500	288.426	80.002	19.994	103.966	19.551	34.468	0.532
428.000	288.681	80.000	19.994	103.968	19.546	34.814	0.487
428.500	288.949	79.999	19.995	103.967	19.542	35.101	0.490
429.000	289.178	80.001	19.994	103.967	19.543	35.052	0.511
429.500	289.417	80.000	19.994	103.967	19.537	35.474	0.482
430.000	289.668	80.005	19.995	103.970	19.533	35.761	0.479
430.500	289.929	80.002	19.994	103.975	19.527	36.206	0.501
431.000	290.176	80.002	19.994	103.978	19.525	36.334	0.510
431.500	290.444	80.002	19.995	103.985	19.524	36.392	0.511
432.000	290.703	80.002	19.994	103.989	19.519	36.748	0.521
432.500	290.924	80.001	19.995	103.987	19.514	37.130	0.504
433.000	291.214	80.000	19.994	103.982	19.511	37.347	0.496
433.500	291.441	80.000	19.994	103.982	19.507	37.591	0.514
434.000	291.679	80.000	19.995	103.979	19.505	37.767	0.491
434.500	291.922	80.001	19.994	103.979	19.499	38.187	0.473
435.000	292.169	80.000	19.996	103.982	19.493	38.626	0.485
435.500	292.420	80.000	19.994	103.984	19.490	38.836	0.494
436.000	292.660	80.000	19.994	103.984	19.487	39.028	0.494
436.500	292.921	80.000	19.995	103.985	19.485	39.184	0.496
437.000	293.185	80.002	19.993	103.989	19.481	39.476	0.513
437.500	293.447	80.000	19.993	103.993	19.476	39.798	0.526
438.000	293.668	80.001	19.997	103.998	19.473	40.045	0.505
438.500	293.915	80.000	19.996	104.004	19.469	40.347	0.475
439.000	294.166	80.003	19.995	104.007	19.469	40.353	0.482
439.500	294.457	80.000	19.995	104.008	19.461	40.887	0.520
440.000	294.693	80.001	19.995	104.008	19.455	41.328	0.535
440.500	294.958	80.002	19.995	104.008	19.456	41.295	0.515
441.000	295.166	80.002	19.993	104.008	19.451	41.597	0.487
441.500	295.415	80.001	19.994	104.008	19.447	41.913	0.465
442.000	295.667	80.003	19.994	104.008	19.441	42.312	0.479
442.500	295.968	80.001	19.995	104.009	19.440	42.390	0.527
443.000	296.239	80.004	19.994	104.008	19.434	42.820	0.562
443.500	296.435	80.002	19.994	104.011	19.430	43.114	0.520
444.000	296.697	80.003	19.995	104.013	19.429	43.201	0.463
444.500	296.936	80.002	19.996	104.013	19.421	43.789	0.480
445.000	297.188	80.005	19.993	104.012	19.420	43.836	0.496
445.500	297.450	80.003	19.995	104.013	19.416	44.135	0.503
446.000	297.692	80.005	19.994	104.010	19.414	44.282	0.509
446.500	297.969	80.004	19.994	104.008	19.407	44.794	0.511
447.000	298.202	80.002	19.996	104.013	19.403	45.047	0.514
447.500	298.455	80.002	19.995	104.019	19.398	45.376	0.499
448.000	298.707	80.005	19.995	104.024	19.394	45.665	0.496
448.500	298.922	80.002	19.995	104.026	19.391	45.878	0.486
449.000	299.187	80.002	19.994	104.031	19.387	46.173	0.473
449.500	299.448	80.004	19.995	104.031	19.386	46.274	0.503
450.000	299.690	80.002	19.994	104.031	19.379	46.753	0.514
450.500	299.984	80.002	19.994	104.028	19.375	47.059	0.520
451.000	300.173	80.005	19.994	104.031	19.373	47.192	0.510
451.500	300.471	80.002	19.995	104.032	19.370	47.414	0.485
452.000	300.681	80.003	19.994	104.033	19.368	47.590	0.497
452.500	300.938	80.003	19.995	104.036	19.359	48.220	0.488
453.000	301.221	80.004	19.994	104.038	19.354	48.582	0.504
453.500	301.481	80.004	19.994	104.038	19.352	48.717	0.541
454.000	301.711	80.002	19.995	104.039	19.347	49.079	0.516
454.500	301.959	80.004	19.994	104.039	19.343	49.329	0.484
455.000	302.218	80.003	19.994	104.038	19.338	49.691	0.493
455.500	302.452	80.001	19.995	104.038	19.339	49.599	0.500
456.000	302.735	80.003	19.993	104.041	19.333	50.096	0.505
456.500	302.974	80.001	19.994	104.040	19.329	50.316	0.520
457.000	303.239	80.002	19.994	104.041	19.325	50.664	0.513
457.500	303.476	80.001	19.994	104.042	19.323	50.780	0.503
458.000	303.720	80.003	19.993	104.044	19.321	50.906	0.492
458.500	303.972	80.001	19.995	104.045	19.315	51.323	0.489
459.000	304.236	80.003	19.995	104.044	19.315	51.386	0.506
459.500	304.463	80.002	19.995	104.044	19.310	51.692	0.503
460.000	304.728	80.001	19.995	104.044	19.306	51.970	0.491
460.500	304.990	80.003	19.994	104.045	19.304	52.170	0.510
461.000	305.228	80.002	19.994	104.046	19.296	52.740	0.513
461.500	305.468	80.003	19.994	104.048	19.295	52.790	0.489
462.000	305.699	80.002	19.994	104.049	19.292	52.988	0.475
462.500	305.956	80.002	19.993	104.052	19.292	53.024	0.480
463.000	306.243	80.002	19.995	104.052	19.287	53.368	0.516
463.500	306.460	80.002	19.993	104.050	19.280	53.841	0.524
464.000	306.721	80.004	19.994	104.049	19.276	54.130	0.491
464.500	307.004	80.004	19.995	104.049	19.275	54.234	0.511
465.000	307.243	80.003	19.995	104.050	19.269	54.667	0.533
465.500	307.501	80.004	19.994	104.050	19.268	54.716	0.510
466.000	307.730	80.003	19.995	104.053	19.263	55.092	0.492
466.500	307.973	80.004	19.994	104.052	19.264	55.030	0.479
467.000	308.190	80.002	19.994	104.052	19.259	55.332	0.465
467.500	308.480	80.005	19.993	104.047	19.256	55.590	0.483
468.000	308.751	80.005	19.993	104.052	19.255	55.616	0.534
468.500	308.967	80.004	19.994	104.051	19.251	55.895	0.524
469.000	309.234	80.004	19.994	104.053	19.248	56.129	0.485
469.500	309.455	80.005	19.994	104.053	19.248	56.170	0.486
470.000	309.744	80.005	19.994	104.053	19.246	56.268	0.499
470.500	309.987	80.005	19.996	104.050	19.239	56.774	0.521
471.000	310.227	80.005	19.995	104.054	19.236	57.009	0.507
471.500	310.454	80.005	19.995	104.058	19.236	56.985	0.475
472.000	310.728	80.003	19.996	104.061	19.232	57.324	0.484
472.500	310.963	80.003	19.995	104.066	19.231	57.356	0.504
473.000	311.240	80.003	19.995	104.067	19.231	57.353	0.510
473.500	311.529	80.004	19.995	104.065	19.229	57.528	0.539
474.000	311.768	80.002	19.996	104.066	19.224	57.852	0.547
474.500	312.034	80.003	19.994	104.069	19.226	57.735	0.517
475.000	312.288	80.003	19.995	104.072	19.220	58.132	0.512
475.500	312.499	80.003	19.995	104.074	19.218	58.280	0.493
476.000	312.778	80.001	19.994	104.078	19.217	58.345	0.478
476.500	312.999	80.004	19.993	104.077	19.214	58.547	0.495
477.000	313.304	80.004	19.993	104.076	19.213	58.653	0.513
477.500	313.516	80.001	19.996	104.071	19.211	58.758	0.522
478.000	313.751	80.002	19.996	104.069	19.209	58.947	0.482
478.500	313.996	80.002	19.995	104.064	19.205	59.241	0.463
479.000	314.290	80.003	19.995	104.061	19.206	59.123	0.510
479.500	314.513	80.001	19.994	104.057	19.207	59.043	0.528
480.000	314.824	80.001	19.996	104.056	19.204	59.299	0.525
480.500	315.040	80.001	19.994	104.056	19.203	59.345	0.530
481.000	315.290	80.000	19.996	104.060	19.200	59.559	0.496
481.500	315.519	80.002	19.995	104.064	19.199	59.611	0.473
482.000	315.762	80.002	19.994	104.067	19.199	59.615	0.476
482.500	316.026	80.002	19.995	104.066	19.196	59.879	0.490
483.000	316.262	80.000	19.995	104.066	19.198	59.696	0.504
483.500	316.519	80.000	19.995	104.063	19.198	59.700	0.496
484.000	316.761	80.001	19.995	104.058	19.196	59.833	0.496
484.500	317.020	80.002	19.995	104.055	19.196	59.835	0.500
485.000	317.216	80.001	19.994	104.056	19.194	59.973	0.478
485.500	317.497	80.000	19.995	104.056	19.194	59.977	0.466
486.000	317.756	80.002	19.994	104.054	19.195	59.891	0.508
486.500	318.014	80.000	19.994	104.052	19.194	60.004	0.528
487.000	318.251	80.000	19.995	104.052	19.197	59.777	0.506
487.500	318.513	80.001	19.994	104.051	19.192	60.124	0.497
488.000	318.764	80.000	19.995	104.049	19.193	60.062	0.506
488.500	318.975	80.000	19.994	104.049	19.191	60.220	0.488
489.000	319.212	80.000	19.994	104.047	19.194	60.015	0.455
489.500	319.462	80.001	19.994	104.047	19.192	60.120	0.467
490.000	319.692	80.000	19.996	104.046	19.192	60.151	0.484
490.500	319.953	80.000	19.995	104.045	19.194	59.980	0.486
491.000	320.197	80.001	19.995	104.044	19.193	60.013	0.498
491.500	320.464	80.002	19.997	104.045	19.195	59.925	0.508
492.000	320.712	80.000	19.995	104.045	19.195	59.909	0.513
492.500	320.960	80.002	19.995	104.045	19.199	59.620	0.505
493.000	321.203	80.000	19.994	104.045	19.198	59.697	0.493
493.500	321.462	80.000	19.994	104.044	19.199	59.629	0.497
494.000	321.705	80.000	19.995	104.042	19.200	59.527	0.502
494.500	321.921	79.999	19.995	104.042	19.200	59.554	0.481
495.000	322.187	79.999	19.995	104.042	19.201	59.475	0.470
495.500	322.447	80.000	19.996	104.035	19.205	59.161	0.503
496.000	322.690	80.001	19.995	104.031	19.205	59.202	0.514
496.500	322.959	80.000	19.996	104.024	19.208	58.952	0.508
497.000	323.225	80.000	19.996	104.016	19.208	58.928	0.524
497.500	323.454	79.999	19.995	104.009	19.211	58.740	0.515
498.000	323.689	80.000	19.997	104.014	19.211	58.730	0.479
498.500	323.965	80.001	19.997	104.018	19.217	58.332	0.488
499.000	324.180	80.000	19.996	104.021	19.220	58.067	0.502
499.500	324.433	79.999	19.997	104.022	19.221	58.018	0.480
500.000	324.696	79.999	19.997	104.021	19.224	57.829	0.492
500.500	324.968	80.000	19.996	104.015	19.226	57.614	0.525
501.000	325.172	80.001	19.996	104.009	19.230	57.362	0.505
501.500	325.443	80.000	19.996	104.002	19.234	57.050	0.475
502.000	325.694	79.999	19.996	103.997	19.237	56.853	0.499
502.500	325.985	80.000	19.995	103.995	19.240	56.620	0.532
503.000	326.184	79.998	19.997	103.992	19.245	56.315	0.516
503.500	326.440	80.002	19.995	103.990	19.247	56.104	0.472
504.000	326.668	80.001	19.996	103.993	19.251	55.871	0.469
504.500	326.945	80.000	19.997	103.991	19.253	55.699	0.495
505.000	327.152	80.001	19.996	103.986	19.260	55.226	0.495
505.500	327.409	79.999	19.996	103.981	19.266	54.798	0.474
506.000	327.671	80.002	19.994	103.975	19.269	54.560	0.491
506.500	327.909	80.000	19.995	103.970	19.273	54.273	0.510
507.000	328.179	80.000	19.995	103.968	19.277	54.013	0.504
507.500	328.407	80.000	19.995	103.967	19.283	53.526	0.503
508.000	328.677	80.001	19.995	103.967	19.290	53.037	0.498
508.500	328.907	79.999	19.994	103.967	19.293	52.851	0.499
509.000	329.145	80.001	19.995	103.964	19.301	52.271	0.484
509.500	329.437	79.999	19.994	103.962	19.307	51.856	0.499
510.000	329.670	80.002	19.995	103.955	19.310	51.615	0.527
510.500	329.932	80.000	19.995	103.948	19.315	51.276	0.510
511.000	330.166	80.000	19.994	103.940	19.317	51.103	0.496
511.500	330.447	80.000	19.995	103.935	19.326	50.490	0.506
512.000	330.694	79.998	19.994	103.929	19.332	50.015	0.522
512.500	330.928	79.999	19.994	103.928	19.338	49.609	0.504
513.000	331.200	80.000	19.994	103.927	19.346	49.038	0.493
513.500	331.435	80.002	19.994	103.923	19.351	48.676	0.507
514.000	331.686	80.000	19.995	103.917	19.361	47.974	0.496
514.500	331.957	80.000	19.995	103.911	19.368	47.468	0.504
515.000	332.206	80.002	19.995	103.904	19.374	47.004	0.521
515.500	332.434	80.001	19.994	103.898	19.382	46.476	0.498
516.000	332.696	80.000	19.995	103.894	19.389	45.969	0.483
516.500	332.979	80.003	19.995	103.891	19.396	45.480	0.518
517.000	333.187	80.003	19.994	103.890	19.401	45.058	0.518
517.500	333.472	80.001	19.993	103.889	19.411	44.367	0.492
518.000	333.733	80.003	19.994	103.885	19.421	43.695	0.519
518.500	333.940	80.001	19.994	103.881	19.427	43.222	0.507
519.000	334.237	80.002	19.993	103.873	19.437	42.523	0.486
519.500	334.468	80.003	19.993	103.865	19.446	41.911	0.516
520.000	334.731	80.003	19.993	103.856	19.453	41.398	0.511
520.500	334.969	80.002	19.994	103.851	19.459	40.938	0.498
521.000	335.212	80.002	19.995	103.847	19.471	40.103	0.491
521.500	335.495	80.001	19.994	103.847	19.477	39.632	0.503
522.001	335.746	80.002	19.993	103.845	19.484	39.173	0.530
522.500	335.981	80.002	19.994	103.845	19.493	38.534	0.510
523.000	336.254	80.003	19.994	103.845	19.502	37.909	0.497
523.500	336.500	80.002	19.993	103.840	19.508	37.440	0.514
524.000	336.730	80.003	19.993	103.834	19.517	36.837	0.498
524.500	336.959	80.000	19.995	103.830	19.529	35.923	0.468
525.000	337.212	80.003	19.994	103.822	19.533	35.630	0.470
525.500	337.471	80.003	19.995	103.815	19.542	35.038	0.497
526.000	337.725	80.002	19.994	103.811	19.550	34.425	0.513
526.500	337.998	80.003	19.995	103.809	19.559	33.790	0.520
527.000	338.249	80.002	19.994	103.807	19.568	33.146	0.526
527.500	338.495	80.002	19.993	103.807	19.577	32.523	0.511
528.000	338.766	80.004	19.994	103.804	19.587	31.815	0.507
528.500	338.985	80.003	19.994	103.803	19.596	31.146	0.503
529.000	339.249	80.001	19.995	103.804	19.603	30.645	0.486
529.500	339.504	80.005	19.994	103.803	19.613	29.980	0.501
530.000	339.750	80.003	19.995	103.802	19.620	29.440	0.510
530.500	340.022	80.002	19.994	103.800	19.628	28.889	0.510
531.000	340.249	80.003	19.995	103.793	19.636	28.287	0.509
531.500	340.546	80.003	19.994	103.785	19.645	27.679	0.512
532.000	340.760	80.002	19.995	103.781	19.650	27.290	0.517
532.500	341.029	80.003	19.995	103.775	19.658	26.724	0.497
533.000	341.322	80.004	19.993	103.772	19.670	25.903	0.523
533.500	341.564	80.002	19.995	103.773	19.676	25.463	0.549
534.000	341.794	80.003	19.995	103.773	19.682	25.063	0.504
534.500	342.032	80.001	19.996	103.771	19.690	24.431	0.470
535.000	342.301	80.002	19.995	103.771	19.696	24.028	0.487
535.500	342.544	80.004	19.993	103.770	19.702	23.591	0.509
536.000	342.780	80.000	19.995	103.769	19.708	23.186	0.496
536.500	343.048	80.004	19.994	103.768	19.714	22.745	0.492
537.000	343.292	80.002	19.994	103.768	19.720	22.334	0.508
537.500	343.556	80.002	19.995	103.768	19.727	21.815	0.510
538.000	343.765	80.002	19.993	103.768	19.734	21.334	0.491
538.500	344.036	79.999	19.995	103.767	19.737	21.126	0.476
539.000	344.265	80.001	19.995	103.766	19.742	20.740	0.490
539.500	344.529	80.001	19.994	103.766	19.750	20.161	0.497
540.000	344.822	80.001	19.995	103.762	19.756	19.770	0.525
540.500	345.008	80.003	19.994	103.761	19.758	19.634	0.517
541.000	345.273	80.004	19.995	103.759	19.765	19.100	0.465
541.500	345.531	80.002	19.994	103.756	19.771	18.653	0.487
542.000	345.782	80.003	19.994	103.752	19.776	18.296	0.516
542.500	346.052	80.003	19.994	103.748	19.779	18.151	0.515
543.000	346.281	80.004	19.992	103.745	19.783	17.835	0.510
543.500	346.549	80.002	19.993	103.742	19.786	17.646	0.498
544.000	346.777	80.001	19.995	103.745	19.788	17.494	0.496
544.500	347.023	80.002	19.993	103.749	19.794	17.053	0.485
545.000	347.301	80.003	19.994	103.755	19.797	16.808	0.499
545.500	347.529	80.004	19.994	103.760	19.801	16.522	0.515
546.000	347.792	80.004	19.994	103.761	19.807	16.121	0.499
546.500	348.038	80.004	19.994	103.759	19.807	16.108	0.500
547.000	348.295	80.001	19.994	103.754	19.813	15.729	0.506
547.500	348.566	80.003	19.994	103.751	19.814	15.617	0.516
548.000	348.808	80.004	19.993	103.751	19.821	15.132	0.520
548.500	349.042	80.005	19.993	103.747	19.822	15.088	0.494
549.000	349.293	80.002	19.993	103.744	19.826	14.781	0.480
549.500	349.560	80.005	19.993	103.743	19.827	14.666	0.501
550.000	349.829	80.004	19.994	103.741	19.829	14.573	0.527
550.500	350.057	80.003	19.993	103.741	19.832	14.348	0.517
551.000	350.319	80.003	19.994	103.744	19.834	14.232	0.494
551.500	350.605	80.003	19.995	103.746	19.835	14.123	0.519
552.000	350.793	80.004	19.993	103.745	19.840	13.765	0.511
552.500	351.064	80.005	19.995	103.743	19.843	13.565	0.467
553.000	351.277	80.002	19.994	103.741	19.847	13.291	0.472
553.500	351.568	80.004	19.995	103.736	19.848	13.194	0.494
554.000	351.838	80.002	19.994	103.736	19.846	13.338	0.532
554.500	352.068	80.005	19.995	103.741	19.848	13.186	0.531
555.000	352.344	80.002	19.994	103.744	19.853	12.838	0.503
555.500	352.557	80.002	19.995	103.742	19.853	12.826	0.497
556.000	352.830	80.005	19.992	103.743	19.858	12.516	0.487
556.500	353.039	80.001	19.995	103.748	19.856	12.661	0.484
557.000	353.331	80.003	19.994	103.751	19.855	12.716	0.492
557.500	353.536	80.000	19.993	103.755	19.858	12.459	0.499
558.000	353.818	80.000	19.998	103.758	19.864	12.079	0.492
558.500	354.111	80.002	19.997	103.764	19.862	12.189	0.531
559.000	354.323	80.000	19.996	103.760	19.865	11.952	0.540
559.500	354.552	80.000	19.996	103.753	19.865	12.002	0.473
560.000	354.823	80.003	19.995	103.749	19.868	11.790	0.471
560.500	355.063	80.001	19.997	103.748	19.870	11.664	0.506
561.000	355.300	80.002	19.994	103.748	19.871	11.534	0.494
561.500	355.560	80.001	19.994	103.752	19.872	11.486	0.487
562.000	355.832	79.999	19.995	103.755	19.875	11.292	0.515
562.500	356.102	80.003	19.995	103.753	19.876	11.205	0.537
563.000	356.312	80.000	19.995	103.752	19.879	11.005	0.511
563.500	356.562	79.998	19.995	103.748	19.880	10.896	0.470
564.000	356.832	79.999	19.996	103.741	19.879	10.995	0.490
564.500	357.040	79.999	19.995	103.738	19.878	11.056	0.499
565.000	357.311	80.001	19.994	103.738	19.882	10.781	0.479
565.500	357.550	80.000	19.995	103.737	19.886	10.477	0.494
566.000	357.815	80.000	19.995	103.738	19.885	10.532	0.507
566.500	358.072	80.000	19.994	103.741	19.883	10.702	0.513
567.000	358.276	79.999	19.994	103.744	19.883	10.726	0.492
567.500	358.542	80.001	19.995	103.744	19.887	10.388	0.465
568.000	358.791	80.001	19.995	103.744	19.890	10.182	0.492
568.500	359.049	80.002	19.994	103.741	19.885	10.544	0.511
569.000	359.283	80.000	19.995	103.739	19.888	10.348	0.500
569.500	359.521	80.000	19.996	103.738	19.889	10.244	0.482
570.000	359.783	80.001	19.993	103.739	19.891	10.149	0.486
570.500	360.069	80.002	19.994	103.739	19.890	10.174	0.524
571.000	360.289	80.001	19.995	103.741	19.892	10.052	0.527
571.500	360.527	80.003	19.993	103.745	19.894	9.951	0.482
572.000	360.802	79.998	19.995	103.745	19.894	9.883	0.486
572.500	361.059	80.001	19.994	103.742	19.895	9.852	0.523
573.000	361.316	80.001	19.995	103.742	19.894	9.925	0.523
573.500	361.549	80.000	19.995	103.739	19.896	9.798	0.502
574.000	361.791	80.002	19.994	103.733	19.898	9.619	0.482
574.500	362.021	79.999	19.994	103.732	19.896	9.759	0.473
575.000	362.312	80.002	19.995	103.732	19.899	9.561	0.497
575.500	362.535	80.001	19.994	103.733	19.897	9.688	0.518
576.000	362.788	80.000	19.994	103.733	19.900	9.487	0.495
576.500	363.031	80.000	19.994	103.733	19.899	9.548	0.486
577.000	363.281	80.001	19.994	103.732	19.901	9.443	0.494
577.500	363.535	80.002	19.994	103.733	19.901	9.449	0.498
578.000	363.793	80.003	19.994	103.732	19.902	9.313	0.508
578.500	364.047	80.001	19.994	103.731	19.903	9.273	0.512
579.000	364.292	80.002	19.994	103.732	19.900	9.461	0.506
579.500	364.568	80.000	19.995	103.733	19.902	9.335	0.510
580.000	364.799	80.002	19.995	103.733	19.905	9.104	0.514
580.500	365.039	80.003	19.994	103.733	19.904	9.231	0.489
581.000	365.285	80.001	19.994	103.733	19.904	9.195	0.479
581.500	365.524	80.001	19.995	103.733	19.905	9.163	0.486
582.000	365.781	80.001	19.994	103.732	19.905	9.129	0.490
582.500	366.019	79.999	19.995	103.730	19.907	8.993	0.495
583.000	366.253	79.999	19.996	103.729	19.907	9.018	0.483
583.500	366.528	80.001	19.995	103.728	19.907	8.994	0.490
584.000	366.772	80.001	19.994	103.728	19.909	8.875	0.514
584.500	367.067	80.001	19.995	103.729	19.909	8.854	0.530
585.000	367.277	80.000	19.994	103.730	19.907	9.012	0.522
585.500	367.512	79.999	19.995	103.731	19.910	8.791	0.475
586.000	367.784	79.999	19.996	103.731	19.908	8.935	0.476
586.500	368.007	80.002	19.995	103.731	19.910	8.761	0.501
587.000	368.276	79.999	19.996	103.735	19.907	8.959	0.493
587.500	368.522	80.001	19.996	103.736	19.911	8.729	0.503
588.000	368.781	80.001	19.995	103.736	19.910	8.790	0.511
588.500	369.001	79.999	19.996	103.736	19.911	8.678	0.492
589.000	369.297	80.000	19.996	103.739	19.914	8.484	0.497
589.500	369.522	80.001	19.995	103.737	19.911	8.676	0.519
590.000	369.776	79.998	19.996	103.738	19.914	8.518	0.500
590.500	370.033	80.001	19.996	103.741	19.914	8.504	0.495
591.000	370.289	80.001	19.995	103.744	19.917	8.298	0.512
591.500	370.511	79.998	19.996	103.748	19.918	8.219	0.495
592.000	370.774	80.000	19.996	103.745	19.916	8.375	0.481
592.500	371.038	80.001	19.996	103.742	19.916	8.320	0.506
593.000	371.256	79.998	19.995	103.739	19.920	8.049	0.505
593.500	371.500	80.002	19.995	103.736	19.915	8.397	0.472
594.000	371.785	80.001	19.995	103.731	19.920	8.071	0.496
594.500	372.015	80.000	19.995	103.730	19.918	8.213	0.523
595.000	372.272	80.002	19.995	103.729	19.918	8.194	0.501
595.500	372.546	79.999	19.996	103.732	19.920	8.081	0.509
596.000	372.805	80.001	19.995	103.732	19.920	8.047	0.532
596.500	373.033	80.001	19.995	103.733	19.917	8.304	0.510
597.000	373.288	80.001	19.994	103.734	19.920	8.083	0.485
597.500	373.560	80.001	19.995	103.736	19.922	7.927	0.505
598.000	373.838	80.000	19.994	103.733	19.921	7.984	0.538
598.500	374.099	80.002	19.994	103.733	19.920	8.075	0.544
599.000	374.313	79.999	19.994	103.731	19.920	8.069	0.507
599.500	374.557	80.002	19.994	103.728	19.920	8.087	0.467
600.000	374.793	80.002	19.994	103.728	19.921	7.998	0.469
600.500	375.028	80.004	19.995	103.728	19.919	8.113	0.475
601.000	375.314	80.003	19.994	103.729	19.920	8.093	0.496
601.500	375.555	80.002	19.995	103.729	19.924	7.788	0.524
602.000	375.837	80.001	19.996	103.730	19.924	7.777	0.525
602.500	376.034	80.003	19.994	103.729	19.921	8.017	0.501
603.000	376.338	80.002	19.995	103.730	19.921	7.962	0.490
603.500	376.589	80.003	19.995	103.729	19.923	7.826	0.527
604.000	376.840	80.003	19.994	103.729	19.925	7.681	0.528
604.500	377.088	80.004	19.994	103.730	19.923	7.847	0.501
605.000	377.311	80.002	19.994	103.730	19.924	7.808	0.485
605.500	377.571	80.004	19.993	103.730	19.927	7.543	0.476
606.000	377.807	80.004	19.993	103.731	19.926	7.670	0.490
606.500	378.066	80.003	19.994	103.731	19.927	7.549	0.496
607.000	378.304	80.003	19.994	103.733	19.926	7.622	0.496
607.500	378.597	80.002	19.993	103.733	19.928	7.520	0.513
608.000	378.826	80.000	19.995	103.733	19.922	7.931	0.527
608.500	379.074	80.000	19.994	103.733	19.929	7.456	0.500
609.000	379.317	80.002	19.994	103.732	19.928	7.506	0.484
609.500	379.580	80.001	19.993	103.731	19.926	7.620	0.498
610.000	379.850	80.003	19.995	103.731	19.927	7.573	0.519
610.500	380.082	80.003	19.993	103.730	19.929	7.431	0.518
611.000	380.340	80.002	19.994	103.731	19.928	7.464	0.496
611.500	380.587	80.000	19.995	103.731	19.927	7.571	0.498
612.000	380.827	80.003	19.994	103.731	19.928	7.486	0.496
612.500	381.097	80.001	19.994	103.732	19.929	7.415	0.499
613.000	381.334	80.002	19.994	103.732	19.929	7.446	0.508
613.500	381.522	80.000	19.993	103.729	19.930	7.353	0.466
614.000	381.830	80.001	19.994	103.727	19.930	7.340	0.460
614.500	382.042	80.001	19.994	103.727	19.928	7.468	0.508
615.000	382.329	80.003	19.994	103.725	19.931	7.298	0.510
615.500	382.606	80.001	19.995	103.724	19.933	7.140	0.532
616.000	382.842	80.003	19.994	103.727	19.930	7.342	0.539
616.500	383.083	80.002	19.994	103.730	19.934	7.075	0.495
617.000	383.304	79.999	19.994	103.730	19.932	7.239	0.470
617.500	383.571	80.001	19.993	103.732	19.934	7.099	0.475
618.000	383.812	79.998	19.997	103.733	19.929	7.407	0.498
618.500	384.078	80.001	19.995	103.734	19.934	7.071	0.507
619.000	384.317	80.001	19.996	103.734	19.934	7.037	0.506
619.500	384.598	80.003	19.995	103.734	19.931	7.264	0.513
620.000	384.822	80.001	19.995	103.735	19.933	7.114	0.512
620.500	385.073	80.003	19.994	103.733	19.933	7.104	0.489
621.000	385.306	80.002	19.995	103.733	19.936	6.952	0.480
621.500	385.581	80.000	19.994	103.733	19.938	6.782	0.496
622.000	385.832	80.005	19.993	103.732	19.931	7.290	0.517
622.500	386.074	80.001	19.994	103.733	19.935	7.004	0.510
623.000	386.281	80.002	19.995	103.732	19.937	6.841	0.471
623.500	386.575	80.004	19.994	103.730	19.935	6.970	0.475
624.000	386.811	80.002	19.996	103.731	19.933	7.102	0.515
624.500	387.053	80.003	19.994	103.731	19.936	6.905	0.504
625.000	387.308	80.004	19.994	103.731	19.933	7.124	0.487
625.500	387.564	80.003	19.994	103.733	19.938	6.764	0.505
626.000	387.782	80.003	19.993	103.735	19.936	6.928	0.493
626.500	388.054	80.002	19.993	103.735	19.935	6.969	0.482
627.000	388.311	80.003	19.993	103.737	19.936	6.895	0.509
627.500	388.599	80.004	19.994	103.737	19.937	6.820	0.537
628.000	388.842	80.002	19.994	103.735	19.934	7.065	0.538
628.500	389.069	80.003	19.994	103.734	19.936	6.909	0.501
629.000	389.328	80.003	19.993	103.733	19.938	6.805	0.478
629.500	389.601	80.003	19.993	103.731	19.936	6.930	0.509
630.000	389.826	80.004	19.994	103.730	19.936	6.911	0.515
630.500	390.093	80.002	19.993	103.730	19.933	7.127	0.494
631.000	390.340	80.001	19.994	103.731	19.936	6.915	0.503
631.500	390.586	80.002	19.994	103.731	19.938	6.808	0.504
632.000	390.833	80.001	19.994	103.731	19.941	6.545	0.493
632.500	391.114	80.002	19.993	103.731	19.942	6.510	0.510
633.000	391.330	80.001	19.995	103.731	19.937	6.828	0.513
633.500	391.592	80.001	19.993	103.731	19.941	6.575	0.488
634.000	391.823	80.003	19.994	103.730	19.942	6.472	0.485
634.500	392.103	80.002	19.993	103.731	19.940	6.604	0.502
635.000	392.340	80.001	19.993	103.732	19.941	6.584	0.514
635.500	392.600	80.003	19.993	103.732	19.943	6.399	0.507
636.000	392.866	80.006	19.993	103.732	19.942	6.490	0.511
636.500	393.065	80.000	19.994	103.733	19.940	6.608	0.495
637.000	393.386	80.001	19.994	103.727	19.943	6.414	0.493
637.500	393.600	80.002	19.995	103.715	19.944	6.377	0.527
638.000	393.853	80.000	19.993	103.708	19.942	6.470	0.501
638.500	394.115	80.003	19.994	103.707	19.942	6.478	0.491
639.000	394.355	80.002	19.994	103.707	19.941	6.531	0.509
639.500	394.598	80.004	19.993	103.712	19.941	6.531	0.493
640.000	394.863	80.002	19.993	103.724	19.941	6.535	0.495
640.500	395.093	80.002	19.993	103.731	19.947	6.140	0.501
641.000	395.346	80.004	19.993	103.736	19.945	6.278	0.489
641.500	395.607	80.000	19.993	103.740	19.940	6.614	0.499
642.000	395.878	80.001	19.994	103.740	19.946	6.221	0.523
642.500	396.126	80.000	19.994	103.738	19.945	6.258	0.525
643.000	396.359	80.000	19.994	103.738	19.943	6.393	0.500
643.501	396.593	80.000	19.995	103.733	19.947	6.151	0.474
644.000	396.851	80.002	19.995	103.730	19.945	6.262	0.480
644.500	397.081	80.002	19.993	103.729	19.945	6.260	0.490
645.000	397.318	80.000	19.994	103.730	19.943	6.436	0.477
645.500	397.621	80.001	19.994	103.731	19.943	6.407	0.503
646.000	397.862	80.001	19.996	103.730	19.945	6.314	0.542
646.500	398.149	80.002	19.994	103.730	19.947	6.163	0.536
647.000	398.369	80.001	19.995	103.730	19.947	6.122	0.517
647.500	398.605	80.000	19.993	103.729	19.943	6.401	0.482
648.000	398.888	80.000	19.995	103.729	19.946	6.197	0.488
648.500	399.120	79.999	19.995	103.728	19.946	6.183	0.517
649.000	399.370	80.001	19.995	103.728	19.947	6.147	0.499
649.500	399.614	80.002	19.994	103.728	19.945	6.246	0.488
650.000	399.865	80.002	19.996	103.728	19.946	6.215	0.494
650.500	400.132	80.002	19.995	103.730	19.946	6.175	0.506
651.000	400.378	80.002	19.997	103.731	19.946	6.195	0.516
651.500	400.621	80.000	19.995	103.730	19.947	6.150	0.501
652.000	400.899	80.000	19.995	103.730	19.947	6.142	0.506
652.500	401.112	80.000	19.995	103.729	19.947	6.112	0.506
653.000	401.372	80.000	19.997	103.727	19.946	6.187	0.482
653.500	401.605	80.002	19.993	103.726	19.947	6.128	0.483
654.000	401.837	80.001	19.996	103.728	19.947	6.147	0.479
654.500	402.105	80.001	19.996	103.728	19.946	6.185	0.483
655.000	402.362	80.000	19.995	103.729	19.946	6.181	0.513
655.500	402.583	80.001	19.995	103.731	19.947	6.115	0.501
656.000	402.853	80.001	19.995	103.732	19.951	5.825	0.484
656.500	403.108	80.002	19.995	103.732	19.949	6.026	0.508
657.000	403.358	80.000	19.995	103.732	19.950	5.926	0.515
657.500	403.623	80.000	19.996	103.732	19.949	6.001	0.510
658.000	403.862	80.001	19.996	103.732	19.950	5.930	0.509
658.500	404.094	80.001	19.995	103.731	19.949	5.961	0.487
659.000	404.349	80.001	19.995	103.731	19.949	5.973	0.479
659.500	404.636	80.000	19.995	103.730	19.948	6.054	0.514
660.000	404.860	80.001	19.995	103.728	19.950	5.948	0.527
660.500	405.079	80.003	19.994	103.727	19.951	5.861	0.477
661.000	405.370	80.001	19.995	103.727	19.952	5.761	0.476
661.500	405.616	80.002	19.995	103.727	19.951	5.818	0.524
662.000	405.838	80.001	19.995	103.727	19.953	5.716	0.503
662.500	406.103	80.001	19.995	103.729	19.951	5.854	0.477
663.000	406.355	80.002	19.994	103.730	19.953	5.678	0.502
663.500	406.594	80.000	19.995	103.730	19.953	5.728	0.504
664.000	406.844	80.000	19.995	103.729	19.953	5.721	0.490
664.500	407.108	80.002	19.995	103.729	19.951	5.867	0.501
665.000	407.347	80.002	19.994	103.728	19.952	5.778	0.509
665.500	407.585	79.999	19.995	103.724	19.950	5.903	0.490
666.000	407.822	80.001	19.995	103.721	19.952	5.754	0.476
666.500	408.102	80.001	19.994	103.720	19.953	5.723	0.496
667.000	408.344	80.000	19.996	103.719	19.953	5.729	0.519
667.500	408.607	80.000	19.996	103.720	19.955	5.578	0.513
668.000	408.842	80.000	19.995	103.722	19.954	5.669	0.501
668.500	409.094	80.001	19.995	103.719	19.953	5.701	0.493
669.000	409.356	80.001	19.995	103.720	19.951	5.829	0.501
669.500	409.577	80.000	19.994	103.721	19.953	5.731	0.499
670.000	409.781	79.998	19.995	103.722	19.954	5.636	0.454
670.500	410.084	80.001	19.995	103.724	19.952	5.802	0.466
671.000	410.327	80.002	19.994	103.726	19.953	5.731	0.527
671.500	410.603	79.998	19.996	103.724	19.956	5.485	0.532
672.000	410.861	80.000	19.995	103.717	19.956	5.525	0.526
672.500	411.121	80.002	19.994	103.712	19.956	5.464	0.526
673.000	411.364	80.000	19.995	103.711	19.957	5.454	0.511
673.500	411.613	80.001	19.996	103.715	19.955	5.602	0.497
674.000	411.850	80.001	19.994	103.718	19.954	5.675	0.489
674.500	412.068	80.000	19.995	103.726	19.954	5.605	0.471
675.000	412.325	80.000	19.995	103.731	19.959	5.275	0.465
675.500	412.579	80.001	19.995	103.733	19.956	5.498	0.493
676.000	412.850	80.001	19.996	103.732	19.956	5.508	0.518
676.500	413.088	80.001	19.996	103.732	19.956	5.501	0.517
677.000	413.359	79.999	19.995	103.731	19.956	5.521	0.509
677.500	413.582	80.000	19.995	103.730	19.960	5.243	0.501
678.000	413.852	80.001	19.998	103.730	19.957	5.442	0.493
678.500	414.064	80.000	19.998	103.732	19.959	5.314	0.488
679.001	414.306	80.001	19.998	103.731	19.958	5.359	0.469
679.501	414.508	80.001	19.997	103.730	19.957	5.390	0.449
680.000	414.802	80.001	19.996	103.731	19.955	5.544	0.470
680.500	415.079	80.002	19.997	103.730	19.957	5.424	0.533
681.000	415.298	80.001	19.997	103.729	19.961	5.167	0.534
681.500	415.567	80.002	19.995	103.730	19.958	5.343	0.492
682.000	415.800	80.001	19.995	103.731	19.956	5.515	0.495
682.500	416.061	80.001	19.996	103.731	19.956	5.511	0.498
683.000	416.287	80.001	19.996	103.730	19.955	5.598	0.491
683.500	416.536	80.001	19.994	103.729	19.958	5.386	0.482
684.000	416.810	80.001	19.995	103.728	19.958	5.323	0.499
684.500	417.058	80.001	19.994	103.724	19.958	5.352	0.522
685.000	417.362	80.003	19.995	103.720	19.955	5.536	0.537
685.500	417.591	80.002	19.994	103.714	19.958	5.327	0.542
686.000	417.823	80.002	19.994	103.713	19.958	5.372	0.497
686.500	418.064	80.000	19.996	103.714	19.959	5.313	0.467
687.000	418.342	80.002	19.995	103.718	19.958	5.321	0.496
687.500	418.579	80.002	19.995	103.723	19.958	5.361	0.517
688.000	418.829	80.001	19.995	103.730	19.958	5.351	0.501
688.500	419.081	80.002	19.994	103.737	19.963	5.024	0.495
689.000	419.348	80.002	19.995	103.736	19.957	5.439	0.511
689.500	419.581	80.000	19.995	103.733	19.963	5.008	0.509
690.000	419.834	80.000	19.994	103.731	19.963	5.018	0.493
690.500	420.136	80.002	19.994	103.730	19.959	5.266	0.521
691.000	420.338	79.999	19.995	103.726	19.963	5.012	0.529
691.500	420.612	80.000	19.994	103.725	19.959	5.263	0.490
692.000	420.844	80.001	19.994	103.728	19.962	5.042	0.491
692.500	421.117	80.001	19.994	103.729	19.963	4.967	0.506
693.000	421.384	80.002	19.995	103.730	19.960	5.194	0.523
693.500	421.632	80.002	19.994	103.730	19.961	5.151	0.527
694.000	421.868	80.001	19.994	103.730	19.964	4.907	0.499
694.500	422.103	80.001	19.995	103.727	19.965	4.874	0.478
695.000	422.379	80.001	19.994	103.721	19.961	5.154	0.491
695.500	422.635	80.001	19.994	103.719	19.961	5.144	0.522
696.000	422.858	80.000	19.993	103.716	19.965	4.831	0.506
696.500	423.145	80.002	19.994	103.716	19.962	5.079	0.494
697.000	423.389	80.001	19.995	103.719	19.960	5.213	0.520
697.500	423.613	80.002	19.994	103.725	19.963	4.979	0.500
698.000	423.896	80.002	19.993	103.728	19.965	4.865	0.488
698.500	424.167	80.003	19.993	103.729	19.966	4.816	0.530
699.000	424.443	80.003	19.993	103.724	19.963	5.003	0.550
699.500	424.660	80.002	19.993	103.721	19.962	5.040	0.520
700.000	424.900	80.002	19.994	103.719	19.964	4.929	0.476
700.500	425.190	80.003	19.995	103.717	19.963	5.010	0.494
701.000	425.409	80.002	19.994	103.717	19.962	5.085	0.519
701.500	425.682	80.002	19.995	103.721	19.962	5.090	0.500
702.000	425.907	80.003	19.994	103.720	19.962	5.092	0.495
702.500	426.206	80.003	19.995	103.720	19.962	5.053	0.511
703.000	426.411	80.003	19.994	103.718	19.964	4.953	0.514
703.500	426.690	80.003	19.994	103.717	19.962	5.064	0.494
704.000	426.915	80.002	19.994	103.717	19.960	5.200	0.494
704.500	427.181	80.003	19.994	103.718	19.957	5.403	0.497
705.000	427.474	80.002	19.994	103.714	19.962	5.038	0.525
705.500	427.683	80.002	19.995	103.711	19.961	5.129	0.530
706.000	428.007	80.003	19.993	103.714	19.961	5.139	0.517
706.500	428.228	80.002	19.993	103.699	19.961	5.135	0.539
707.000	428.473	80.002	19.995	103.678	19.962	5.063	0.506
707.500	428.710	80.003	19.994	103.664	19.960	5.201	0.475
708.000	428.969	80.003	19.994	103.655	19.964	4.907	0.489
708.500	429.219	80.003	19.994	103.644	19.966	4.788	0.502
709.000	429.464	80.004	19.993	103.655	19.965	4.854	0.502
709.500	429.697	80.002	19.995	103.700	19.964	4.919	0.487
710.000	429.967	80.004	19.993	103.732	19.967	4.698	0.490
710.500	430.221	80.002	19.994	103.749	19.966	4.803	0.513
711.000	430.465	80.003	19.993	103.758	19.967	4.747	0.512
711.500	430.724	80.002	19.995	103.761	19.967	4.694	0.501
712.000	430.976	80.003	19.994	103.741	19.966	4.806	0.507
712.500	431.238	80.004	19.995	103.731	19.965	4.824	0.512
713.000	431.492	80.003	19.995	103.735	19.963	4.968	0.515
713.500	431.736	80.002	19.994	103.732	19.966	4.765	0.507
714.000	431.963	80.001	19.995	103.724	19.966	4.761	0.484
714.500	432.196	80.003	19.994	103.716	19.964	4.907	0.466
715.000	432.447	80.002	19.994	103.712	19.964	4.919	0.473
715.500	432.713	80.001	19.995	103.705	19.967	4.719	0.501
716.000	432.941	80.001	19.994	103.708	19.967	4.710	0.506
716.500	433.241	80.001	19.995	103.714	19.963	4.970	0.511
717.000	433.508	80.000	19.995	103.719	19.966	4.755	0.547
717.500	433.719	80.000	19.994	103.715	19.968	4.656	0.522
718.000	433.956	79.999	19.994	103.709	19.965	4.846	0.463
718.500	434.216	80.000	19.994	103.705	19.966	4.806	0.473
719.000	434.489	80.001	19.994	103.702	19.964	4.923	0.515
719.500	434.791	80.001	19.995	103.705	19.966	4.812	0.554
720.000	435.002	80.001	19.994	103.710	19.967	4.725	0.544
720.500	435.254	80.001	19.994	103.710	19.967	4.737	0.488
721.000	435.506	80.000	19.995	103.713	19.966	4.749	0.483
721.500	435.776	80.000	19.993	103.714	19.966	4.767	0.513
722.000	436.027	80.000	19.995	103.712	19.970	4.472	0.522
722.500	436.284	80.001	19.994	103.710	19.969	4.605	0.515
723.000	436.565	80.002	19.994	103.710	19.967	4.742	0.523
723.500	436.811	80.002	19.996	103.707	19.967	4.685	0.532
724.000	437.040	80.002	19.995	103.707	19.968	4.643	0.501
724.500	437.303	80.001	19.994	103.705	19.968	4.652	0.484
725.000	437.563	80.002	19.994	103.703	19.967	4.718	0.507
725.500	437.795	80.001	19.994	103.705	19.967	4.735	0.507
726.000	438.030	80.002	19.993	103.706	19.966	4.768	0.480
726.500	438.260	80.003	19.993	103.706	19.966	4.788	0.466
727.000	438.529	80.001	19.994	103.708	19.967	4.684	0.482
727.500	438.819	80.001	19.994	103.710	19.967	4.731	0.529
728.000	439.040	80.000	19.994	103.709	19.966	4.801	0.535
728.500	439.280	80.001	19.993	103.710	19.970	4.467	0.486
729.000	439.537	80.002	19.994	103.708	19.967	4.697	0.479
729.500	439.812	80.001	19.994	103.702	19.968	4.675	0.515
730.000	440.070	80.001	19.993	103.704	19.966	4.763	0.533
730.500	440.313	80.000	19.994	103.704	19.966	4.809	0.517
731.000	440.575	80.001	19.993	103.703	19.967	4.700	0.503
731.500	440.808	80.001	19.994	103.705	19.967	4.743	0.500
732.000	441.050	80.002	19.995	103.706	19.968	4.672	0.485
732.500	441.359	80.001	19.993	103.706	19.966	4.802	0.513
733.000	441.556	80.002	19.994	103.711	19.966	4.767	0.528
733.500	441.824	80.001	19.994	103.715	19.964	4.939	0.486
734.000	442.087	80.002	19.994	103.718	19.966	4.795	0.498
734.500	442.337	80.001	19.995	103.729	19.966	4.771	0.522
735.000	442.623	80.002	19.994	103.718	19.970	4.514	0.524
735.500	442.837	80.001	19.994	103.694	19.966	4.780	0.518
736.000	443.104	80.000	19.994	103.674	19.963	4.986	0.491
736.500	443.377	80.002	19.994	103.661	19.968	4.652	0.511
737.000	443.604	80.001	19.994	103.648	19.969	4.595	0.520
737.500	443.864	80.001	19.994	103.656	19.970	4.465	0.493
738.000	444.102	80.000	19.996	103.676	19.968	4.655	0.493
738.500	444.353	80.001	19.997	103.710	19.971	4.459	0.493
739.000	444.608	80.002	19.995	103.754	19.970	4.494	0.497
739.500	444.874	80.001	19.995	103.771	19.973	4.312	0.514
740.000	445.115	80.001	19.995	103.778	19.971	4.431	0.514
740.500	445.386	80.002	19.994	103.781	19.967	4.684	0.510
741.000	445.650	80.003	19.995	103.761	19.972	4.385	0.524
741.500	445.882	80.001	19.995	103.726	19.970	4.508	0.515
742.000	446.136	80.002	19.995	103.712	19.972	4.381	0.491
742.500	446.426	80.001	19.994	103.705	19.969	4.604	0.515
743.000	446.652	80.001	19.995	103.702	19.971	4.435	0.530
743.500	446.870	80.001	19.995	103.707	19.969	4.559	0.480
744.000	447.119	80.000	19.995	103.714	19.972	4.385	0.455
744.500	447.412	80.000	19.995	103.714	19.971	4.411	0.505
745.000	447.624	79.999	19.995	103.714	19.970	4.472	0.524
745.500	447.918	79.999	19.995	103.712	19.972	4.376	0.505
746.000	448.170	80.000	19.996	103.704	19.969	4.540	0.526
746.500	448.441	80.000	19.995	103.697	19.969	4.540	0.535
747.000	448.668	80.000	19.995	103.696	19.974	4.243	0.511
747.500	448.915	80.000	19.996	103.697	19.968	4.659	0.486
748.000	449.197	80.000	19.995	103.703	19.972	4.350	0.502
748.500	449.435	80.001	19.995	103.710	19.968	4.631	0.524
749.000	449.709	80.000	19.995	103.715	19.970	4.506	0.516
749.500	449.932	79.999	19.995	103.717	19.970	4.532	0.505
750.000	450.208	80.000	19.995	103.717	19.972	4.346	0.498
750.500	450.445	80.001	19.996	103.712	19.971	4.439	0.506
751.000	450.761	80.000	19.995	103.708	19.970	4.467	0.533
751.500	450.940	80.000	19.995	103.703	19.971	4.435	0.524
752.000	451.233	79.999	19.995	103.704	19.970	4.464	0.484
752.500	451.506	80.000	19.994	103.702	19.970	4.492	0.519
753.000	451.759	80.000	19.995	103.701	19.972	4.383	0.546
753.500	451.992	80.000	19.995	103.700	19.969	4.579	0.506
754.000	452.268	80.001	19.996	103.702	19.971	4.438	0.497
754.500	452.560	80.003	19.995	103.702	19.971	4.397	0.538
755.000	452.786	80.001	19.994	103.703	19.970	4.466	0.543
755.500	453.024	79.999	19.994	103.703	19.971	4.420	0.492
756.000	453.298	80.001	19.996	103.705	19.969	4.582	0.488
756.500	453.501	80.002	19.994	103.708	19.971	4.403	0.494
757.000	453.805	80.001	19.994	103.712	19.972	4.337	0.492
757.500	454.058	80.002	19.994	103.713	19.972	4.326	0.532
758.000	454.289	80.001	19.993	103.717	19.971	4.391	0.520
758.500	454.565	80.001	19.995	103.718	19.971	4.413	0.495
759.000	454.831	80.001	19.993	103.713	19.971	4.427	0.525
759.500	455.065	80.001	19.993	103.715	19.968	4.626	0.521
760.000	455.316	80.002	19.994	103.720	19.973	4.271	0.492
760.500	455.603	80.001	19.994	103.723	19.969	4.545	0.511
761.000	455.853	80.002	19.994	103.723	19.969	4.581	0.537
761.500	456.126	80.002	19.994	103.725	19.970	4.504	0.530
762.000	456.361	80.002	19.994	103.721	19.971	4.429	0.516
762.500	456.618	80.001	19.994	103.714	19.970	4.492	0.501
763.000	456.888	80.003	19.994	103.706	19.970	4.512	0.510
763.500	457.140	80.002	19.993	103.704	19.969	4.555	0.524
764.000	457.362	80.001	19.996	103.701	19.971	4.413	0.498
764.500	457.661	80.003	19.994	103.695	19.970	4.488	0.497
765.000	457.894	80.002	19.994	103.695	19.970	4.470	0.527
765.500	458.163	80.002	19.995	103.695	19.966	4.794	0.517
766.000	458.400	80.002	19.995	103.694	19.969	4.563	0.504
766.500	458.652	80.002	19.994	103.693	19.972	4.389	0.497
767.000	458.884	80.002	19.994	103.693	19.975	4.168	0.486
767.500	459.150	80.002	19.993	103.694	19.974	4.245	0.491
768.000	459.392	80.001	19.995	103.696	19.970	4.515	0.503
768.500	459.649	80.001	19.995	103.696	19.972	4.365	0.503
769.000	459.916	80.001	19.994	103.696	19.972	4.357	0.511
769.500	460.165	80.001	19.995	103.697	19.973	4.286	0.520
770.000	460.419	80.002	19.995	103.700	19.974	4.247	0.509
770.500	460.661	80.001	19.995	103.700	19.971	4.413	0.500
771.000	460.918	80.001	19.996	103.704	19.970	4.494	0.498
771.500	461.190	80.002	19.995	103.707	19.971	4.408	0.514
772.000	461.427	80.002	19.996	103.707	19.971	4.414	0.519
772.500	461.699	80.001	19.996	103.703	19.972	4.385	0.509
773.000	461.956	80.001	19.995	103.705	19.970	4.497	0.519
773.500	462.165	80.001	19.995	103.704	19.969	4.561	0.497
774.000	462.416	80.001	19.994	103.700	19.974	4.221	0.463
774.500	462.662	80.001	19.995	103.700	19.971	4.402	0.479
775.000	462.919	80.001	19.995	103.700	19.966	4.758	0.501
775.500	463.178	80.002	19.995	103.696	19.968	4.646	0.510
776.000	463.426	80.001	19.994	103.692	19.968	4.618	0.512
776.500	463.651	80.001	19.995	103.693	19.971	4.412	0.490
777.000	463.909	80.001	19.995	103.696	19.973	4.294	0.478
777.500	464.162	80.001	19.995	103.700	19.970	4.490	0.497
778.000	464.400	80.002	19.995	103.701	19.970	4.515	0.501
778.500	464.656	80.003	19.995	103.700	19.973	4.286	0.493
779.000	464.884	80.003	19.995	103.698	19.974	4.183	0.489
779.500	465.141	80.001	19.995	103.696	19.974	4.185	0.484
780.000	465.386	80.003	19.994	103.697	19.974	4.193	0.493
780.500	465.653	80.003	19.994	103.696	19.971	4.397	0.507
781.000	465.872	80.003	19.995	103.697	19.973	4.272	0.499
781.500	466.142	80.004	19.994	103.697	19.975	4.120	0.487
782.000	466.376	80.002	19.994	103.697	19.974	4.225	0.497
782.500	466.639	80.003	19.994	103.693	19.975	4.164	0.501
783.000	466.880	80.002	19.995	103.693	19.974	4.199	0.501
783.500	467.128	80.003	19.994	103.693	19.975	4.174	0.497
784.000	467.370	80.003	19.994	103.693	19.976	4.093	0.490
784.500	467.599	80.004	19.995	103.693	19.972	4.377	0.480
785.000	467.861	80.005	19.994	103.691	19.976	4.083	0.481
785.500	468.107	80.004	19.994	103.691	19.975	4.162	0.500
786.000	468.362	80.004	19.994	103.691	19.979	3.889	0.505
786.500	468.610	80.005	19.994	103.692	19.978	3.956	0.502
787.000	468.825	80.004	19.994	103.693	19.975	4.111	0.483
787.500	469.098	80.003	19.993	103.694	19.975	4.119	0.475
788.000	469.321	80.003	19.993	103.695	19.975	4.148	0.491
788.500	469.582	80.004	19.994	103.694	19.973	4.293	0.490
789.000	469.840	80.004	19.994	103.694	19.974	4.194	0.502
789.500	470.055	80.004	19.996	103.692	19.976	4.065	0.496
790.000	470.291	80.003	19.994	103.691	19.974	4.229	0.462
790.500	470.551	80.004	19.994	103.692	19.975	4.107	0.474
791.000	470.815	80.003	19.993	103.695	19.976	4.085	0.510
791.500	471.038	80.003	19.994	103.696	19.974	4.178	0.505
792.000	471.312	80.004	19.994	103.696	19.976	4.104	0.492
792.500	471.563	80.003	19.994	103.696	19.974	4.203	0.511
793.000	471.784	80.003	19.993	103.698	19.977	4.018	0.499
793.500	472.076	80.003	19.994	103.696	19.975	4.134	0.493
794.000	472.315	80.002	19.993	103.698	19.976	4.067	0.522
794.500	472.558	80.003	19.994	103.700	19.972	4.324	0.506
795.000	472.799	80.002	19.994	103.700	19.975	4.134	0.483
795.500	473.128	80.001	19.994	103.698	19.975	4.120	0.527
796.000	473.361	80.000	19.994	103.697	19.977	4.005	0.566
796.500	473.590	80.001	19.994	103.695	19.977	4.006	0.512
797.000	473.840	80.001	19.995	103.697	19.976	4.069	0.471
797.500	474.101	80.000	19.994	103.700	19.980	3.766	0.495
798.000	474.338	80.002	19.995	103.705	19.980	3.782	0.504
798.500	474.602	80.002	19.996	103.713	19.980	3.782	0.499
799.000	474.840	80.001	19.995	103.714	19.980	3.769	0.502
799.500	475.114	80.000	19.995	103.711	19.980	3.802	0.507
800.000	475.374	79.999	19.995	103.710	19.979	3.842	0.523
800.500	475.643	80.000	19.995	103.709	19.979	3.858	0.532
801.000	475.861	79.998	19.995	103.702	19.983	3.569	0.508
801.500	476.112	80.000	19.995	103.702	19.983	3.599	0.478
802.000	476.351	80.000	19.994	103.702	19.981	3.737	0.480
802.500	476.578	80.001	19.994	103.701	19.976	4.085	0.478
803.000	476.810	79.999	19.995	103.700	19.979	3.865	0.462
803.500	477.095	80.000	19.994	103.702	19.977	4.008	0.488
804.000	477.327	80.000	19.995	103.701	19.980	3.759	0.517
804.500	477.563	80.000	19.994	103.699	19.981	3.719	0.492
805.000	477.811	80.001	19.994	103.699	19.978	3.915	0.476
805.500	478.060	80.000	19.994	103.695	19.978	3.911	0.491
806.000	478.344	80.001	19.995	103.693	19.979	3.830	0.515
806.500	478.597	80.001	19.994	103.693	19.977	3.982	0.534
807.000	478.848	80.002	19.994	103.695	19.978	3.956	0.521
807.500	479.127	80.000	19.995	103.697	19.981	3.701	0.517
808.000	479.352	80.001	19.995	103.697	19.978	3.956	0.517
808.500	479.595	80.001	19.994	103.699	19.978	3.930	0.486
809.000	479.861	80.001	19.995	103.700	19.979	3.855	0.489
809.500	480.136	80.002	19.995	103.699	19.982	3.666	0.525
810.000	480.360	80.001	19.995	103.701	19.982	3.644	0.520
810.500	480.619	80.002	19.993	103.705	19.977	3.988	0.491
811.000	480.849	80.002	19.994	103.705	19.979	3.891	0.486
811.500	481.108	80.001	19.995	103.709	19.980	3.751	0.489
812.000	481.396	80.002	19.994	103.710	19.982	3.656	0.518
812.500	481.653	80.002	19.995	103.706	19.979	3.887	0.546
813.000	481.891	80.001	19.994	103.707	19.979	3.891	0.520
813.500	482.173	80.001	19.994	103.705	19.981	3.733	0.507
814.000	482.382	80.000	19.994	103.702	19.981	3.698	0.505
814.500	482.622	80.001	19.995	103.703	19.979	3.828	0.470
815.000	482.872	80.001	19.995	103.703	19.981	3.749	0.470
815.500	483.151	80.001	19.993	103.699	19.981	3.698	0.509
816.000	483.406	80.002	19.995	103.698	19.982	3.648	0.532
816.500	483.650	80.002	19.994	103.696	19.984	3.488	0.516
817.000	483.890	80.002	19.994	103.696	19.983	3.602	0.491
817.500	484.123	80.003	19.993	103.695	19.985	3.464	0.479
818.000	484.436	80.003	19.993	103.696	19.983	3.592	0.510
818.500	484.648	80.001	19.994	103.696	19.981	3.689	0.535
819.000	484.911	80.001	19.993	103.698	19.983	3.559	0.500
819.500	485.156	80.000	19.994	103.698	19.980	3.752	0.491
820.000	485.403	80.001	19.995	103.699	19.981	3.679	0.499
820.500	485.658	80.002	19.994	103.698	19.983	3.596	0.497
821.000	485.932	80.002	19.994	103.698	19.981	3.727	0.516
821.500	486.164	80.001	19.993	103.697	19.982	3.650	0.518
822.000	486.410	80.001	19.993	103.696	19.983	3.567	0.492
822.500	486.692	80.002	19.994	103.695	19.980	3.800	0.503
823.000	486.923	80.001	19.993	103.696	19.979	3.835	0.520
823.500	487.218	80.000	19.994	103.697	19.982	3.656	0.520
824.000	487.423	80.001	19.993	103.702	19.980	3.762	0.513
824.500	487.710	80.001	19.993	103.704	19.983	3.604	0.495
825.000	487.972	80.001	19.995	103.709	19.982	3.608	0.520
825.500	488.209	80.001	19.994	103.712	19.986	3.347	0.524
826.000	488.460	80.000	19.995	103.711	19.985	3.407	0.494
826.500	488.729	80.000	19.994	103.706	19.984	3.496	0.504
827.000	488.953	80.001	19.994	103.703	19.981	3.719	0.507
827.500	489.269	80.002	19.994	103.699	19.982	3.646	0.516
828.000	489.507	80.002	19.994	103.696	19.984	3.480	0.547
828.500	489.746	80.001	19.995	103.696	19.985	3.413	0.516
829.000	490.012	80.001	19.994	103.695	19.982	3.654	0.491
829.500	490.258	80.001	19.994	103.695	19.985	3.452	0.508
830.000	490.530	80.000	19.994	103.694	19.986	3.342	0.515
830.500	490.744	80.000	19.994	103.693	19.985	3.411	0.502
831.000	491.043	80.001	19.995	103.692	19.988	3.204	0.500
831.500	491.328	79.999	19.994	103.691	19.984	3.472	0.549
832.000	491.524	80.002	19.995	103.692	19.985	3.415	0.532
832.500	491.765	80.001	19.995	103.693	19.985	3.458	0.459
833.000	492.075	80.000	19.995	103.693	19.984	3.492	0.494
833.500	492.294	80.000	19.995	103.693	19.983	3.563	0.540
834.000	492.560	80.001	19.995	103.693	19.984	3.484	0.507
834.500	492.799	80.002	19.994	103.693	19.986	3.367	0.495
835.000	493.068	80.002	19.994	103.692	19.983	3.593	0.506
835.500	493.304	80.000	19.994	103.692	19.984	3.476	0.506
836.000	493.595	80.001	19.995	103.692	19.987	3.320	0.516
836.500	493.856	80.000	19.994	103.692	19.984	3.482	0.540
837.000	494.101	80.002	19.995	103.692	19.988	3.245	0.530
837.500	494.386	80.002	19.995	103.692	19.985	3.403	0.518
838.000	494.638	80.001	19.995	103.692	19.984	3.523	0.533
838.500	494.910	80.003	19.995	103.691	19.987	3.298	0.531
839.000	495.146	80.003	19.994	103.692	19.985	3.444	0.516
839.500	495.412	80.002	19.996	103.693	19.984	3.484	0.505
840.000	495.696	80.002	19.995	103.697	19.985	3.423	0.526
840.500	495.902	80.002	19.995	103.705	19.988	3.211	0.520
841.000	496.182	80.002	19.995	103.711	19.983	3.577	0.488
841.500	496.430	80.002	19.994	103.709	19.985	3.447	0.507
842.000	496.689	80.002	19.994	103.709	19.985	3.429	0.517
842.500	496.954	80.001	19.995	103.704	19.985	3.458	0.515
843.000	497.224	80.002	19.995	103.697	19.983	3.537	0.529
843.500	497.470	80.002	19.996	103.693	19.984	3.519	0.525
844.000	497.714	80.002	19.995	103.698	19.985	3.436	0.503
844.500	497.983	80.002	19.996	103.700	19.985	3.411	0.502
845.000	498.253	80.001	19.995	103.701	19.983	3.567	0.526
845.500	498.500	80.001	19.995	103.701	19.985	3.419	0.528
846.000	498.741	80.002	19.996	103.700	19.987	3.279	0.502
846.500	499.012	80.001	19.996	103.695	19.986	3.377	0.500
847.000	499.267	80.002	19.995	103.693	19.988	3.207	0.519
847.500	499.528	80.001	19.995	103.692	19.984	3.470	0.521
848.000	499.791	80.001	19.995	103.692	19.985	3.445	0.520
848.500	500.071	80.002	19.995	103.692	19.983	3.537	0.534
849.000	500.305	80.002	19.995	103.691	19.983	3.587	0.529
849.500	500.600	80.002	19.995	103.691	19.983	3.539	0.521
850.000	500.837	80.002	19.994	103.691	19.984	3.519	0.530
850.500	501.105	80.002	19.996	103.696	19.984	3.488	0.518
851.000	501.390	80.001	19.995	103.701	19.984	3.466	0.529
851.500	501.597	80.002	19.995	103.704	19.984	3.527	0.523
852.000	501.885	80.001	19.994	103.704	19.984	3.500	0.493
852.500	502.164	80.002	19.996	103.705	19.981	3.679	0.530
853.000	502.413	80.003	19.995	103.701	19.985	3.427	0.547
853.500	502.644	80.002	19.996	103.695	19.984	3.488	0.504
854.000	502.928	80.001	19.996	103.692	19.985	3.399	0.498
854.500	503.181	80.001	19.994	103.692	19.986	3.385	0.526
855.000	503.413	80.001	19.997	103.691	19.983	3.563	0.511
855.500	503.690	80.001	19.996	103.693	19.986	3.354	0.497
856.000	503.942	80.001	19.994	103.698	19.982	3.612	0.519
856.500	504.226	80.002	19.994	103.702	19.984	3.484	0.532
857.000	504.472	80.003	19.995	103.705	19.985	3.464	0.533
857.500	504.709	80.000	19.995	103.705	19.985	3.397	0.506
858.000	504.975	80.001	19.998	103.704	19.986	3.361	0.493
858.500	505.286	80.002	19.998	103.705	19.984	3.504	0.540
859.000	505.533	80.002	19.996	103.706	19.985	3.452	0.568
859.500	505.786	80.003	19.996	103.703	19.988	3.215	0.529
860.000	506.096	80.002	19.998	103.704	19.986	3.385	0.532
860.500	506.331	80.000	19.996	103.703	19.985	3.399	0.554
861.000	506.607	80.001	19.995	103.698	19.986	3.341	0.528
861.500	506.866	80.003	19.996	103.693	19.984	3.494	0.523
862.000	507.143	80.002	19.994	103.695	19.987	3.252	0.536
862.500	507.418	80.001	19.995	103.695	19.985	3.450	0.544
863.000	507.626	80.002	19.996	103.696	19.984	3.470	0.517
863.500	507.921	80.004	19.995	103.696	19.986	3.375	0.493
864.000	508.191	80.002	19.995	103.697	19.987	3.290	0.534
864.500	508.435	80.003	19.995	103.696	19.987	3.264	0.540
865.000	508.687	80.003	19.995	103.698	19.986	3.375	0.505
865.500	508.973	80.003	19.995	103.698	19.987	3.306	0.517
866.000	509.255	80.003	19.996	103.699	19.986	3.389	0.552
866.500	509.474	80.003	19.995	103.700	19.987	3.310	0.535
867.000	509.805	80.003	19.994	103.699	19.987	3.257	0.526
867.501	510.080	80.004	19.994	103.697	19.984	3.508	0.578
868.000	510.335	80.003	19.995	103.702	19.989	3.110	0.567
868.500	510.615	80.004	19.996	103.700	19.988	3.217	0.532
869.000	510.881	80.004	19.995	103.699	19.988	3.249	0.541
869.500	511.103	80.003	19.995	103.699	19.988	3.235	0.517
870.000	511.358	80.003	19.994	103.699	19.988	3.247	0.482
870.500	511.672	80.003	19.993	103.693	19.988	3.227	0.523
871.000	511.921	80.003	19.994	103.692	19.986	3.340	0.566
871.500	512.160	80.003	19.995	103.691	19.987	3.266	0.526
872.000	512.423	80.002	19.994	103.691	19.988	3.201	0.495
872.500	512.705	80.003	19.994	103.691	19.986	3.326	0.524
873.000	512.954	80.002	19.994	103.692	19.988	3.205	0.539
873.500	513.238	80.002	19.993	103.693	19.987	3.282	0.532
874.000	513.521	80.003	19.995	103.693	19.990	3.104	0.550
874.500	513.790	80.003	19.995	103.693	19.988	3.209	0.559
875.000	514.060	80.000	19.994	103.695	19.991	2.972	0.546
875.500	514.313	80.001	19.994	103.697	19.989	3.128	0.531
876.000	514.567	80.002	19.995	103.696	19.989	3.124	0.515
876.500	514.834	80.001	19.994	103.697	19.987	3.266	0.514
877.000	515.089	80.001	19.994	103.698	19.988	3.221	0.522
877.500	515.394	80.001	19.996	103.697	19.989	3.130	0.541
878.000	515.641	80.000	19.995	103.695	19.991	3.035	0.556
878.500	515.901	80.002	19.995	103.696	19.985	3.409	0.530
879.000	516.134	80.001	19.996	103.696	19.989	3.138	0.500
879.500	516.428	80.001	19.995	103.695	19.989	3.154	0.510
880.000	516.657	80.000	19.994	103.695	19.987	3.312	0.525
880.500	516.942	80.000	19.995	103.695	19.986	3.336	0.518
881.000	517.198	80.001	19.993	103.695	19.987	3.312	0.527
881.500	517.447	80.002	19.994	103.695	19.988	3.247	0.523
882.000	517.706	80.001	19.994	103.695	19.986	3.353	0.506
882.500	518.013	80.000	19.994	103.696	19.988	3.227	0.537
883.000	518.245	80.001	19.994	103.697	19.989	3.118	0.553
883.500	518.492	80.001	19.994	103.697	19.988	3.187	0.509
884.000	518.768	80.002	19.994	103.698	19.987	3.284	0.501
884.500	519.018	80.001	19.993	103.697	19.989	3.124	0.524
885.000	519.272	80.002	19.994	103.697	19.987	3.254	0.515
885.500	519.545	80.000	19.994	103.696	19.986	3.379	0.515
886.000	519.802	80.000	19.995	103.696	19.986	3.353	0.528
886.500	520.036	80.001	19.993	103.697	19.984	3.496	0.511
887.000	520.257	80.001	19.995	103.697	19.987	3.271	0.473
887.500	520.535	80.001	19.994	103.696	19.986	3.389	0.477
888.000	520.787	80.002	19.995	103.698	19.988	3.237	0.515
888.500	521.062	80.001	19.994	103.698	19.988	3.221	0.529
889.000	521.328	80.001	19.993	103.697	19.990	3.102	0.534
889.500	521.570	80.000	19.994	103.697	19.989	3.138	0.524
890.000	521.792	80.001	19.995	103.697	19.987	3.268	0.486
890.500	522.074	80.001	19.995	103.695	19.990	3.075	0.484
891.000	522.338	79.999	19.996	103.695	19.991	3.029	0.526
891.500	522.561	80.001	19.994	103.696	19.991	3.021	0.517
892.000	522.794	80.002	19.995	103.695	19.988	3.247	0.472
892.500	523.052	80.001	19.995	103.694	19.991	3.029	0.473
893.000	523.356	80.001	19.994	103.694	19.989	3.112	0.526
893.500	523.516	80.001	19.994	103.695	19.986	3.391	0.513
894.000	523.831	80.001	19.995	103.693	19.987	3.296	0.469
894.500	524.082	80.000	19.994	103.694	19.987	3.278	0.520
895.000	524.338	80.001	19.995	103.694	19.986	3.383	0.537
895.500	524.588	80.002	19.995	103.693	19.986	3.326	0.507
896.000	524.814	80.000	19.994	103.692	19.984	3.472	0.491
896.500	525.061	80.001	19.994	103.692	19.987	3.284	0.474
897.000	525.329	80.000	19.995	103.692	19.988	3.179	0.494
897.500	525.537	80.001	19.995	103.694	19.989	3.124	0.496
898.000	525.802	80.001	19.994	103.700	19.990	3.104	0.475
898.500	526.048	80.000	19.995	103.700	19.990	3.063	0.492
899.000	526.293	80.002	19.994	103.699	19.991	3.029	0.501
899.500	526.539	80.001	19.995	103.699	19.990	3.100	0.491
900.000	526.812	80.000	19.994	103.697	19.990	3.106	0.505
900.500	527.063	80.001	19.994	103.691	19.991	3.005	0.521
901.000	527.284	80.001	19.993	103.691	19.990	3.085	0.498
901.500	527.566	80.001	19.995	103.691	19.990	3.102	0.487
902.000	527.839	80.000	19.995	103.691	19.990	3.081	0.529
902.500	528.074	80.001	19.994	103.691	19.988	3.205	0.532
903.000	528.317	80.001	19.995	103.691	19.989	3.110	0.493
903.500	528.584	80.002	19.994	103.692	19.991	3.025	0.494
904.000	528.847	80.000	19.995	103.693	19.991	2.996	0.520
904.500	529.102	80.000	19.995	103.693	19.991	3.029	0.524
905.000	529.368	80.001	19.995	103.693	19.989	3.150	0.519
905.500	529.599	80.000	19.995	103.693	19.989	3.110	0.509
906.000	529.826	80.001	19.994	103.692	19.991	2.992	0.477
906.500	530.074	80.001	19.995	103.692	19.988	3.215	0.466
907.000	530.307	80.001	19.994	103.692	19.990	3.047	0.478
907.500	530.540	80.002	19.994	103.692	19.988	3.191	0.474
908.000	530.778	80.001	19.995	103.693	19.989	3.150	0.469
908.500	531.040	80.002	19.995	103.693	19.990	3.075	0.485
909.000	531.292	80.001	19.994	103.692	19.992	2.899	0.507
909.500	531.540	80.002	19.993	103.692	19.987	3.290	0.507
910.000	531.809	80.000	19.994	103.692	19.988	3.241	0.508
910.500	532.033	80.001	19.994	103.692	19.989	3.156	0.505
911.000	532.310	80.000	19.994	103.692	19.986	3.355	0.497
911.500	532.557	80.000	19.995	103.692	19.990	3.065	0.512
912.000	532.822	80.001	19.996	103.692	19.989	3.156	0.518
912.500	533.059	80.001	19.994	103.693	19.986	3.330	0.507
913.000	533.335	80.001	19.996	103.693	19.987	3.270	0.508
913.500	533.558	80.001	19.995	103.693	19.988	3.235	0.506
914.000	533.802	80.000	19.995	103.692	19.992	2.924	0.483
914.500	534.062	80.002	19.995	103.692	19.992	2.926	0.486
915.000	534.269	80.002	19.994	103.691	19.990	3.043	0.485
915.500	534.565	80.000	19.994	103.691	19.991	3.015	0.485
916.000	534.794	80.001	19.994	103.691	19.992	2.921	0.514
916.500	535.099	80.002	19.994	103.691	19.992	2.946	0.529
917.000	535.289	80.002	19.994	103.691	19.993	2.834	0.515
917.500	535.537	80.001	19.995	103.691	19.992	2.934	0.466
918.000	535.787	80.003	19.997	103.692	19.994	2.757	0.468
918.500	536.083	80.003	19.997	103.697	19.993	2.830	0.522
919.000	536.290	80.002	19.994	103.701	19.989	3.134	0.525
919.500	536.546	80.003	19.995	103.701	19.990	3.077	0.483
920.000	536.761	80.002	19.994	103.701	19.990	3.037	0.466
920.500	537.043	80.002	19.996	103.700	19.992	2.929	0.484
921.000	537.285	80.002	19.996	103.694	19.991	2.996	0.511
921.500	537.543	80.001	19.995	103.692	19.990	3.055	0.512
922.000	537.793	80.003	19.994	103.691	19.991	2.984	0.504
922.500	538.055	80.002	19.995	103.691	19.989	3.142	0.510
923.000	538.288	80.001	19.995	103.691	19.989	3.126	0.503
923.500	538.503	80.002	19.995	103.691	19.990	3.053	0.472
924.000	538.786	80.002	19.996	103.691	19.988	3.247	0.473
924.500	539.025	80.002	19.995	103.691	19.988	3.182	0.510
925.000	539.249	80.002	19.995	103.691	19.991	3.024	0.493
925.500	539.535	80.001	19.995	103.692	19.990	3.057	0.486
926.000	539.763	80.001	19.996	103.692	19.989	3.142	0.512
926.500	540.018	80.002	19.995	103.692	19.988	3.182	0.499
927.000	540.287	80.001	19.996	103.692	19.989	3.132	0.503
927.500	540.547	80.003	19.995	103.693	19.988	3.229	0.526
928.000	540.792	80.002	19.995	103.695	19.988	3.197	0.517
928.500	541.076	80.002	19.996	103.695	19.991	2.990	0.517
929.000	541.305	80.002	19.996	103.700	19.989	3.168	0.521
929.500	541.566	80.002	19.995	103.705	19.988	3.217	0.501
930.000	541.813	80.001	19.995	103.706	19.986	3.377	0.499
930.500	542.072	80.001	19.996	103.705	19.990	3.103	0.507
931.000	542.340	80.002	19.996	103.705	19.988	3.237	0.516
931.500	542.583	80.002	19.996	103.701	19.989	3.158	0.519
932.000	542.833	80.002	19.996	103.695	19.988	3.195	0.502
932.500	543.138	80.002	19.995	103.695	19.989	3.118	0.524
933.000	543.344	80.000	19.995	103.694	19.991	2.980	0.533
933.500	543.593	80.002	19.995	103.696	19.989	3.146	0.483
934.000	543.849	80.001	19.995	103.697	19.989	3.172	0.480
934.501	544.116	80.001	19.995	103.699	19.987	3.263	0.514
935.001	544.389	80.002	19.994	103.702	19.988	3.190	0.532
935.500	544.643	80.002	19.995	103.703	19.989	3.140	0.534
936.000	544.890	80.001	19.995	103.703	19.989	3.124	0.514
936.500	545.171	80.002	19.995	103.702	19.989	3.177	0.514
937.000	545.408	80.002	19.995	103.699	19.988	3.205	0.523
937.500	545.653	80.001	19.995	103.697	19.987	3.276	0.501
938.000	545.911	80.002	19.996	103.697	19.990	3.073	0.493
938.500	546.203	80.003	19.995	103.699	19.988	3.241	0.526
939.000	546.469	80.002	19.994	103.702	19.990	3.099	0.554
939.500	546.767	80.002	19.995	103.704	19.988	3.219	0.561
940.000	547.021	80.002	19.996	103.706	19.987	3.264	0.558
940.500	547.304	80.003	19.995	103.704	19.988	3.185	0.545
941.000	547.545	80.003	19.995	103.702	19.988	3.213	0.530
941.500	547.823	80.004	19.995	103.700	19.986	3.349	0.522
942.000	548.060	80.003	19.995	103.700	19.990	3.087	0.517
942.500	548.351	80.004	19.996	103.698	19.991	2.996	0.522
943.000	548.607	80.002	19.994	103.699	19.989	3.168	0.537
943.500	548.896	80.003	19.994	103.703	19.990	3.097	0.546
944.000	549.163	80.003	19.994	103.705	19.989	3.112	0.551
944.500	549.445	80.004	19.995	103.706	19.989	3.116	0.552
945.000	549.733	80.003	19.994	103.708	19.990	3.077	0.559
945.500	550.003	80.003	19.995	103.707	19.990	3.037	0.564
946.000	550.280	80.003	19.995	103.702	19.989	3.146	0.552
946.500	550.545	80.004	19.995	103.700	19.990	3.047	0.545
947.000	550.780	80.003	19.995	103.697	19.987	3.284	0.521
947.500	551.036	80.002	19.996	103.695	19.985	3.456	0.495
948.000	551.304	80.002	19.994	103.697	19.987	3.300	0.507
948.500	551.612	80.002	19.995	103.698	19.991	3.023	0.550
949.000	551.879	80.002	19.996	103.698	19.989	3.169	0.576
949.500	552.150	80.002	19.994	103.698	19.989	3.177	0.556
950.000	552.394	80.002	19.995	103.697	19.989	3.171	0.526
950.500	552.671	80.001	19.995	103.695	19.988	3.205	0.518
951.000	552.964	80.002	19.995	103.694	19.990	3.102	0.546
951.500	553.258	80.002	19.995	103.694	19.988	3.213	0.579
952.000	553.532	80.002	19.995	103.694	19.988	3.183	0.577
952.500	553.786	80.002	19.995	103.697	19.989	3.140	0.548
953.000	554.092	80.002	19.996	103.698	19.992	2.956	0.544
953.500	554.323	80.001	19.995	103.697	19.989	3.122	0.549
954.000	554.606	80.002	19.997	103.697	19.988	3.203	0.526
954.500	554.914	80.001	19.995	103.697	19.990	3.065	0.553
955.000	555.134	80.001	19.996	103.693	19.989	3.138	0.559
955.500	555.419	80.001	19.995	103.693	19.992	2.901	0.517
956.000	555.698	80.000	19.995	103.694	19.992	2.903	0.535
956.500	555.960	80.001	19.996	103.694	19.990	3.061	0.552
957.000	556.231	80.002	19.996	103.695	19.991	3.000	0.537
957.500	556.513	80.002	19.996	103.696	19.991	3.019	0.543
958.000	556.770	80.002	19.996	103.696	19.988	3.243	0.546
958.500	557.030	80.000	19.996	103.694	19.989	3.114	0.528
959.000	557.328	80.000	19.995	103.693	19.991	3.000	0.537
959.500	557.600	80.001	19.995	103.692	19.987	3.284	0.563
960.000	557.872	80.001	19.995	103.691	19.990	3.057	0.557
960.500	558.124	80.002	19.995	103.691	19.991	3.011	0.534
961.000	558.401	80.001	19.996	103.692	19.985	3.407	0.527
961.500	558.669	80.001	19.995	103.693	19.987	3.274	0.537
962.000	558.967	80.001	19.996	103.693	19.988	3.241	0.555
962.500	559.228	80.000	19.995	103.692	19.988	3.235	0.562
963.000	559.485	80.001	19.996	103.687	19.987	3.300	0.539
963.500	559.757	80.002	19.994	103.685	19.985	3.430	0.524
964.000	560.034	80.002	19.995	103.684	19.989	3.112	0.539
964.500	560.317	80.002	19.994	103.684	19.989	3.166	0.554
965.000	560.598	80.001	19.995	103.685	19.987	3.259	0.562
965.500	560.869	80.000	19.994	103.690	19.990	3.065	0.558
966.000	561.114	80.001	19.994	103.692	19.991	3.025	0.534
966.500	561.426	80.002	19.995	103.693	19.992	2.903	0.536
967.000	561.682	80.002	19.994	103.693	19.988	3.223	0.562
967.500	561.979	80.002	19.995	103.693	19.988	3.191	0.561
968.000	562.272	80.003	19.994	103.692	19.991	3.019	0.572
968.500	562.525	80.001	19.994	103.692	19.989	3.158	0.568
969.000	562.824	80.002	19.995	103.691	19.992	2.942	0.549
969.500	563.075	80.002	19.995	103.690	19.990	3.104	0.551
970.000	563.322	80.003	19.995	103.690	19.991	2.972	0.524
970.500	563.631	80.002	19.994	103.690	19.988	3.235	0.526
971.000	563.884	80.001	19.995	103.691	19.992	2.946	0.559
971.500	564.109	80.002	19.995	103.690	19.990	3.079	0.520
972.000	564.427	80.002	19.996	103.696	19.986	3.391	0.511
972.500	564.684	80.001	19.995	103.698	19.991	3.019	0.559
973.000	564.920	80.001	19.996	103.698	19.988	3.209	0.534
973.500	565.206	80.002	19.995	103.698	19.986	3.385	0.507
974.000	565.482	80.002	19.995	103.698	19.989	3.175	0.542
974.500	565.761	80.002	19.995	103.695	19.986	3.357	0.559
975.000	566.031	80.003	19.995	103.693	19.990	3.106	0.552
975.500	566.294	80.001	19.995	103.695	19.985	3.444	0.541
976.000	566.546	80.003	19.997	103.696	19.992	2.911	0.524
976.500	566.859	80.002	19.994	103.696	19.988	3.215	0.540
977.000	567.100	80.003	19.995	103.695	19.988	3.221	0.560
977.500	567.364	80.001	19.994	103.695	19.990	3.075	0.529
978.000	567.642	80.002	19.999	103.694	19.990	3.100	0.523
978.500	567.905	80.002	19.997	103.697	19.987	3.264	0.541
979.000	568.207	80.001	19.998	103.698	19.989	3.176	0.553
979.500	568.474	80.001	19.995	103.698	19.990	3.041	0.567
980.000	568.759	80.002	19.996	103.700	19.987	3.272	0.560
980.500	569.042	80.001	19.995	103.699	19.987	3.286	0.560
981.000	569.282	80.001	19.994	103.696	19.989	3.166	0.546
981.500	569.595	80.001	19.996	103.694	19.986	3.373	0.538
982.000	569.834	80.001	19.996	103.693	19.985	3.424	0.552
982.500	570.094	80.000	19.995	103.691	19.987	3.318	0.526
983.000	570.391	80.000	19.996	103.691	19.987	3.282	0.529
983.500	570.676	80.001	19.995	103.691	19.986	3.369	0.569
984.000	570.926	80.001	19.994	103.691	19.987	3.255	0.558
984.501	571.186	80.001	19.994	103.691	19.988	3.191	0.522
985.001	571.465	80.001	19.996	103.692	19.988	3.219	0.525
985.500	571.755	80.001	19.996	103.692	19.987	3.263	0.554
986.000	571.990	80.002	19.996	103.692	19.989	3.156	0.547
986.500	572.278	80.000	19.995	103.693	19.989	3.158	0.524
987.000	572.510	80.000	19.996	103.693	19.989	3.166	0.521
987.500	572.803	80.001	19.996	103.690	19.985	3.458	0.522
988.000	573.103	80.000	19.995	103.690	19.984	3.472	0.559
988.500	573.338	80.000	19.996	103.690	19.986	3.371	0.564
989.000	573.614	80.001	19.997	103.690	19.983	3.606	0.523
989.500	573.886	80.001	19.995	103.692	19.984	3.499	0.529
990.000	574.204	80.002	19.996	103.695	19.986	3.389	0.569
990.500	574.459	80.002	19.995	103.696	19.986	3.328	0.581
991.000	574.723	80.002	19.995	103.696	19.988	3.219	0.546
991.500	575.054	80.002	19.995	103.696	19.986	3.339	0.557
992.000	575.268	80.002	19.995	103.694	19.983	3.594	0.570
992.500	575.545	80.001	19.994	103.694	19.986	3.379	0.518
993.000	575.861	80.003	19.994	103.695	19.987	3.288	0.542
993.500	576.128	80.002	19.995	103.695	19.982	3.626	0.588
994.000	576.369	80.001	19.995	103.695	19.984	3.495	0.545
994.500	576.649	80.002	19.995	103.695	19.985	3.400	0.514
995.000	576.899	80.003	19.995	103.695	19.985	3.412	0.525
995.500	577.176	80.002	19.994	103.696	19.987	3.252	0.529
996.000	577.434	80.003	19.994	103.697	19.984	3.523	0.531
996.500	577.703	80.003	19.996	103.697	19.986	3.361	0.531
997.000	577.963	80.002	19.994	103.696	19.987	3.320	0.528
997.500	578.254	80.003	19.994	103.696	19.986	3.361	0.541
998.000	578.529	80.003	19.994	103.696	19.986	3.345	0.559
998.500	578.783	80.003	19.994	103.696	19.987	3.300	0.547
999.000	579.050	80.002	19.993	103.695	19.986	3.334	0.525
999.500	579.317	80.002	19.993	103.695	19.986	3.377	0.528
1000.000	579.571	80.004	19.994	103.694	19.987	3.312	0.528
1000.500	579.843	80.003	19.993	103.693	19.983	3.565	0.523
1001.000	580.120	80.003	19.994	103.692	19.986	3.389	0.537
1001.500	580.370	80.003	19.994	103.692	19.985	3.417	0.539
1002.000	580.623	80.004	19.995	103.692	19.982	3.618	0.515
1002.501	580.897	80.003	19.994	103.694	19.987	3.316	0.515
1003.001	581.147	80.002	19.994	103.695	19.983	3.547	0.525
1003.500	581.438	80.002	19.995	103.695	19.989	3.124	0.533
1004.000	581.663	80.003	19.993	103.694	19.986	3.334	0.529
1004.500	581.951	80.003	19.993	103.694	19.985	3.450	0.514
1005.000	582.229	80.003	19.993	103.690	19.987	3.304	0.539
1005.500	582.471	80.003	19.994	103.686	19.983	3.561	0.543
1006.000	582.711	80.003	19.994	103.686	19.986	3.383	0.501
1006.500	583.007	80.003	19.994	103.686	19.987	3.304	0.509
1007.000	583.293	80.003	19.993	103.683	19.986	3.387	0.559
1007.500	583.537	80.002	19.994	103.684	19.988	3.201	0.557
1008.000	583.769	80.002	19.995	103.688	19.986	3.385	0.503
1008.500	584.051	80.002	19.993	103.688	19.989	3.146	0.495
1009.000	584.333	80.002	19.994	103.688	19.987	3.284	0.539
1009.500	584.589	80.002	19.995	103.691	19.987	3.302	0.551
1010.000	584.869	80.002	19.995	103.693	19.987	3.290	0.537
1010.500	585.100	80.002	19.994	103.693	19.986	3.322	0.524
1011.000	585.369	80.002	19.993	103.694	19.989	3.144	0.506
1011.500	585.615	80.002	19.995	103.693	19.991	3.011	0.507
1012.000	585.921	80.001	19.994	103.694	19.987	3.304	0.533
1012.500	586.178	80.002	19.994	103.694	19.986	3.363	0.558
1013.000	586.421	80.002	19.994	103.694	19.986	3.343	0.532
1013.500	586.673	80.002	19.995	103.694	19.989	3.130	0.497
1014.000	586.928	80.002	19.995	103.695	19.987	3.312	0.500
1014.500	587.215	80.003	19.995	103.695	19.986	3.367	0.524
1015.000	587.445	80.001	19.996	103.694	19.986	3.363	0.530
1015.500	587.703	80.003	19.996	103.694	19.991	3.021	0.502
1016.000	587.937	80.002	19.994	103.694	19.989	3.130	0.490
1016.500	588.206	80.003	19.996	103.694	19.986	3.373	0.498
1017.000	588.466	80.002	19.995	103.693	19.988	3.215	0.516
1017.500	588.750	80.003	19.996	103.693	19.986	3.347	0.536
1018.000	589.041	80.003	19.996	103.692	19.987	3.294	0.559
1018.500	589.287	80.002	19.995	103.691	19.987	3.310	0.556
1019.000	589.558	80.002	19.996	103.691	19.988	3.246	0.527
1019.500	589.771	80.002	19.997	103.691	19.985	3.414	0.500
1020.000	590.080	80.003	19.995	103.690	19.989	3.146	0.503
1020.500	590.316	80.003	19.996	103.690	19.987	3.266	0.534
1021.000	590.595	80.002	19.995	103.690	19.988	3.211	0.530
1021.500	590.844	80.002	19.996	103.690	19.987	3.316	0.522
1022.000	591.124	80.003	19.995	103.691	19.988	3.205	0.529
1022.500	591.389	80.003	19.995	103.690	19.989	3.148	0.537
1023.000	591.629	80.003	19.994	103.691	19.987	3.318	0.525
1023.500	591.854	80.004	19.995	103.691	19.986	3.361	0.485
1024.000	592.124	80.004	19.995	103.691	19.986	3.345	0.480
1024.500	592.406	80.004	19.995	103.690	19.988	3.243	0.524
1025.000	592.654	80.004	19.995	103.690	19.986	3.337	0.541
1025.500	592.887	80.003	19.995	103.689	19.988	3.235	0.506
1026.000	593.145	80.005	19.995	103.689	19.988	3.243	0.486
1026.500	593.427	80.004	19.995	103.689	19.987	3.290	0.515
1027.000	593.685	80.003	19.994	103.689	19.990	3.104	0.540
1027.500	593.979	80.005	19.994	103.689	19.985	3.456	0.546
1028.000	594.200	80.003	19.994	103.690	19.987	3.252	0.533
1028.500	594.498	80.003	19.994	103.690	19.989	3.118	0.517
1029.000	594.740	80.003	19.994	103.690	19.987	3.296	0.530
1029.500	595.008	80.003	19.995	103.689	19.989	3.120	0.526
1030.000	595.286	80.003	19.994	103.689	19.988	3.227	0.528
1030.500	595.509	80.002	19.994	103.689	19.990	3.102	0.523
1031.000	595.796	80.002	19.995	103.688	19.987	3.306	0.506
1031.501	596.033	80.002	19.995	103.689	19.990	3.070	0.517
1032.001	596.289	80.002	19.995	103.690	19.986	3.353	0.508
1032.500	596.563	80.001	19.994	103.691	19.985	3.406	0.511
1033.001	596.823	80.002	19.995	103.691	19.988	3.205	0.532
1033.501	597.072	80.002	19.993	103.692	19.987	3.276	0.522
1034.000	597.328	80.001	19.995	103.691	19.987	3.276	0.507
1034.500	597.587	80.000	19.994	103.691	19.987	3.296	0.510
1035.000	597.849	79.999	19.995	103.691	19.986	3.351	0.518
1035.500	598.108	80.000	19.995	103.690	19.987	3.250	0.521
1036.000	598.351	80.001	19.994	103.690	19.985	3.438	0.511
1036.500	598.615	80.001	19.994	103.690	19.988	3.233	0.504
1037.000	598.851	80.000	19.995	103.689	19.987	3.316	0.504
1037.501	599.116	79.999	19.995	103.689	19.990	3.055	0.500
1038.001	599.368	80.002	19.997	103.690	19.985	3.432	0.509
1038.501	599.662	80.000	19.999	103.690	19.984	3.525	0.532
1039.001	599.907	80.001	19.996	103.690	19.985	3.408	0.543
1039.500	600.175	79.999	19.997	103.690	19.986	3.371	0.526
1040.000	600.439	80.000	19.996	103.689	19.988	3.248	0.522
1040.500	600.663	80.002	19.996	103.689	19.987	3.262	0.510
1041.000	600.924	80.001	19.997	103.687	19.989	3.160	0.487
1041.500	601.173	80.000	19.996	103.688	19.988	3.221	0.497
1042.000	601.407	80.001	19.996	103.686	19.988	3.189	0.497
1042.500	601.657	80.001	19.995	103.685	19.986	3.337	0.484
1043.001	601.925	80.000	19.996	103.685	19.988	3.185	0.501
1043.501	602.179	80.001	19.995	103.687	19.989	3.165	0.520
1044.000	602.433	80.002	19.996	103.687	19.986	3.363	0.515
1044.500	602.666	80.001	19.996	103.688	19.989	3.132	0.498
1045.000	602.931	80.000	19.996	103.689	19.989	3.138	0.493
1045.500	603.154	80.002	19.996	103.689	19.986	3.341	0.493
1046.000	603.420	80.001	19.996	103.689	19.990	3.075	0.488
1046.500	603.651	80.001	19.995	103.689	19.989	3.130	0.493
1047.000	603.920	80.002	19.996	103.690	19.988	3.205	0.498
1047.500	604.135	80.002	19.997	103.690	19.989	3.166	0.492
1048.000	604.430	80.002	19.994	103.691	19.988	3.199	0.497
1048.500	604.683	80.003	19.997	103.691	19.988	3.229	0.529
1049.000	604.942	80.001	19.995	103.689	19.986	3.357	0.530
1049.500	605.159	80.002	19.996	103.688	19.988	3.249	0.493
1050.000	605.417	80.001	19.995	103.688	19.987	3.318	0.475
1050.500	605.664	80.002	19.996	103.687	19.987	3.266	0.490
1051.000	605.944	80.001	19.995	103.687	19.988	3.189	0.516
1051.500	606.157	80.001	19.996	103.691	19.986	3.389	0.510
1052.000	606.412	80.004	19.996	103.691	19.986	3.336	0.481
1052.500	606.644	80.003	19.995	103.691	19.985	3.452	0.478
1053.000	606.895	80.002	19.995	103.691	19.986	3.347	0.485
1053.500	607.163	80.002	19.994	103.687	19.988	3.217	0.501
1054.000	607.406	80.001	19.994	103.685	19.987	3.256	0.515
1054.500	607.657	80.003	19.994	103.685	19.987	3.256	0.502
1055.000	607.895	80.001	19.995	103.685	19.987	3.294	0.492
1055.500	608.187	80.001	19.994	103.686	19.987	3.316	0.510
1056.000	608.426	80.001	19.996	103.689	19.991	3.031	0.531
1056.500	608.674	80.002	19.994	103.691	19.990	3.053	0.509
1057.001	608.934	80.001	19.994	103.691	19.989	3.152	0.498
1057.501	609.212	80.002	19.994	103.691	19.989	3.172	0.523
1058.000	609.451	80.001	19.993	103.692	19.988	3.187	0.527
1058.500	609.681	80.002	19.994	103.692	19.988	3.217	0.493
1059.000	609.943	80.003	19.994	103.693	19.986	3.336	0.481
1059.500	610.217	80.002	19.994	103.694	19.983	3.539	0.514
1060.000	610.465	80.002	19.995	103.696	19.986	3.381	0.528
1060.500	610.694	80.002	19.995	103.695	19.986	3.339	0.499
1061.000	610.937	80.001	19.995	103.695	19.987	3.288	0.475
1061.500	611.231	80.002	19.994	103.696	19.984	3.509	0.505
1062.000	611.479	80.001	19.994	103.695	19.986	3.332	0.540
1062.500	611.701	80.000	19.994	103.693	19.985	3.403	0.505
1063.000	611.951	80.001	19.995	103.693	19.986	3.326	0.471
1063.501	612.223	80.001	19.995	103.693	19.986	3.330	0.497
1064.001	612.486	80.001	19.995	103.692	19.987	3.262	0.529
1064.501	612.728	80.002	19.996	103.692	19.987	3.294	0.520
1065.000	612.980	80.000	19.994	103.693	19.985	3.450	0.499
1065.500	613.258	80.000	19.995	103.693	19.987	3.316	0.512
1066.001	613.519	80.001	19.994	103.694	19.986	3.332	0.534
1066.501	613.778	80.000	19.994	103.695	19.986	3.359	0.530
1067.000	614.040	80.001	19.994	103.695	19.988	3.205	0.521
1067.500	614.292	80.001	19.995	103.694	19.987	3.251	0.517
1068.000	614.531	80.001	19.994	103.694	19.990	3.069	0.502
1068.500	614.814	80.001	19.995	103.695	19.989	3.175	0.507
1069.000	615.080	79.999	19.994	103.695	19.989	3.130	0.536
1069.500	615.370	80.001	19.995	103.696	19.989	3.140	0.553
1070.000	615.607	80.000	19.994	103.695	19.991	3.023	0.542
1070.500	615.879	80.000	19.995	103.690	19.991	2.988	0.518
1071.000	616.093	80.001	19.994	103.687	19.988	3.233	0.497
1071.500	616.386	80.001	19.994	103.686	19.987	3.298	0.496
1072.000	616.615	80.001	19.994	103.686	19.989	3.167	0.515
1072.500	616.880	80.001	19.994	103.686	19.988	3.197	0.508
1073.000	617.135	80.001	19.994	103.692	19.990	3.098	0.507
1073.500	617.341	80.001	19.993	103.695	19.989	3.120	0.490
1074.000	617.643	80.001	19.995	103.696	19.987	3.304	0.485
1074.500	617.858	80.000	19.995	103.696	19.988	3.215	0.513
1075.000	618.132	80.000	19.994	103.696	19.991	2.972	0.503
1075.500	618.407	80.001	19.994	103.696	19.990	3.075	0.519
1076.000	618.668	80.001	19.994	103.696	19.991	3.017	0.543
1076.500	618.904	80.001	19.994	103.696	19.991	2.986	0.517
1077.001	619.196	80.003	19.995	103.696	19.993	2.851	0.512
1077.501	619.450	80.003	19.994	103.695	19.991	2.995	0.537
1078.000	619.715	80.002	19.995	103.694	19.990	3.053	0.532
1078.500	619.974	80.002	19.996	103.694	19.991	2.968	0.522
1079.000	620.220	80.003	19.995	103.693	19.991	2.974	0.515
1079.500	620.489	80.002	19.995	103.693	19.991	3.021	0.510
1080.000	620.708	80.002	19.994	103.693	19.993	2.828	0.502
1080.501	620.977	80.002	19.994	103.693	19.991	2.999	0.488
1081.001	621.254	80.002	19.994	103.693	19.993	2.853	0.517
1081.500	621.500	80.003	19.995	103.693	19.991	2.972	0.534
1082.000	621.760	80.003	19.995	103.692	19.990	3.073	0.514
1082.500	622.037	80.005	19.996	103.691	19.992	2.934	0.522
1083.000	622.305	80.003	19.994	103.690	19.991	2.995	0.541
1083.500	622.569	80.003	19.995	103.689	19.991	2.991	0.538
1084.000	622.843	80.003	19.994	103.689	19.991	3.005	0.535
1084.500	623.085	80.003	19.994	103.690	19.989	3.110	0.527
1085.000	623.326	80.004	19.995	103.691	19.989	3.153	0.500
1085.500	623.575	80.003	19.994	103.693	19.990	3.080	0.487
1086.000	623.853	80.002	19.994	103.692	19.988	3.179	0.508
1086.500	624.144	80.001	19.993	103.692	19.990	3.106	0.548
1087.000	624.370	80.002	19.995	103.692	19.990	3.072	0.544
1087.500	624.660	80.000	19.994	103.690	19.989	3.112	0.516
1088.000	624.909	80.003	19.994	103.689	19.987	3.260	0.527
1088.500	625.156	80.002	19.994	103.688	19.990	3.096	0.518
1089.000	625.424	80.003	19.995	103.688	19.992	2.952	0.506
1089.500	625.652	80.002	19.995	103.688	19.991	3.019	0.505
1090.000	625.939	80.002	19.993	103.689	19.991	3.007	0.506
1090.500	626.223	80.003	19.994	103.690	19.993	2.851	0.543
1091.000	626.473	80.003	19.994	103.690	19.990	3.073	0.552
1091.500	626.726	80.003	19.994	103.690	19.990	3.106	0.518
1092.000	626.991	80.003	19.994	103.691	19.993	2.861	0.510
1092.500	627.258	80.001	19.994	103.691	19.990	3.080	0.525
1093.000	627.502	80.003	19.994	103.689	19.993	2.892	0.521
1093.500	627.757	80.002	19.993	103.687	19.990	3.066	0.505
1094.000	628.051	80.003	19.995	103.685	19.990	3.038	0.524
1094.500	628.272	80.002	19.994	103.685	19.988	3.242	0.532
1095.000	628.542	80.003	19.994	103.686	19.992	2.936	0.503
1095.500	628.840	80.003	19.994	103.687	19.988	3.229	0.530
1096.000	629.069	80.003	19.993	103.685	19.992	2.911	0.548
1096.500	629.312	80.003	19.992	103.683	19.989	3.120	0.499
1097.000	629.567	80.003	19.994	103.681	19.989	3.175	0.485
1097.500	629.837	80.001	19.995	103.681	19.992	2.922	0.512
1098.000	630.068	80.003	19.995	103.681	19.990	3.090	0.513
1098.500	630.331	80.002	19.997	103.686	19.990	3.102	0.497
1099.000	630.614	80.002	19.996	103.690	19.990	3.064	0.520
1099.500	630.861	80.004	19.995	103.692	19.991	3.023	0.538
1100.000	631.111	80.003	19.995	103.691	19.991	2.972	0.514
1100.500	631.392	80.002	19.996	103.692	19.990	3.069	0.514
1101.000	631.621	80.003	19.995	103.690	19.990	3.094	0.520
1101.501	631.889	80.002	19.995	103.690	19.991	3.023	0.504
1102.001	632.164	80.004	19.995	103.690	19.994	2.792	0.520
1102.500	632.408	80.004	19.994	103.689	19.991	2.992	0.531
1103.000	632.657	80.003	19.995	103.685	19.990	3.096	0.506
1103.501	632.911	80.002	19.996	103.671	19.991	3.035	0.498
1104.001	633.224	80.004	19.994	103.667	19.992	2.912	0.535
1104.500	633.432	80.005	19.994	103.667	19.985	3.408	0.544
1105.000	633.700	80.004	19.995	103.667	19.988	3.227	0.499
1105.500	633.982	80.002	19.994	103.670	19.989	3.118	0.513
1106.000	634.199	80.003	19.996	103.684	19.990	3.052	0.524
1106.500	634.487	80.003	19.994	103.692	19.989	3.141	0.502
1107.000	634.742	80.004	19.994	103.693	19.988	3.179	0.524
1107.500	635.023	80.003	19.995	103.692	19.989	3.122	0.539
1108.000	635.298	80.003	19.995	103.687	19.986	3.359	0.546
1108.500	635.561	80.001	19.995	103.687	19.989	3.112	0.547
1109.000	635.798	80.002	19.995	103.682	19.988	3.189	0.519
1109.500	636.048	80.003	19.994	103.681	19.985	3.427	0.494
1110.000	636.370	80.002	19.995	103.683	19.993	2.885	0.530
1110.500	636.601	80.002	19.995	103.690	19.986	3.340	0.563
1111.000	636.834	80.002	19.995	103.687	19.990	3.067	0.509
1111.500	637.100	80.001	19.995	103.687	19.986	3.342	0.481
1112.000	637.367	80.001	19.996	103.687	19.988	3.201	0.516
1112.500	637.625	80.001	19.995	103.687	19.989	3.146	0.529
1113.000	637.891	80.000	19.996	103.688	19.989	3.124	0.524
1113.500	638.144	80.001	19.995	103.690	19.987	3.318	0.521
1114.000	638.412	80.000	19.994	103.691	19.985	3.454	0.520
1114.500	638.680	80.000	19.995	103.689	19.987	3.284	0.528
1115.000	638.931	80.001	19.995	103.685	19.988	3.229	0.527
1115.500	639.181	80.001	19.995	103.685	19.987	3.316	0.510
1116.000	639.475	80.001	19.995	103.684	19.988	3.189	0.523
1116.500	639.708	80.001	19.995	103.683	19.991	2.988	0.535
1117.000	639.979	80.000	19.995	103.675	19.990	3.085	0.515
1117.500	640.230	80.000	19.996	103.672	19.987	3.310	0.513
1118.000	640.455	80.000	19.995	103.673	19.992	2.940	0.499
1118.500	640.711	80.000	19.995	103.675	19.990	3.053	0.479
1119.000	640.967	79.999	19.996	103.677	19.988	3.203	0.497
1119.500	641.239	80.000	19.995	103.690	19.988	3.201	0.520
1120.000	641.517	80.000	19.994	103.697	19.989	3.173	0.539
1120.501	641.787	80.000	19.995	103.699	19.988	3.183	0.549
1121.001	642.037	80.002	19.995	103.710	19.989	3.144	0.535
1121.501	642.292	80.000	19.994	103.710	19.986	3.393	0.513
1122.000	642.535	80.000	19.995	103.707	19.987	3.280	0.501
1122.501	642.802	79.999	19.996	103.706	19.990	3.073	0.504
1123.001	643.056	79.999	19.995	103.705	19.989	3.120	0.515
1123.500	643.300	80.001	19.994	103.693	19.993	2.885	0.509
1124.001	643.533	80.001	19.995	103.688	19.988	3.199	0.488
1124.501	643.820	80.001	19.996	103.687	19.990	3.045	0.498
1125.000	644.064	80.000	19.995	103.684	19.992	2.952	0.525
1125.500	644.330	80.001	19.995	103.683	19.994	2.805	0.520
1126.000	644.531	80.001	19.995	103.684	19.989	3.145	0.488
1126.500	644.805	80.000	19.995	103.687	19.990	3.038	0.471
1127.000	645.037	80.000	19.995	103.689	19.991	3.019	0.491
1127.500	645.317	80.001	19.994	103.691	19.989	3.135	0.509
1128.000	645.567	80.000	19.995	103.692	19.990	3.052	0.521
1128.500	645.813	80.000	19.995	103.692	19.991	3.009	0.513
1129.000	646.116	80.000	19.994	103.693	19.992	2.964	0.522
1129.500	646.371	80.000	19.995	103.693	19.989	3.148	0.553
1130.000	646.623	80.000	19.995	103.692	19.988	3.231	0.533
1130.501	646.870	80.000	19.995	103.691	19.989	3.162	0.503
1131.001	647.126	80.000	19.994	103.688	19.986	3.330	0.501
1131.501	647.429	80.001	19.995	103.687	19.992	2.960	0.531
1132.000	647.680	80.001	19.996	103.687	19.990	3.065	0.556
1132.500	647.905	80.000	19.996	103.688	19.992	2.958	0.515
1133.000	648.146	79.999	19.995	103.688	19.992	2.898	0.471
1133.500	648.390	80.001	19.994	103.691	19.993	2.863	0.475
1134.000	648.657	80.000	19.996	103.691	19.993	2.825	0.498
1134.500	648.885	80.000	19.995	103.688	19.992	2.910	0.503
1135.001	649.209	80.000	19.995	103.687	19.989	3.147	0.524
1135.501	649.430	80.000	19.996	103.685	19.990	3.098	0.549
1136.000	649.660	80.001	19.995	103.684	19.991	2.976	0.498
1136.500	649.941	80.000	19.995	103.677	19.991	3.031	0.481
1137.000	650.207	80.001	19.995	103.667	19.990	3.054	0.529
1137.500	650.459	80.001	19.995	103.666	19.993	2.874	0.533
1138.000	650.740	80.000	19.995	103.669	19.992	2.906	0.525
1138.500	650.999	80.001	19.997	103.671	19.990	3.058	0.537
1139.000	651.236	80.001	19.994	103.677	19.988	3.185	0.518
1139.500	651.517	80.001	19.995	103.689	19.990	3.094	0.507
1140.000	651.780	80.001	19.995	103.696	19.991	2.980	0.531
1140.500	651.982	80.001	19.994	103.698	19.993	2.855	0.505
1141.000	652.272	80.000	19.995	103.697	19.994	2.754	0.479
1141.500	652.529	80.000	19.995	103.696	19.993	2.831	0.519
1142.001	652.753	80.002	19.996	103.697	19.993	2.831	0.513
1142.501	653.033	80.000	19.994	103.691	19.991	3.015	0.493
1143.001	653.279	80.002	19.995	103.684	19.993	2.833	0.515
1143.501	653.565	79.999	19.994	103.683	19.993	2.825	0.529
1144.000	653.795	80.000	19.995	103.678	19.994	2.821	0.524
1144.500	654.078	80.002	19.995	103.674	19.993	2.853	0.515
1145.000	654.324	80.002	19.995	103.672	19.993	2.843	0.521
1145.500	654.590	80.001	19.994	103.677	19.995	2.730	0.520
1146.000	654.860	80.000	19.995	103.678	19.992	2.946	0.524
1146.501	655.118	80.001	19.994	103.684	19.991	2.965	0.532
1147.001	655.375	80.001	19.995	103.683	19.991	3.013	0.521
1147.500	655.641	80.000	19.993	103.678	19.993	2.861	0.519
1148.001	655.902	80.001	19.994	103.670	19.989	3.133	0.525
1148.501	656.127	80.001	19.994	103.661	19.989	3.137	0.507
1149.000	656.378	80.002	19.994	103.657	19.989	3.114	0.481
1149.500	656.634	80.001	19.994	103.661	19.993	2.831	0.491
1150.000	656.907	80.002	19.994	103.668	19.991	2.975	0.518
1150.500	657.127	80.001	19.995	103.684	19.992	2.952	0.511
1151.000	657.373	80.003	19.995	103.689	19.991	3.023	0.480
1151.500	657.637	80.002	19.995	103.687	19.992	2.944	0.488
1152.000	657.872	80.002	19.995	103.681	19.994	2.790	0.504
1152.500	658.175	80.002	19.994	103.677	19.994	2.784	0.518
1153.000	658.400	80.002	19.994	103.666	19.992	2.930	0.533
1153.500	658.662	80.001	19.994	103.668	19.994	2.778	0.507
1154.000	658.910	80.000	19.994	103.673	19.994	2.817	0.498
1154.501	659.192	80.002	19.994	103.676	19.992	2.939	0.520
1155.001	659.420	80.002	19.994	103.677	19.989	3.127	0.520
1155.500	659.719	80.002	19.995	103.676	19.990	3.087	0.518
1156.000	659.984	80.003	19.994	103.674	19.990	3.077	0.545
1156.500	660.193	80.001	19.994	103.671	19.989	3.137	0.519
1157.000	660.455	80.003	19.994	103.670	19.991	2.987	0.473
1157.500	660.697	80.002	19.992	103.671	19.991	3.032	0.488
1158.000	660.952	80.004	19.997	103.675	19.990	3.058	0.500
1158.501	661.203	80.004	19.995	103.675	19.991	2.975	0.501
1159.001	661.481	80.004	19.994	103.672	19.987	3.305	0.518
1159.500	661.689	80.004	19.995	103.676	20.003	2.135	0.508
1160.000	661.935	80.003	19.995	103.679	19.985	3.441	0.470
1160.500	662.197	80.003	19.996	103.678	19.989	3.166	0.481
1161.000	662.441	80.003	19.995	103.677	19.989	3.135	0.507
1161.500	662.658	80.002	19.995	103.680	19.986	3.378	0.483
1162.000	662.925	80.003	19.995	103.677	19.986	3.384	0.473
1162.500	663.165	80.003	19.994	103.681	19.985	3.441	0.496
1163.000	663.433	80.002	19.995	103.683	19.988	3.232	0.507
1163.500	663.675	80.004	19.994	103.683	19.987	3.287	0.509
1164.000	663.960	80.001	19.994	103.682	19.988	3.232	0.519
1164.500	664.200	80.001	19.995	103.677	19.986	3.327	0.526
1165.001	664.461	80.002	19.995	103.666	19.986	3.329	0.513
1165.501	664.728	80.003	19.994	103.658	19.987	3.295	0.514
1166.000	664.955	80.002	19.995	103.656	19.982	3.617	0.511
1166.500	665.190	80.003	19.994	103.654	19.989	3.151	0.478
1167.000	665.504	80.004	19.994	103.654	19.986	3.378	0.505
1167.500	665.712	80.003	19.995	103.654	19.989	3.163	0.536
1168.000	665.991	80.003	19.994	103.656	19.989	3.117	0.505
1168.500	666.214	80.003	19.994	103.655	19.988	3.194	0.495
1169.000	666.438	80.002	19.994	103.655	19.986	3.336	0.474
1169.500	666.685	80.003	19.994	103.655	19.986	3.340	0.459
1170.000	666.946	80.003	19.994	103.654	19.987	3.262	0.490
1170.500	667.174	80.002	19.995	103.651	19.987	3.258	0.499
1171.000	667.422	80.002	19.996	103.651	19.984	3.511	0.483
1171.500	667.655	80.002	19.995	103.651	19.988	3.211	0.478
1172.000	667.935	80.003	19.994	103.652	19.987	3.313	0.496
1172.500	668.175	80.003	19.995	103.652	19.986	3.355	0.516
1173.000	668.455	80.003	19.994	103.654	19.987	3.282	0.521
1173.501	668.622	80.002	19.995	103.658	19.988	3.238	0.483
1174.001	668.856	80.003	19.995	103.658	19.990	3.086	0.424
1174.500	669.129	80.003	19.995	103.659	19.993	2.837	0.454
1175.000	669.360	80.002	19.993	103.660	19.996	2.641	0.506
1175.500	669.702	80.003	19.995	103.660	19.997	2.584	0.539
1176.000	669.935	80.001	19.996	103.662	19.987	3.282	0.574
1176.501	670.162	80.003	19.994	103.663	19.981	3.722	0.518
1177.001	670.446	80.004	19.994	103.667	20.001	2.292	0.486
1177.501	670.666	80.002	19.994	103.667	20.000	2.385	0.507
1178.001	670.923	80.004	19.994	103.665	20.005	2.013	0.491
1178.501	671.156	80.004	19.994	103.661	20.000	2.331	0.484
1179.001	671.401	80.003	19.994	103.659	19.993	2.847	0.484
1179.500	671.676	80.004	19.994	103.655	19.998	2.468	0.499
1180.000	671.906	80.005	19.993	103.658	19.997	2.539	0.512
1180.500	672.166	80.003	19.994	103.664	19.986	3.387	0.497
1181.000	672.415	80.004	19.995	103.669	19.985	3.420	0.500
1181.500	672.686	80.004	19.994	103.674	19.987	3.306	0.515
1182.000	672.933	80.003	19.993	103.679	19.987	3.290	0.519
1182.500	673.170	80.004	19.993	103.684	19.988	3.179	0.501
1183.000	673.407	80.004	19.994	103.684	19.984	3.469	0.479
1183.500	673.730	80.005	19.995	103.681	19.986	3.349	0.517
1184.000	673.940	80.004	19.993	103.677	19.988	3.244	0.547
1184.500	674.215	80.004	19.994	103.671	19.991	3.029	0.509
1185.000	674.474	80.004	19.994	103.665	19.987	3.268	0.509
1185.500	674.738	80.004	19.994	103.663	19.988	3.240	0.529
1186.000	674.972	80.002	19.993	103.665	19.989	3.114	0.510
1186.500	675.226	80.003	19.992	103.672	19.989	3.129	0.492
1187.000	675.478	80.004	19.994	103.676	19.989	3.133	0.497
1187.500	675.743	80.004	19.993	103.681	19.987	3.295	0.512
1188.000	676.047	80.003	19.993	103.682	19.991	2.973	0.543
1188.500	676.212	80.003	19.993	103.679	19.993	2.872	0.519
1189.001	676.463	80.002	19.993	103.678	19.988	3.191	0.442
1189.501	676.687	80.002	19.994	103.681	19.986	3.329	0.445
1190.001	676.968	80.001	19.993	103.677	19.986	3.331	0.490
1190.501	677.276	80.001	19.993	103.680	19.988	3.231	0.547
1191.000	677.432	80.003	19.993	103.685	19.988	3.189	0.527
1191.500	677.715	80.001	19.995	103.686	19.987	3.250	0.451
1192.000	677.962	80.002	19.995	103.683	19.988	3.207	0.484
1192.500	678.232	80.001	19.994	103.688	19.989	3.118	0.524
1193.000	678.455	80.001	19.995	103.686	19.984	3.507	0.505
1193.500	678.700	80.001	19.995	103.683	19.989	3.160	0.480
1194.000	678.939	80.001	19.995	103.681	19.987	3.320	0.476
1194.500	679.222	80.002	19.995	103.681	19.986	3.349	0.503
1195.000	679.501	80.002	19.995	103.681	19.988	3.204	0.542
1195.500	679.719	80.001	19.996	103.683	19.990	3.040	0.529
1196.000	680.009	80.002	19.995	103.685	19.986	3.348	0.503
1196.500	680.231	80.001	19.996	103.685	19.987	3.259	0.510
1197.000	680.506	80.001	19.995	103.681	19.986	3.372	0.504
1197.500	680.742	80.001	19.994	103.674	19.988	3.189	0.504
1198.000	680.992	80.003	19.995	103.668	19.985	3.414	0.499
1198.500	681.277	80.001	19.996	103.662	19.984	3.491	0.510
1199.000	681.506	80.001	19.995	103.661	19.986	3.355	0.524
1199.500	681.773	80.001	19.995	103.669	19.983	3.556	0.505
1200.000	682.039	80.000	19.994	103.676	19.987	3.272	0.515
1200.500	682.274	80.001	19.995	103.680	19.987	3.290	0.517
1201.000	682.536	80.001	19.995	103.687	19.986	3.367	0.499
1201.500	682.845	79.999	19.996	103.686	19.987	3.270	0.534
1202.000	683.231	80.001	19.996	103.679	19.990	3.104	0.633
1202.500	683.507	80.000	19.995	103.678	19.988	3.215	0.679
1203.000	683.582	80.000	19.994	103.681	19.988	3.191	0.506
1203.500	683.857	80.000	19.995	103.682	19.984	3.535	0.350
1204.001	684.077	80.001	19.994	103.686	19.989	3.155	0.422
1204.501	684.265	80.000	19.994	103.692	19.991	3.011	0.452
1205.000	684.589	80.001	19.995	103.688	19.991	2.983	0.460
1205.500	684.797	80.002	19.994	103.680	19.990	3.100	0.522
1206.000	685.054	80.001	19.996	103.673	19.989	3.110	0.499
1206.500	685.313	80.001	19.994	103.666	19.986	3.321	0.491
1207.000	685.576	80.001	19.995	103.660	19.987	3.298	0.519
1207.500	685.805	80.001	19.995	103.660	19.988	3.187	0.507
1208.000	686.069	80.002	19.995	103.662	19.985	3.414	0.492
1208.500	686.327	80.002	19.996	103.669	19.985	3.422	0.507
1209.000	686.591	80.001	19.994	103.670	19.987	3.272	0.522
1209.500	686.810	80.001	19.994	103.670	19.987	3.279	0.503
1210.000	687.075	80.001	19.994	103.670	19.986	3.390	0.483
1210.500	687.341	80.001	19.996	103.672	19.989	3.171	0.507
1211.000	687.569	80.000	19.996	103.673	19.990	3.082	0.512
1211.500	687.846	80.001	19.995	103.678	19.986	3.383	0.500
1212.000	688.080	80.001	19.993	103.683	19.979	3.831	0.508
1212.500	688.341	80.000	19.995	103.689	19.990	3.088	0.503
1213.000	688.616	80.001	19.995	103.689	19.986	3.377	0.516
1213.500	688.871	80.001	19.995	103.687	19.984	3.489	0.533
1214.000	689.157	80.001	19.994	103.681	19.985	3.448	0.535
1214.500	689.364	80.002	19.995	103.679	19.987	3.296	0.517
1215.000	689.623	80.002	19.994	103.675	19.986	3.363	0.480
1215.500	689.937	80.002	19.994	103.674	19.987	3.311	0.520
1216.001	690.133	80.001	19.995	103.672	19.990	3.060	0.542
1216.501	690.380	80.001	19.995	103.676	19.989	3.110	0.477
1217.000	690.653	80.001	19.995	103.680	19.991	2.971	0.481
1217.500	690.883	80.000	19.994	103.682	19.997	2.561	0.511
1218.000	691.182	80.001	19.997	103.685	19.998	2.486	0.516
1218.500	691.458	80.001	19.997	103.687	19.991	3.003	0.552
1219.000	691.710	80.001	19.997	103.681	19.990	3.042	0.551
1219.501	691.934	80.000	19.996	103.675	19.990	3.076	0.502
1220.001	692.192	80.000	19.994	103.672	19.990	3.105	0.479
1220.500	692.452	80.001	19.996	103.671	19.991	3.010	0.500
1221.000	692.682	79.999	19.997	103.674	19.992	2.947	0.504
1221.500	692.928	80.001	19.995	103.680	19.990	3.044	0.484
1222.001	693.182	80.000	19.996	103.686	19.990	3.062	0.488
1222.501	693.432	79.999	19.996	103.689	19.990	3.072	0.502
1223.000	693.731	80.001	19.997	103.687	19.989	3.171	0.526
1223.500	693.965	80.000	19.996	103.684	19.987	3.258	0.541
1224.000	694.142	80.001	19.996	103.683	19.989	3.122	0.472
1224.500	694.438	80.000	19.997	103.682	19.991	3.011	0.442
1225.000	694.829	80.000	19.997	103.683	19.988	3.210	0.580
1225.501	694.857	80.001	19.996	103.681	19.990	3.082	0.553
1226.001	694.479	80.001	19.996	103.677	19.989	3.139	0.035
1226.501	695.446	80.000	19.997	103.673	19.988	3.232	0.120
1227.001	695.695	80.000	19.996	103.671	19.985	3.396	0.902
1227.501	696.253	80.000	19.995	103.670	19.986	3.345	1.011
1228.000	696.211	80.000	19.995	103.671	19.989	3.145	0.661
1228.500	696.518	80.000	19.995	103.677	19.986	3.335	0.390
1229.000	697.368	80.000	19.997	103.681	19.988	3.205	0.711
1229.500	696.956	80.000	19.997	103.680	19.990	3.098	0.798
1230.000	697.275	80.001	19.997	103.673	19.986	3.368	0.173
1230.500	697.431	80.001	19.996	103.668	19.988	3.228	0.191
1231.001	697.802	80.002	19.996	103.663	19.986	3.382	0.501
1231.501	698.472	80.002	19.996	103.659	19.988	3.238	0.784
1232.001	698.418	80.002	19.996	103.656	19.988	3.246	0.829
1232.501	698.516	80.002	19.996	103.657	19.986	3.329	0.330
1233.000	698.794	80.003	19.994	103.663	19.984	3.530	0.210
1233.500	699.018	80.001	19.996	103.669	19.985	3.442	0.439
1234.000	699.271	80.002	19.995	103.674	19.984	3.469	0.490
1234.500	699.496	80.003	19.995	103.682	19.987	3.315	0.478
1235.001	699.736	80.002	19.995	103.686	19.987	3.307	0.472
1235.501	700.039	80.002	19.994	103.681	19.990	3.100	0.504
1236.000	700.252	80.003	19.994	103.674	19.988	3.202	0.529
1236.500	700.502	80.003	19.995	103.668	19.987	3.297	0.489
1237.001	700.741	80.005	19.993	103.663	19.988	3.198	0.476
1237.501	701.028	80.004	19.994	103.664	19.989	3.108	0.508
1238.000	701.278	80.003	19.994	103.666	19.988	3.240	0.532
1238.500	701.468	80.004	19.994	103.670	19.989	3.118	0.488
1239.000	701.746	80.002	19.994	103.675	19.986	3.378	0.454
1239.500	702.025	80.003	19.994	103.678	19.987	3.311	0.513
1240.000	702.189	80.004	19.994	103.677	19.981	3.714	0.500
1240.500	702.488	80.003	19.995	103.676	19.987	3.260	0.452
1241.000	702.722	80.003	19.994	103.674	19.986	3.390	0.498
1241.501	702.960	80.002	19.994	103.671	19.984	3.479	0.503
1242.001	703.214	80.003	19.994	103.666	19.987	3.256	0.482
1242.501	703.452	80.003	19.994	103.664	19.987	3.297	0.492
1243.000	703.736	80.004	19.996	103.667	19.985	3.418	0.508
1243.500	703.987	80.003	19.996	103.673	19.986	3.341	0.528
1244.000	704.207	80.002	19.994	103.674	19.985	3.432	0.503
1244.500	704.441	80.004	19.994	103.676	19.986	3.386	0.462
1245.001	704.697	80.002	19.994	103.677	19.987	3.285	0.472
1245.501	704.925	80.003	19.994	103.676	19.984	3.481	0.487
1246.000	705.156	80.002	19.994	103.670	19.984	3.511	0.472
1246.500	705.395	80.001	19.994	103.666	19.986	3.359	0.465
1247.001	705.601	80.002	19.994	103.664	19.988	3.217	0.457
1247.501	705.888	80.002	19.995	103.665	19.986	3.389	0.469
1248.000	706.135	80.002	19.994	103.669	19.987	3.313	0.513
1248.500	706.391	80.003	19.994	103.673	19.987	3.297	0.518
1249.000	706.655	80.002	19.994	103.676	19.987	3.301	0.511
1249.500	706.860	80.002	19.993	103.677	19.987	3.281	0.495
1250.000	707.150	80.003	19.994	103.673	19.988	3.196	0.482
1250.500	707.393	80.002	19.995	103.668	19.987	3.285	0.514
1251.000	707.600	80.002	19.995	103.666	19.989	3.159	0.492
1251.500	707.922	80.002	19.995	103.665	19.989	3.149	0.490
1252.000	708.140	80.003	19.994	103.671	19.989	3.155	0.535
1252.500	708.371	80.002	19.995	103.675	19.985	3.398	0.494
1253.000	708.619	80.001	19.995	103.675	19.990	3.106	0.464
1253.500	708.882	80.001	19.995	103.676	19.986	3.333	0.495
1254.000	709.122	80.002	19.995	103.679	19.987	3.264	0.507
1254.500	709.363	80.002	19.995	103.680	19.988	3.238	0.492
1255.000	709.602	80.003	19.993	103.678	19.989	3.163	0.481
1255.501	709.858	80.002	19.995	103.677	19.991	3.003	0.488
1256.001	710.105	80.003	19.994	103.674	19.989	3.165	0.499
1256.500	710.331	80.002	19.995	103.673	19.989	3.149	0.488
1257.001	710.572	80.002	19.994	103.673	19.989	3.123	0.470
1257.501	710.818	80.003	19.996	103.676	19.994	2.819	0.477
1258.000	711.050	80.003	19.994	103.679	19.992	2.910	0.483
1258.500	711.305	80.003	19.995	103.683	19.988	3.234	0.483
1259.001	711.562	80.003	19.995	103.680	19.989	3.131	0.499
1259.501	711.795	80.004	19.994	103.675	19.991	2.997	0.501
1260.000	712.029	80.003	19.994	103.670	19.989	3.112	0.478
1260.500	712.270	80.004	19.995	103.666	19.993	2.827	0.471
1261.000	712.561	80.004	19.995	103.665	19.988	3.207	0.504
1261.500	712.783	80.005	19.995	103.665	19.989	3.142	0.523
1262.000	713.036	80.005	19.994	103.667	19.990	3.076	0.494
1262.500	713.307	80.004	19.995	103.673	19.989	3.114	0.499
1263.000	713.544	80.005	19.993	103.677	19.991	3.025	0.516
1263.501	713.802	80.006	19.994	103.679	19.989	3.109	0.502
1264.001	714.038	80.004	19.993	103.678	19.988	3.240	0.494
1264.501	714.290	80.004	19.995	103.676	19.988	3.210	0.491
1265.001	714.522	80.004	19.994	103.675	19.989	3.135	0.486
1265.500	714.812	80.005	19.993	103.673	19.989	3.159	0.503
1266.000	715.053	80.004	19.995	103.668	19.990	3.040	0.526
1266.500	715.317	80.005	19.995	103.666	19.989	3.137	0.518
1267.000	715.547	80.005	19.994	103.667	19.991	3.028	0.499
1267.500	715.818	80.004	19.994	103.664	19.991	2.991	0.498
1268.000	716.075	80.004	19.994	103.667	19.988	3.236	0.515
1268.500	716.296	80.004	19.993	103.675	19.992	2.952	0.503
1269.000	716.569	80.006	19.994	103.672	19.989	3.167	0.486
1269.500	716.827	80.003	19.995	103.668	19.990	3.080	0.512
1270.000	717.061	80.004	19.993	103.670	19.989	3.128	0.511
1270.500	717.327	80.003	19.996	103.669	19.991	2.987	0.496
1271.001	717.577	80.001	19.996	103.669	19.991	3.011	0.508
1271.501	717.812	80.003	19.995	103.675	19.987	3.263	0.501
1272.000	718.091	80.003	19.995	103.690	19.989	3.127	0.500
1272.500	718.294	80.003	19.994	103.691	19.988	3.248	0.498
1273.000	718.533	80.004	19.994	103.684	19.987	3.265	0.462
1273.500	718.803	80.003	19.996	103.677	19.990	3.104	0.476
1274.001	719.091	80.003	19.994	103.674	19.990	3.047	0.534
1274.501	719.293	80.003	19.995	103.665	19.987	3.256	0.524
1275.000	719.559	80.002	19.995	103.662	19.991	3.017	0.479
1275.501	719.787	80.003	19.995	103.667	19.988	3.187	0.481
1276.001	720.049	80.003	19.995	103.668	19.990	3.076	0.492
1276.501	720.300	80.003	19.993	103.668	19.987	3.288	0.502
1277.000	720.548	80.003	19.994	103.665	19.988	3.238	0.506
1277.500	720.781	80.002	19.994	103.664	19.987	3.309	0.490
1278.000	721.016	80.002	19.996	103.664	19.990	3.092	0.475
1278.500	721.272	80.001	19.997	103.670	19.987	3.270	0.480
1279.001	721.537	80.003	19.995	103.677	19.989	3.114	0.506
1279.501	721.750	80.002	19.995	103.681	19.989	3.149	0.499
1280.000	721.970	80.002	19.995	103.686	19.988	3.240	0.456
1280.501	722.249	80.002	19.996	103.686	19.985	3.406	0.467
1281.001	722.484	80.001	19.994	103.686	19.988	3.185	0.507
1281.501	722.742	80.003	19.995	103.682	19.988	3.227	0.503
1282.001	723.014	80.004	19.995	103.670	19.986	3.341	0.512
1282.501	723.231	80.003	19.997	103.665	19.990	3.102	0.509
1283.001	723.455	80.003	19.995	103.663	19.987	3.317	0.464
1283.500	723.738	80.002	19.994	103.662	19.987	3.306	0.474
1284.000	723.986	80.003	19.995	103.666	19.986	3.355	0.519
1284.500	724.206	80.003	19.996	103.680	19.989	3.134	0.500
1285.000	724.448	80.003	19.996	103.684	19.989	3.144	0.465
1285.500	724.702	80.003	19.994	103.694	19.988	3.181	0.479
1286.000	724.906	80.004	19.995	103.692	19.991	3.011	0.477
1286.500	725.173	80.003	19.995	103.688	19.989	3.159	0.465
1287.000	725.442	80.003	19.994	103.683	19.988	3.215	0.504
1287.500	725.686	80.003	19.995	103.682	19.989	3.118	0.524
1288.000	725.924	80.004	19.995	103.673	19.989	3.124	0.498
1288.500	726.174	80.003	19.995	103.671	19.990	3.074	0.486
1289.000	726.393	80.003	19.996	103.671	19.990	3.088	0.478
1289.500	726.644	80.004	19.995	103.676	19.992	2.912	0.469
1290.000	726.905	80.003	19.996	103.677	19.988	3.218	0.490
1290.500	727.133	80.002	19.995	103.678	19.987	3.279	0.500
1291.000	727.398	80.003	19.995	103.682	19.987	3.305	0.491
1291.500	727.662	80.003	19.994	103.685	19.991	3.013	0.511
1292.001	727.888	80.004	19.997	103.686	19.987	3.262	0.510
1292.501	728.089	80.003	19.995	103.685	19.985	3.428	0.458
1293.000	728.369	80.003	19.995	103.686	19.990	3.086	0.453
1293.501	728.579	80.003	19.997	103.683	19.989	3.137	0.485
1294.001	728.876	80.002	19.995	103.684	19.990	3.100	0.499
1294.501	729.105	80.003	19.995	103.682	19.984	3.497	0.516
1295.000	729.359	80.004	19.996	103.682	19.987	3.266	0.505
1295.500	729.599	80.003	19.996	103.683	19.987	3.299	0.489
1296.000	729.908	80.002	19.996	103.685	19.991	3.019	0.521
1296.500	730.110	80.004	19.994	103.681	19.989	3.159	0.530
1297.000	730.338	80.002	19.994	103.682	19.988	3.226	0.471
1297.500	730.609	80.004	19.995	103.683	19.987	3.293	0.465
1298.000	730.854	80.003	19.995	103.682	19.984	3.534	0.507
1298.500	731.114	80.003	19.994	103.679	19.988	3.228	0.510
1299.000	731.342	80.003	19.995	103.677	19.986	3.365	0.497
1299.500	731.625	80.004	19.996	103.673	19.987	3.272	0.500
1300.000	731.841	80.002	19.994	103.668	19.986	3.341	0.505
1300.500	732.102	80.002	19.996	103.663	19.987	3.250	0.488
1301.000	732.323	80.003	19.995	103.664	19.988	3.183	0.480
1301.501	732.602	80.003	19.994	103.667	19.989	3.148	0.491
1302.001	732.840	80.002	19.995	103.667	19.991	3.007	0.508
1302.500	733.079	80.003	19.995	103.671	19.983	3.548	0.497
1303.000	733.345	80.002	19.995	103.673	19.987	3.317	0.492
1303.500	733.576	80.003	19.995	103.675	19.986	3.356	0.501
1304.000	733.831	80.001	19.995	103.674	19.988	3.228	0.491
1304.500	734.093	80.001	19.995	103.679	19.985	3.445	0.502
1305.000	734.332	80.001	19.994	103.680	19.987	3.296	0.509
1305.500	734.603	80.003	19.994	103.681	19.984	3.476	0.506
1306.000	734.830	80.002	19.995	103.677	19.989	3.160	0.504
1306.501	735.101	80.002	19.995	103.677	19.985	3.438	0.498
1307.001	735.336	80.003	19.995	103.671	19.988	3.236	0.502
1307.501	735.581	80.002	19.995	103.668	19.986	3.321	0.493
1308.001	735.834	80.002	19.995	103.670	19.987	3.277	0.489
1308.500	736.078	80.003	19.995	103.673	19.989	3.169	0.498
1309.000	736.316	80.002	19.995	103.670	19.988	3.185	0.490
1309.500	736.591	80.002	19.995	103.671	19.986	3.367	0.498
1310.000	736.844	80.001	19.997	103.674	19.988	3.244	0.521
1310.500	737.076	80.003	19.995	103.674	19.991	3.027	0.506
1311.000	737.302	80.001	19.995	103.677	19.985	3.412	0.471
1311.500	737.572	80.002	19.996	103.683	19.989	3.169	0.477
1312.000	737.781	80.002	19.996	103.688	19.989	3.161	0.488
1312.500	738.040	80.002	19.997	103.689	19.991	2.975	0.474
1313.000	738.316	80.003	19.996	103.683	19.990	3.076	0.501
1313.500	738.555	80.001	19.996	103.677	19.987	3.260	0.525
1314.000	738.805	80.003	19.996	103.672	19.988	3.183	0.502
1314.500	739.062	80.002	19.996	103.666	19.987	3.274	0.498
1315.000	739.302	80.003	19.995	103.665	19.989	3.169	0.502
1315.500	739.565	80.003	19.997	103.671	19.989	3.153	0.500
1316.000	739.797	80.003	19.996	103.678	19.985	3.400	0.499
1316.500	740.029	80.003	19.995	103.685	19.990	3.041	0.480
1317.000	740.305	80.004	19.996	103.691	19.993	2.877	0.486
1317.500	740.526	80.003	19.995	103.688	19.994	2.782	0.503
1318.000	740.810	80.004	19.996	103.681	19.994	2.812	0.501
1318.500	741.102	80.003	19.995	103.675	19.993	2.829	0.540
1319.000	741.309	80.003	19.995	103.668	19.992	2.960	0.538
1319.501	741.588	80.003	19.994	103.666	19.992	2.960	0.493
1320.001	741.787	80.004	19.995	103.670	19.994	2.756	0.482
1320.501	742.084	80.004	19.996	103.676	19.992	2.928	0.487
1321.000	742.317	80.002	19.996	103.682	19.995	2.709	0.513
1321.500	742.568	80.004	19.997	103.684	19.994	2.780	0.507
1322.000	742.802	80.004	19.995	103.680	19.991	3.001	0.484
1322.500	743.082	80.003	19.995	103.672	19.997	2.541	0.500
1323.000	743.341	80.001	19.995	103.665	19.991	2.974	0.527
1323.500	743.597	80.002	19.995	103.662	19.992	2.926	0.527
