Sample ID:	C:\MCC\MCC Cal\Test\Straw_MCC_30K_220318_R3.txt
Sample Weight (mg):	4.63
Heating Rate (C/s):	0.5
Combustor Temp (C):	900
N2 Flow Rate (cc/min):	80
O2 Flow Rate (cc/min):	20
Calibration File:	C:\MCC\MCC Cal\Coeff1 JN10440_30_210304.txt.txt
T Correction Coefficients:	0	1.024463	0
Time Shift (s):	14
*
Time (s)	Temperature (C)	N2 flow rate (cc/min)	O2 flow rate (cc/min)	Flow Rate (cc/min)	Oxygen (%)	HRR (W/g)	Heating rate (C/s)
0.000	112.550	80.003	19.994	103.741	20.044	0.151	0.021
0.500	112.523	80.003	19.993	103.740	20.047	-0.019	0.010
1.000	112.526	80.002	19.994	103.741	20.047	-0.042	-0.016
1.500	112.553	80.005	19.994	103.741	20.046	0.048	0.003
2.000	112.534	80.003	19.994	103.741	20.044	0.195	0.019
2.500	112.513	80.004	19.994	103.741	20.046	0.000	-0.017
3.000	112.527	80.004	19.993	103.741	20.049	-0.205	-0.024
3.500	112.505	80.003	19.993	103.740	20.047	-0.029	-0.007
4.000	112.493	80.002	19.994	103.739	20.049	-0.188	-0.021
4.500	112.502	80.005	19.995	103.738	20.048	-0.083	-0.019
5.000	112.548	80.004	19.995	103.737	20.045	0.077	0.026
5.500	112.532	80.004	19.994	103.737	20.045	0.073	0.043
6.000	112.547	80.005	19.995	103.738	20.044	0.172	0.015
6.500	112.520	80.003	19.994	103.738	20.044	0.172	-0.006
7.000	112.541	80.004	19.995	103.738	20.046	0.017	-0.009
7.500	112.551	80.004	19.994	103.738	20.043	0.261	0.012
8.000	112.546	80.004	19.995	103.737	20.048	-0.099	0.018
8.501	112.553	80.005	19.994	103.736	20.045	0.095	0.004
9.001	112.552	80.004	19.994	103.735	20.046	0.025	0.004
9.500	112.562	80.005	19.994	103.711	20.046	0.048	0.007
10.000	112.551	80.004	19.994	103.684	20.047	-0.072	0.004
10.500	112.544	80.004	19.993	103.672	20.044	0.139	-0.010
11.000	112.524	80.006	19.995	103.668	20.049	-0.161	-0.022
11.500	112.524	80.004	19.994	103.669	20.048	-0.106	-0.023
12.001	112.542	80.005	19.995	103.698	20.045	0.112	-0.001
12.501	112.553	80.006	19.993	103.752	20.043	0.219	0.023
13.000	112.549	80.005	19.994	103.809	20.042	0.309	0.018
13.500	112.565	80.006	19.993	103.833	20.044	0.178	0.010
14.000	112.520	80.005	19.994	103.847	20.042	0.305	-0.008
14.500	112.557	80.007	19.994	103.855	20.040	0.424	-0.019
15.000	112.561	80.005	19.994	103.843	20.038	0.553	0.016
15.500	112.585	80.006	19.994	103.813	20.039	0.511	0.035
16.000	112.562	80.007	19.993	103.815	20.041	0.385	0.015
16.500	112.592	80.008	19.994	103.823	20.035	0.808	0.004
17.000	112.628	80.006	19.994	103.831	20.036	0.740	0.036
17.500	112.630	80.008	19.994	103.835	20.033	0.931	0.052
18.000	112.643	80.005	19.994	103.842	20.032	0.980	0.027
18.500	112.678	80.006	19.995	103.844	20.029	1.216	0.031
19.000	112.676	80.007	19.993	103.845	20.032	0.987	0.040
19.500	112.646	80.007	19.994	103.847	20.028	1.266	0.001
20.000	112.701	80.006	19.993	103.852	20.028	1.299	-0.003
20.500	112.702	80.005	19.993	103.854	20.027	1.367	0.040
21.000	112.738	80.007	19.993	103.854	20.022	1.671	0.046
21.500	112.764	80.006	19.994	103.856	20.025	1.479	0.050
22.000	112.772	80.005	19.995	103.863	20.023	1.626	0.048
22.500	112.848	80.006	19.994	103.876	20.023	1.632	0.059
23.000	112.887	80.006	19.994	103.862	20.022	1.671	0.100
23.500	112.899	80.004	19.993	103.841	20.021	1.798	0.083
24.000	112.947	80.004	19.994	103.826	20.020	1.845	0.055
24.500	112.984	80.005	19.994	103.816	20.019	1.940	0.073
25.001	112.993	80.003	19.993	103.805	20.019	1.899	0.066
25.501	113.074	80.005	19.994	103.825	20.018	2.012	0.068
26.000	113.110	80.005	19.994	103.875	20.019	1.884	0.104
26.500	113.147	80.002	19.994	103.931	20.016	2.120	0.095
27.000	113.196	80.002	19.994	103.958	20.016	2.105	0.079
27.500	113.231	80.004	19.993	103.973	20.015	2.165	0.085
28.000	113.289	80.004	19.993	103.976	20.015	2.172	0.088
28.500	113.319	80.003	19.994	103.959	20.015	2.223	0.090
29.000	113.379	80.003	19.994	103.930	20.014	2.252	0.089
29.500	113.446	80.006	19.994	103.922	20.014	2.234	0.109
30.001	113.504	80.002	19.993	103.922	20.011	2.476	0.126
30.501	113.569	80.002	19.994	103.928	20.011	2.451	0.124
31.001	113.626	80.004	19.994	103.932	20.010	2.540	0.123
31.500	113.686	80.004	19.996	103.933	20.012	2.389	0.119
32.000	113.733	80.005	19.994	103.932	20.012	2.410	0.111
32.500	113.837	80.004	19.994	103.931	20.009	2.585	0.129
33.000	113.868	80.003	19.995	103.929	20.007	2.730	0.143
33.500	113.942	80.004	19.994	103.929	20.009	2.641	0.120
34.000	114.027	80.004	19.994	103.929	20.007	2.757	0.132
34.500	114.101	80.002	19.993	103.932	20.011	2.441	0.159
35.000	114.195	80.004	19.994	103.935	20.009	2.596	0.163
35.500	114.230	80.003	19.994	103.938	20.010	2.521	0.148
36.000	114.319	80.003	19.994	103.943	20.008	2.656	0.127
36.500	114.396	80.003	19.994	103.948	20.007	2.790	0.145
37.000	114.530	80.004	19.995	103.950	20.005	2.873	0.188
37.500	114.615	80.003	19.994	103.951	20.009	2.643	0.215
38.000	114.647	80.003	19.995	103.953	20.005	2.861	0.168
38.500	114.754	80.002	19.995	103.947	20.006	2.805	0.128
39.000	114.846	80.003	19.995	103.943	20.005	2.925	0.169
39.500	114.922	80.004	19.995	103.940	20.006	2.802	0.183
40.000	115.037	80.003	19.994	103.938	20.007	2.786	0.180
40.500	115.098	80.005	19.995	103.935	20.006	2.831	0.183
41.000	115.199	80.001	19.995	103.937	20.004	2.978	0.169
41.500	115.324	80.003	19.995	103.937	20.005	2.901	0.194
42.000	115.437	80.003	19.995	103.941	20.008	2.686	0.232
42.500	115.487	80.002	19.994	103.945	20.000	3.228	0.200
43.000	115.599	80.004	19.995	103.946	20.005	2.918	0.162
43.500	115.703	80.001	19.995	103.945	20.003	3.028	0.189
44.001	115.779	80.003	19.996	103.945	20.005	2.897	0.198
44.501	115.886	80.001	19.994	103.940	20.005	2.866	0.181
45.000	116.014	80.003	19.995	103.935	20.003	3.008	0.209
45.500	116.101	80.003	19.995	103.935	20.004	2.955	0.225
46.000	116.245	80.002	19.995	103.934	20.003	3.021	0.223
46.501	116.364	80.004	19.994	103.934	20.003	3.048	0.247
47.001	116.471	80.005	19.995	103.935	20.004	2.988	0.245
47.500	116.594	80.003	19.995	103.935	20.004	2.984	0.228
48.000	116.675	80.005	19.995	103.935	20.005	2.888	0.217
48.500	116.836	80.002	19.994	103.935	20.005	2.884	0.223
49.000	116.931	80.002	19.993	103.935	20.005	2.866	0.249
49.501	117.069	80.001	19.994	103.935	20.005	2.928	0.244
50.001	117.198	80.003	19.996	103.941	20.003	3.031	0.250
50.501	117.313	80.003	19.995	103.945	20.005	2.872	0.256
51.000	117.450	80.002	19.995	103.952	20.004	2.967	0.248
51.500	117.567	80.004	19.996	103.959	20.003	3.035	0.253
52.000	117.687	80.002	19.995	103.960	20.001	3.153	0.245
52.500	117.805	80.004	19.994	103.954	20.003	3.027	0.237
53.000	117.925	80.004	19.995	103.954	20.000	3.251	0.238
53.500	118.050	80.005	19.995	103.952	20.000	3.213	0.242
54.001	118.201	80.001	19.994	103.953	20.002	3.098	0.261
54.501	118.313	80.004	19.995	103.959	19.999	3.298	0.269
55.001	118.443	80.004	19.994	103.966	20.001	3.195	0.252
55.501	118.542	80.003	19.995	103.969	20.000	3.220	0.236
56.001	118.706	80.003	19.994	103.971	20.001	3.172	0.246
56.500	118.806	80.001	19.994	103.971	20.000	3.213	0.264
57.000	118.997	80.002	19.994	103.972	20.002	3.116	0.278
57.501	119.122	80.002	19.994	103.973	20.002	3.120	0.303
58.001	119.251	80.001	19.994	103.974	20.004	2.990	0.285
58.500	119.362	80.001	19.995	103.976	20.002	3.096	0.247
59.001	119.503	80.001	19.995	103.976	20.002	3.112	0.245
59.501	119.650	80.001	19.994	103.977	20.000	3.266	0.270
60.000	119.820	80.000	19.995	103.976	20.002	3.092	0.303
60.500	119.944	80.002	19.995	103.977	20.002	3.112	0.306
61.000	120.118	80.003	19.995	103.975	20.002	3.083	0.296
61.500	120.255	80.001	19.994	103.975	20.001	3.157	0.305
62.000	120.414	80.002	19.995	103.973	20.003	3.035	0.303
62.500	120.567	79.999	19.995	103.973	20.003	3.017	0.304
63.000	120.719	80.001	19.994	103.971	20.004	2.982	0.308
63.500	120.889	80.001	19.995	103.967	20.008	2.684	0.313
64.000	121.049	80.002	19.995	103.965	20.003	3.052	0.326
64.500	121.182	80.002	19.995	103.965	20.004	2.971	0.312
65.000	121.320	80.000	19.995	103.964	20.005	2.907	0.282
65.500	121.482	80.001	19.995	103.963	20.005	2.911	0.286
66.001	121.619	80.002	19.994	103.965	20.006	2.820	0.299
66.501	121.767	80.003	19.995	103.962	20.005	2.911	0.292
67.000	121.951	80.004	19.995	103.963	20.002	3.085	0.309
67.501	122.128	80.002	19.996	103.965	19.999	3.325	0.346
68.001	122.270	80.001	19.995	103.966	20.005	2.889	0.340
68.500	122.455	80.004	19.996	103.962	20.003	3.068	0.323
69.000	122.613	80.004	19.995	103.959	20.003	3.050	0.335
69.500	122.764	80.003	19.995	103.953	20.002	3.100	0.326
70.000	122.975	80.002	19.995	103.953	20.005	2.905	0.336
70.500	123.146	80.002	19.995	103.953	20.005	2.905	0.372
71.000	123.289	80.003	19.994	103.959	20.004	2.967	0.348
71.500	123.490	80.003	19.995	103.965	20.005	2.907	0.329
72.000	123.628	80.005	19.995	103.970	20.004	2.990	0.342
72.500	123.800	80.005	19.995	103.970	20.003	3.013	0.324
73.000	123.941	80.004	19.995	103.967	20.004	2.953	0.311
73.500	124.106	80.003	19.995	103.966	20.004	2.940	0.309
74.000	124.322	80.004	19.996	103.967	20.002	3.116	0.343
74.500	124.464	80.004	19.995	103.966	20.003	3.040	0.370
75.000	124.686	80.005	19.995	103.966	20.003	3.009	0.361
75.500	124.836	80.003	19.995	103.968	20.003	3.066	0.368
76.000	124.993	80.004	19.997	103.970	20.006	2.831	0.339
76.500	125.193	80.004	19.995	103.969	20.002	3.104	0.332
77.000	125.338	80.005	19.996	103.970	20.005	2.880	0.351
77.500	125.544	80.006	19.995	103.969	20.006	2.853	0.348
78.000	125.742	80.006	19.995	103.968	20.001	3.195	0.377
78.500	125.930	80.004	19.996	103.969	20.003	3.021	0.395
79.000	126.104	80.005	19.995	103.969	20.006	2.822	0.374
79.500	126.247	80.005	19.995	103.969	20.003	3.027	0.340
80.001	126.450	80.006	19.996	103.970	20.007	2.752	0.332
80.501	126.620	80.005	19.995	103.970	20.006	2.812	0.359
81.001	126.775	80.003	19.994	103.968	20.003	3.044	0.349
81.501	126.999	80.004	19.994	103.966	20.001	3.147	0.352
82.001	127.153	80.005	19.994	103.963	20.003	3.067	0.379
82.501	127.324	80.004	19.994	103.963	20.001	3.164	0.352
83.001	127.548	80.004	19.993	103.963	19.998	3.366	0.360
83.501	127.697	80.004	19.994	103.965	20.000	3.216	0.384
84.001	127.878	80.004	19.993	103.967	19.999	3.288	0.351
84.500	128.095	80.005	19.994	103.970	20.001	3.189	0.364
85.001	128.278	80.004	19.994	103.970	20.002	3.075	0.399
85.501	128.516	80.004	19.994	103.971	20.001	3.195	0.410
86.000	128.699	80.004	19.993	103.972	20.002	3.106	0.421
86.500	128.875	80.006	19.994	103.972	20.001	3.145	0.390
87.000	129.062	80.005	19.994	103.972	20.001	3.174	0.361
87.500	129.274	80.005	19.993	103.973	20.000	3.236	0.381
88.001	129.437	80.005	19.994	103.972	20.002	3.075	0.387
88.501	129.672	80.005	19.994	103.972	20.003	3.025	0.387
89.000	129.844	80.003	19.994	103.970	20.004	2.949	0.403
89.500	130.052	80.004	19.994	103.969	20.001	3.211	0.393
90.000	130.198	80.005	19.994	103.969	20.002	3.120	0.366
90.500	130.446	80.006	19.995	103.969	20.003	3.004	0.374
91.001	130.646	80.004	19.995	103.970	20.000	3.263	0.421
91.501	130.851	80.005	19.994	103.971	20.001	3.209	0.427
92.001	131.042	80.006	19.995	103.972	19.998	3.383	0.401
92.501	131.207	80.007	19.995	103.971	20.004	2.957	0.375
93.000	131.426	80.006	19.994	103.967	20.000	3.246	0.370
93.500	131.672	80.006	19.994	103.967	19.999	3.300	0.424
94.000	131.809	80.004	19.994	103.964	20.000	3.244	0.424
94.501	132.048	80.005	19.994	103.964	20.002	3.132	0.379
95.001	132.259	80.006	19.994	103.965	20.003	3.041	0.413
95.500	132.454	80.007	19.994	103.968	20.002	3.132	0.428
96.000	132.636	80.005	19.994	103.969	20.004	2.990	0.391
96.500	132.832	80.006	19.993	103.971	19.999	3.337	0.377
97.000	133.031	80.006	19.994	103.971	19.999	3.294	0.387
97.500	133.259	80.006	19.994	103.971	20.003	3.052	0.411
98.000	133.463	80.009	19.994	103.971	20.002	3.112	0.429
98.500	133.634	80.005	19.993	103.972	20.002	3.101	0.404
99.001	133.886	80.007	19.994	103.972	20.002	3.089	0.399
99.501	134.120	80.005	19.994	103.972	20.001	3.168	0.455
100.001	134.323	80.007	19.993	103.973	20.000	3.240	0.461
100.501	134.522	80.005	19.994	103.973	19.999	3.308	0.419
101.001	134.695	80.006	19.993	103.973	20.003	3.021	0.387
101.500	134.947	80.005	19.994	103.972	20.002	3.106	0.399
102.000	135.124	80.005	19.994	103.972	20.003	3.023	0.427
102.500	135.353	80.004	19.994	103.972	20.005	2.897	0.417
103.000	135.571	80.007	19.994	103.972	20.002	3.074	0.427
103.500	135.799	80.005	19.993	103.973	20.002	3.116	0.447
104.000	135.997	80.005	19.993	103.972	20.008	2.680	0.436
104.500	136.230	80.006	19.994	103.973	20.001	3.160	0.429
105.000	136.423	80.004	19.993	103.972	20.001	3.187	0.428
105.500	136.640	80.005	19.994	103.975	20.002	3.089	0.418
106.000	136.854	80.006	19.994	103.978	20.000	3.234	0.421
106.500	137.049	80.008	19.994	103.978	20.002	3.104	0.420
107.000	137.255	80.006	19.994	103.979	20.002	3.087	0.405
107.500	137.494	80.005	19.994	103.979	19.999	3.306	0.423
108.000	137.734	80.005	19.993	103.976	20.000	3.265	0.462
108.500	137.946	80.005	19.994	103.973	19.998	3.352	0.465
109.000	138.151	80.001	19.993	103.973	20.002	3.130	0.434
109.500	138.383	80.002	19.994	103.973	20.002	3.077	0.426
110.001	138.660	80.007	19.995	103.974	20.001	3.165	0.473
110.501	138.844	80.004	19.996	103.974	20.004	2.942	0.485
111.000	139.041	80.004	19.994	103.974	19.999	3.289	0.422
111.501	139.278	80.003	19.996	103.974	20.000	3.261	0.408
112.001	139.489	80.005	19.994	103.975	20.000	3.277	0.441
112.500	139.707	80.002	19.994	103.975	20.003	3.031	0.438
113.000	139.949	80.004	19.994	103.975	19.999	3.298	0.444
113.500	140.173	80.005	19.995	103.976	20.002	3.128	0.463
114.001	140.392	80.003	19.993	103.976	20.004	2.973	0.455
114.501	140.630	80.003	19.994	103.973	19.997	3.447	0.450
115.000	140.881	80.004	19.994	103.968	20.003	3.066	0.473
115.500	141.082	80.003	19.994	103.966	20.002	3.093	0.470
116.001	141.314	80.003	19.994	103.965	20.002	3.097	0.443
116.501	141.526	80.003	19.993	103.965	20.002	3.114	0.439
117.000	141.762	80.005	19.994	103.968	20.005	2.913	0.446
117.500	141.981	80.003	19.994	103.971	20.005	2.880	0.451
118.001	142.193	80.002	19.994	103.973	19.998	3.391	0.443
118.501	142.450	80.005	19.994	103.973	20.002	3.097	0.450
119.001	142.662	80.005	19.995	103.973	20.001	3.186	0.469
119.501	142.915	80.002	19.992	103.973	20.002	3.118	0.467
120.001	143.147	80.004	19.994	103.975	20.003	3.027	0.475
120.501	143.322	80.002	19.994	103.975	20.002	3.101	0.446
121.001	143.568	80.002	19.993	103.975	20.000	3.246	0.414
121.500	143.809	80.003	19.993	103.975	20.003	3.056	0.454
122.000	144.049	80.004	19.994	103.977	20.001	3.205	0.484
122.501	144.265	80.002	19.994	103.978	19.999	3.283	0.468
123.001	144.555	80.002	19.993	103.977	20.001	3.151	0.481
123.501	144.771	80.002	19.994	103.977	20.002	3.081	0.506
124.001	144.995	80.004	19.994	103.977	20.002	3.098	0.473
124.501	145.219	80.003	19.995	103.973	20.003	3.019	0.444
125.000	145.459	80.001	19.993	103.970	20.003	3.028	0.456
125.500	145.686	80.002	19.994	103.970	20.003	3.007	0.465
126.000	145.925	80.005	19.994	103.971	20.002	3.094	0.467
126.500	146.163	80.003	19.994	103.971	20.002	3.114	0.472
127.001	146.411	80.003	19.994	103.974	20.004	2.980	0.481
127.501	146.649	80.003	19.993	103.975	20.001	3.176	0.486
128.000	146.842	80.002	19.993	103.975	20.000	3.250	0.458
128.500	147.071	80.002	19.995	103.975	20.003	3.017	0.427
129.000	147.290	80.003	19.994	103.975	20.002	3.127	0.435
129.500	147.551	80.004	19.993	103.974	20.003	3.061	0.464
130.000	147.815	80.002	19.993	103.975	20.005	2.864	0.502
130.500	148.052	80.001	19.993	103.975	20.005	2.862	0.513
131.000	148.275	80.002	19.995	103.974	20.006	2.800	0.481
131.500	148.511	80.003	19.995	103.973	20.003	3.015	0.460
132.000	148.738	80.002	19.995	103.973	20.004	2.998	0.462
132.500	149.009	80.002	19.995	103.972	20.004	2.978	0.480
133.000	149.251	80.005	19.995	103.973	20.003	3.007	0.505
133.500	149.505	80.002	19.994	103.972	20.004	2.965	0.504
134.000	149.741	80.003	19.994	103.969	20.003	3.021	0.493
134.500	149.941	80.002	19.995	103.965	20.004	2.990	0.463
135.000	150.189	80.003	19.996	103.964	20.001	3.164	0.442
135.500	150.456	80.003	19.994	103.960	20.005	2.905	0.481
136.000	150.654	80.003	19.994	103.956	20.003	3.015	0.490
136.500	150.893	80.002	19.995	103.959	19.999	3.344	0.451
137.000	151.148	80.002	19.995	103.963	20.001	3.151	0.466
137.500	151.387	80.001	19.994	103.964	20.003	3.019	0.494
138.000	151.619	80.003	19.995	103.967	20.004	2.951	0.482
138.500	151.834	80.004	19.994	103.971	20.001	3.207	0.459
139.000	152.120	80.002	19.995	103.971	20.002	3.092	0.474
139.500	152.351	80.002	19.995	103.967	20.000	3.233	0.509
140.000	152.604	80.002	19.995	103.961	20.005	2.885	0.501
140.500	152.826	80.001	19.995	103.954	20.001	3.152	0.480
141.000	153.092	80.003	19.995	103.951	20.002	3.102	0.482
141.500	153.299	80.003	19.994	103.949	20.002	3.123	0.481
142.000	153.565	80.001	19.995	103.952	20.003	3.017	0.473
142.500	153.839	80.003	19.995	103.957	20.002	3.096	0.506
143.000	154.031	80.004	19.996	103.963	20.003	3.034	0.502
143.500	154.290	80.001	19.995	103.965	20.002	3.085	0.458
144.000	154.535	80.004	19.996	103.964	20.001	3.170	0.478
144.500	154.740	80.002	19.995	103.964	20.002	3.114	0.477
145.000	155.026	80.003	19.995	103.963	20.003	3.058	0.471
145.500	155.258	80.002	19.995	103.962	20.005	2.901	0.505
146.000	155.483	80.003	19.995	103.961	20.002	3.137	0.487
146.500	155.693	80.004	19.994	103.962	20.004	2.953	0.446
147.000	155.907	80.004	19.995	103.963	20.003	3.053	0.430
147.500	156.217	80.004	19.994	103.964	20.000	3.216	0.474
148.000	156.419	80.004	19.994	103.967	19.999	3.302	0.518
148.500	156.704	80.003	19.995	103.969	20.002	3.100	0.500
149.000	156.929	80.004	19.994	103.968	20.001	3.180	0.499
149.500	157.181	80.005	19.995	103.962	20.000	3.257	0.493
150.000	157.429	80.003	19.994	103.954	20.003	3.038	0.488
150.500	157.696	80.004	19.994	103.949	20.003	3.030	0.508
151.001	157.930	80.004	19.995	103.942	20.002	3.089	0.508
151.500	158.176	80.005	19.995	103.945	20.004	2.974	0.490
152.000	158.399	80.005	19.995	103.949	20.001	3.153	0.474
152.500	158.630	80.004	19.995	103.954	20.002	3.091	0.462
153.000	158.894	80.004	19.994	103.958	20.001	3.170	0.475
153.500	159.144	80.004	19.994	103.963	20.000	3.224	0.504
154.000	159.371	80.004	19.994	103.963	20.000	3.259	0.495
154.500	159.625	80.005	19.995	103.964	19.999	3.323	0.479
155.000	159.887	80.004	19.995	103.968	20.000	3.228	0.498
155.501	160.112	80.004	19.994	103.967	20.001	3.162	0.502
156.000	160.360	80.005	19.995	103.963	19.999	3.327	0.480
156.500	160.637	80.006	19.995	103.957	19.997	3.445	0.499
157.000	160.869	80.005	19.995	103.955	19.996	3.510	0.517
157.500	161.141	80.004	19.995	103.951	19.997	3.471	0.507
158.000	161.377	80.003	19.995	103.952	20.003	3.034	0.506
158.500	161.621	80.005	19.994	103.957	20.002	3.123	0.494
159.000	161.884	80.004	19.995	103.961	20.002	3.123	0.493
159.500	162.130	80.006	19.996	103.961	20.004	2.996	0.508
160.000	162.354	80.003	19.994	103.963	20.001	3.185	0.490
160.500	162.603	80.003	19.994	103.960	20.000	3.212	0.472
161.000	162.832	80.004	19.995	103.960	20.003	3.053	0.476
161.500	163.081	80.005	19.995	103.961	20.002	3.102	0.478
162.000	163.297	80.004	19.995	103.963	20.001	3.175	0.472
162.500	163.585	80.002	19.996	103.963	20.003	3.070	0.484
163.000	163.829	80.004	19.995	103.963	20.001	3.192	0.518
163.500	164.095	80.003	19.996	103.964	20.001	3.196	0.521
164.000	164.354	80.004	19.994	103.964	20.000	3.278	0.518
164.500	164.584	80.005	19.996	103.964	20.003	3.036	0.507
165.000	164.827	80.004	19.995	103.961	20.002	3.140	0.481
165.500	165.050	80.004	19.995	103.964	20.000	3.214	0.469
166.000	165.368	80.004	19.997	103.963	20.003	3.067	0.504
166.500	165.593	80.003	19.995	103.964	20.002	3.076	0.543
167.000	165.859	80.003	19.995	103.957	20.003	3.065	0.517
167.500	166.070	80.004	19.995	103.955	20.004	2.941	0.484
168.000	166.347	80.004	19.996	103.949	20.005	2.914	0.482
168.500	166.559	80.002	19.996	103.944	20.005	2.867	0.488
169.000	166.830	80.003	19.994	103.942	20.003	3.034	0.486
169.500	167.055	80.003	19.997	103.947	20.006	2.824	0.489
170.000	167.340	80.002	19.997	103.955	20.004	2.977	0.503
170.500	167.542	80.003	19.996	103.962	20.005	2.927	0.498
171.000	167.822	80.002	19.995	103.962	20.007	2.774	0.484
171.500	168.053	80.004	19.996	103.957	20.002	3.126	0.497
172.000	168.323	80.004	19.995	103.951	20.005	2.906	0.506
172.500	168.588	80.003	19.996	103.944	20.006	2.852	0.518
173.000	168.814	80.003	19.996	103.938	20.003	3.038	0.513
173.500	169.090	80.004	19.996	103.937	20.004	2.960	0.496
174.000	169.294	80.004	19.995	103.936	20.001	3.144	0.491
174.500	169.584	80.004	19.994	103.936	20.008	2.718	0.487
175.000	169.808	80.004	19.997	103.936	20.004	2.946	0.504
175.500	170.072	80.004	19.994	103.935	20.003	3.003	0.501
176.000	170.299	80.004	19.994	103.934	20.006	2.793	0.490
176.500	170.566	80.004	19.995	103.935	20.004	2.952	0.493
177.000	170.812	80.005	19.994	103.936	20.003	3.034	0.503
177.500	171.028	80.005	19.994	103.936	20.002	3.082	0.487
178.000	171.314	80.006	19.993	103.937	20.002	3.134	0.482
178.500	171.527	80.006	19.994	103.936	20.000	3.248	0.501
179.000	171.807	80.005	19.995	103.934	20.001	3.208	0.497
179.500	172.031	80.006	19.994	103.934	19.999	3.328	0.499
180.000	172.307	80.007	19.994	103.934	19.997	3.473	0.501
180.500	172.560	80.006	19.993	103.933	19.998	3.372	0.514
181.000	172.814	80.005	19.994	103.934	19.998	3.353	0.518
181.500	173.091	80.006	19.993	103.933	20.002	3.103	0.519
182.000	173.332	80.005	19.994	103.934	19.998	3.388	0.524
182.501	173.588	80.007	19.994	103.934	19.998	3.384	0.508
183.000	173.827	80.005	19.993	103.937	19.999	3.314	0.496
183.500	174.053	80.005	19.994	103.936	20.001	3.146	0.480
184.000	174.349	80.004	19.993	103.936	20.001	3.161	0.493
184.500	174.598	80.005	19.993	103.936	20.001	3.144	0.534
185.000	174.844	80.004	19.993	103.935	20.001	3.187	0.520
185.500	175.088	80.006	19.994	103.933	20.001	3.181	0.493
186.000	175.356	80.004	19.994	103.933	20.000	3.223	0.501
186.500	175.593	80.003	19.994	103.933	20.003	3.010	0.509
187.000	175.829	80.003	19.993	103.934	20.002	3.101	0.489
187.500	176.080	80.003	19.995	103.934	20.001	3.173	0.480
188.000	176.316	80.004	19.993	103.934	20.001	3.196	0.487
188.500	176.586	80.003	19.994	103.935	20.000	3.258	0.497
189.000	176.849	80.004	19.995	103.935	20.001	3.188	0.519
189.500	177.093	80.002	19.993	103.935	20.004	2.966	0.520
190.000	177.342	80.002	19.994	103.935	20.001	3.163	0.500
190.500	177.586	80.003	19.994	103.936	20.001	3.192	0.492
191.000	177.814	80.002	19.992	103.936	20.001	3.163	0.482
191.500	178.069	80.003	19.994	103.934	20.000	3.268	0.478
192.000	178.302	80.003	19.995	103.934	20.001	3.173	0.485
192.500	178.552	80.003	19.993	103.934	20.001	3.210	0.485
193.000	178.837	80.002	19.993	103.934	20.000	3.223	0.509
193.500	179.059	80.002	19.994	103.934	20.000	3.217	0.521
194.000	179.309	80.002	19.993	103.937	20.000	3.268	0.489
194.500	179.525	80.002	19.993	103.937	19.997	3.436	0.469
195.000	179.798	80.003	19.993	103.936	19.999	3.293	0.478
195.500	180.029	80.002	19.994	103.936	20.002	3.101	0.497
196.000	180.281	80.004	19.994	103.937	20.000	3.264	0.494
196.500	180.539	80.004	19.995	103.936	19.999	3.287	0.496
197.000	180.811	80.003	19.993	103.936	20.002	3.132	0.519
197.500	181.048	80.003	19.995	103.936	20.001	3.161	0.520
198.000	181.314	80.003	19.995	103.936	20.000	3.248	0.506
198.500	181.578	80.003	19.994	103.935	19.998	3.382	0.516
199.000	181.829	80.004	19.994	103.935	20.002	3.089	0.523
199.500	182.053	80.004	19.994	103.935	20.000	3.223	0.495
200.000	182.317	80.004	19.994	103.934	19.999	3.318	0.481
200.500	182.591	80.004	19.995	103.931	19.999	3.337	0.513
201.000	182.813	80.003	19.994	103.930	19.997	3.461	0.517
201.500	183.068	80.005	19.994	103.930	19.998	3.355	0.487
202.000	183.290	80.003	19.994	103.929	19.999	3.283	0.477
202.500	183.542	80.003	19.995	103.927	19.997	3.447	0.475
203.000	183.798	80.003	19.995	103.929	19.997	3.482	0.491
203.500	184.036	80.003	19.994	103.929	19.998	3.364	0.502
204.000	184.277	80.003	19.994	103.929	20.000	3.236	0.486
204.500	184.561	80.003	19.994	103.930	19.998	3.356	0.502
205.000	184.762	80.005	19.995	103.931	19.999	3.297	0.505
205.500	185.021	80.003	19.995	103.931	19.997	3.454	0.473
206.000	185.274	80.003	19.994	103.931	19.998	3.407	0.486
206.500	185.560	80.003	19.995	103.933	19.999	3.312	0.525
207.000	185.836	80.004	19.994	103.933	19.996	3.510	0.550
207.500	186.035	80.003	19.994	103.933	19.994	3.643	0.519
208.000	186.321	80.005	19.994	103.932	19.998	3.411	0.480
208.500	186.553	80.002	19.995	103.929	19.998	3.363	0.502
209.000	186.813	80.003	19.995	103.927	19.997	3.442	0.505
209.500	187.062	80.003	19.994	103.927	19.996	3.552	0.500
210.000	187.301	80.002	19.995	103.927	19.996	3.529	0.498
210.500	187.556	80.004	19.994	103.928	19.997	3.469	0.491
211.000	187.809	80.005	19.994	103.931	19.996	3.531	0.502
211.500	188.102	80.005	19.995	103.931	19.996	3.537	0.527
212.000	188.300	80.005	19.995	103.932	19.995	3.622	0.518
212.500	188.565	80.004	19.994	103.931	19.996	3.525	0.477
213.000	188.779	80.005	19.994	103.927	19.993	3.746	0.471
213.500	189.038	80.004	19.993	103.922	19.994	3.670	0.476
214.000	189.284	80.005	19.994	103.917	19.994	3.664	0.489
214.500	189.523	80.004	19.994	103.917	19.993	3.755	0.495
215.000	189.788	80.004	19.994	103.917	19.994	3.690	0.494
215.500	189.988	80.003	19.995	103.921	19.993	3.750	0.484
216.000	190.225	80.004	19.994	103.925	19.993	3.705	0.451
216.500	190.515	80.002	19.995	103.930	19.993	3.732	0.482
217.000	190.744	80.003	19.994	103.930	19.991	3.891	0.523
217.500	190.970	80.003	19.995	103.930	19.989	4.019	0.487
218.000	191.245	80.003	19.994	103.930	19.993	3.730	0.478
218.500	191.489	80.003	19.994	103.930	19.990	3.914	0.509
219.000	191.726	80.003	19.994	103.930	19.992	3.804	0.500
219.500	191.983	80.004	19.994	103.930	19.989	3.992	0.488
220.000	192.222	80.003	19.994	103.930	19.991	3.887	0.495
220.500	192.478	80.002	19.994	103.930	19.989	4.007	0.496
221.000	192.723	80.004	19.994	103.931	19.993	3.727	0.498
221.500	192.954	80.002	19.994	103.932	19.989	4.042	0.489
222.000	193.177	80.004	19.994	103.932	19.988	4.063	0.464
222.500	193.478	80.001	19.994	103.932	19.987	4.172	0.489
223.000	193.661	80.004	19.994	103.932	19.987	4.131	0.505
223.500	193.879	80.003	19.995	103.931	19.987	4.181	0.443
224.000	194.151	80.003	19.994	103.931	19.987	4.148	0.445
224.500	194.426	80.002	19.995	103.930	19.985	4.286	0.518
225.000	194.642	80.002	19.995	103.929	19.987	4.143	0.519
225.500	194.881	80.003	19.994	103.927	19.987	4.162	0.473
226.000	195.123	80.003	19.996	103.928	19.990	3.974	0.468
226.500	195.352	80.003	19.994	103.927	19.985	4.271	0.476
227.000	195.595	80.002	19.994	103.926	19.988	4.116	0.472
227.500	195.850	80.003	19.996	103.925	19.988	4.079	0.485
228.000	196.081	80.003	19.995	103.925	19.986	4.220	0.492
228.500	196.312	80.002	19.996	103.924	19.990	3.936	0.474
229.000	196.577	80.003	19.994	103.924	19.988	4.063	0.479
229.500	196.852	80.003	19.997	103.926	19.988	4.081	0.518
230.000	197.053	80.004	19.996	103.929	19.985	4.263	0.508
230.500	197.286	80.004	19.995	103.931	19.988	4.108	0.455
231.000	197.585	80.004	19.996	103.932	19.986	4.208	0.483
231.500	197.796	80.003	19.996	103.933	19.984	4.348	0.521
232.000	198.067	80.004	19.995	103.933	19.983	4.414	0.496
232.500	198.297	80.004	19.995	103.933	19.985	4.300	0.492
233.000	198.531	80.006	19.994	103.933	19.983	4.406	0.483
233.500	198.759	80.004	19.995	103.933	19.984	4.379	0.463
234.000	199.047	80.003	19.995	103.931	19.983	4.466	0.489
234.500	199.229	80.003	19.995	103.930	19.984	4.356	0.492
235.000	199.512	80.005	19.995	103.930	19.981	4.590	0.467
235.500	199.707	80.004	19.995	103.930	19.980	4.667	0.472
236.000	199.966	80.004	19.994	103.931	19.981	4.549	0.467
236.500	200.194	80.005	19.994	103.933	19.982	4.489	0.470
237.000	200.430	80.004	19.994	103.934	19.980	4.664	0.476
237.500	200.662	80.005	19.995	103.933	19.977	4.838	0.466
238.000	200.937	80.004	19.995	103.933	19.976	4.917	0.487
238.500	201.182	80.004	19.993	103.929	19.977	4.822	0.513
239.000	201.423	80.004	19.995	103.929	19.976	4.933	0.503
239.500	201.690	80.004	19.995	103.929	19.975	4.993	0.497
240.000	201.927	80.004	19.995	103.924	19.972	5.196	0.506
240.500	202.119	80.005	19.994	103.925	19.979	4.734	0.466
241.000	202.414	80.004	19.995	103.928	19.973	5.109	0.458
241.500	202.652	80.004	19.995	103.929	19.972	5.212	0.510
242.000	202.883	80.003	19.995	103.929	19.969	5.427	0.501
242.500	203.138	80.003	19.996	103.935	19.974	5.082	0.478
243.000	203.378	80.003	19.995	103.935	19.972	5.241	0.491
243.500	203.624	80.003	19.994	103.935	19.970	5.347	0.490
244.000	203.861	80.004	19.993	103.934	19.970	5.376	0.485
244.500	204.125	80.004	19.994	103.934	19.969	5.450	0.493
245.000	204.340	80.004	19.994	103.933	19.968	5.454	0.490
245.500	204.599	80.003	19.993	103.933	19.971	5.248	0.476
246.000	204.846	80.005	19.994	103.933	19.967	5.583	0.490
246.500	205.079	80.003	19.994	103.934	19.970	5.314	0.493
247.000	205.315	80.003	19.995	103.933	19.966	5.606	0.474
247.500	205.545	80.004	19.995	103.934	19.963	5.839	0.467
248.000	205.815	80.003	19.995	103.933	19.969	5.390	0.484
248.500	206.025	80.004	19.995	103.932	19.966	5.647	0.490
249.000	206.258	80.003	19.995	103.931	19.963	5.866	0.461
249.500	206.536	80.004	19.995	103.931	19.963	5.810	0.477
250.000	206.757	80.002	19.995	103.935	19.962	5.907	0.505
250.500	206.982	80.003	19.995	103.936	19.963	5.804	0.472
251.000	207.241	80.003	19.994	103.939	19.959	6.116	0.465
251.500	207.446	80.003	19.994	103.940	19.960	6.015	0.474
252.000	207.741	80.004	19.995	103.941	19.962	5.920	0.482
252.500	207.972	80.004	19.994	103.938	19.959	6.125	0.513
253.000	208.244	80.003	19.995	103.939	19.963	5.850	0.514
253.500	208.437	80.004	19.995	103.938	19.961	5.994	0.484
254.000	208.678	80.004	19.994	103.938	19.960	6.036	0.449
254.500	208.942	80.004	19.995	103.938	19.959	6.112	0.469
255.000	209.151	80.003	19.994	103.937	19.958	6.195	0.489
255.501	209.390	80.005	19.995	103.936	19.956	6.319	0.461
256.000	209.628	80.004	19.995	103.938	19.955	6.391	0.462
256.500	209.901	80.005	19.995	103.938	19.953	6.563	0.494
257.000	210.135	80.004	19.996	103.938	19.954	6.499	0.509
257.500	210.398	80.004	19.996	103.937	19.952	6.613	0.502
258.000	210.596	80.004	19.996	103.936	19.951	6.683	0.479
258.500	210.854	80.004	19.996	103.934	19.953	6.567	0.459
259.000	211.123	80.005	19.995	103.934	19.949	6.784	0.491
259.500	211.359	80.004	19.994	103.935	19.948	6.855	0.516
260.000	211.605	80.004	19.995	103.937	19.949	6.846	0.493
260.500	211.837	80.004	19.995	103.937	19.950	6.716	0.480
261.000	212.070	80.005	19.995	103.937	19.951	6.660	0.472
261.500	212.340	80.004	19.994	103.937	19.946	7.018	0.484
262.000	212.563	80.005	19.996	103.936	19.946	7.029	0.498
262.500	212.796	80.006	19.994	103.934	19.946	7.060	0.474
263.000	213.042	80.005	19.995	103.934	19.947	6.993	0.467
263.500	213.295	80.005	19.995	103.934	19.946	7.008	0.489
264.000	213.540	80.006	19.996	103.933	19.945	7.107	0.499
264.500	213.799	80.004	19.995	103.933	19.944	7.190	0.501
265.000	214.024	80.004	19.995	103.934	19.943	7.270	0.494
265.500	214.272	80.006	19.995	103.936	19.942	7.305	0.479
266.000	214.533	80.006	19.996	103.938	19.941	7.378	0.492
266.500	214.759	80.005	19.995	103.939	19.936	7.705	0.498
267.000	215.016	80.005	19.995	103.940	19.938	7.612	0.484
267.500	215.237	80.004	19.995	103.939	19.937	7.630	0.480
268.001	215.489	80.003	19.995	103.937	19.936	7.746	0.476
268.501	215.751	80.003	19.995	103.935	19.933	7.940	0.494
269.000	216.012	80.005	19.995	103.936	19.933	7.915	0.519
269.500	216.207	80.003	19.995	103.939	19.935	7.799	0.490
270.000	216.467	80.003	19.995	103.939	19.934	7.842	0.455
270.500	216.709	80.002	19.995	103.939	19.932	8.012	0.478
271.000	216.967	80.002	19.995	103.939	19.933	7.925	0.501
271.500	217.189	80.003	19.995	103.940	19.929	8.248	0.490
272.000	217.483	80.004	19.995	103.936	19.930	8.116	0.498
272.500	217.692	80.003	19.994	103.936	19.927	8.370	0.509
273.000	217.931	80.003	19.995	103.936	19.929	8.205	0.476
273.500	218.179	80.003	19.993	103.936	19.926	8.407	0.467
274.000	218.403	80.004	19.994	103.936	19.930	8.144	0.479
274.500	218.654	80.002	19.995	103.939	19.928	8.312	0.474
275.000	218.923	80.003	19.994	103.939	19.927	8.368	0.498
275.500	219.182	80.003	19.994	103.939	19.925	8.473	0.524
276.000	219.411	80.003	19.995	103.939	19.926	8.461	0.507
276.500	219.639	80.002	19.994	103.941	19.926	8.414	0.472
277.000	219.893	80.003	19.995	103.939	19.920	8.826	0.470
277.500	220.158	80.003	19.993	103.939	19.923	8.665	0.500
278.000	220.383	80.003	19.994	103.940	19.921	8.752	0.504
278.500	220.618	80.003	19.995	103.940	19.922	8.683	0.475
279.000	220.891	80.003	19.994	103.941	19.920	8.862	0.484
279.500	221.106	80.002	19.995	103.946	19.921	8.785	0.498
280.000	221.362	80.003	19.996	103.948	19.923	8.609	0.479
280.500	221.611	80.004	19.995	103.951	19.919	8.900	0.488
281.000	221.840	80.003	19.993	103.951	19.918	8.996	0.492
281.500	222.078	80.002	19.994	103.946	19.918	8.969	0.473
282.000	222.315	80.003	19.995	103.945	19.916	9.149	0.471
282.500	222.588	80.005	19.994	103.944	19.916	9.142	0.492
283.000	222.853	80.004	19.994	103.942	19.921	8.755	0.524
283.500	223.068	80.003	19.993	103.944	19.915	9.208	0.509
284.000	223.308	80.005	19.996	103.947	19.912	9.399	0.468
284.500	223.570	80.004	19.996	103.948	19.912	9.415	0.479
285.000	223.836	80.004	19.995	103.950	19.912	9.382	0.515
285.500	224.048	80.003	19.995	103.951	19.911	9.458	0.503
286.000	224.310	80.005	19.995	103.949	19.911	9.489	0.476
286.500	224.551	80.004	19.994	103.948	19.910	9.530	0.489
287.000	224.802	80.003	19.995	103.942	19.911	9.501	0.497
287.500	225.050	80.004	19.994	103.939	19.910	9.548	0.495
288.000	225.317	80.004	19.995	103.936	19.904	9.937	0.507
288.500	225.543	80.005	19.994	103.938	19.905	9.923	0.504
289.000	225.824	80.003	19.993	103.937	19.903	10.073	0.500
289.500	226.079	80.002	19.995	103.943	19.903	10.045	0.521
290.000	226.257	80.005	19.994	103.950	19.904	9.954	0.485
290.500	226.575	80.003	19.996	103.956	19.904	9.938	0.465
291.000	226.815	80.004	19.995	103.958	19.901	10.175	0.527
291.500	227.010	80.003	19.994	103.959	19.904	9.993	0.496
292.000	227.272	80.004	19.995	103.957	19.899	10.327	0.446
292.500	227.530	80.005	19.995	103.957	19.899	10.316	0.488
293.000	227.789	80.005	19.994	103.952	19.900	10.279	0.518
293.500	228.064	80.003	19.995	103.947	19.897	10.476	0.525
294.000	228.305	80.004	19.994	103.945	19.895	10.620	0.525
294.500	228.585	80.005	19.995	103.942	19.894	10.670	0.519
295.000	228.819	80.004	19.996	103.936	19.893	10.742	0.518
295.500	229.033	80.003	19.995	103.937	19.894	10.658	0.481
296.000	229.311	80.003	19.994	103.941	19.894	10.703	0.470
296.500	229.575	80.004	19.996	103.943	19.894	10.680	0.517
297.000	229.802	80.004	19.994	103.950	19.891	10.855	0.516
297.500	230.084	80.003	19.995	103.952	19.895	10.570	0.500
298.000	230.312	80.001	19.995	103.956	19.893	10.744	0.510
298.500	230.557	80.004	19.994	103.958	19.893	10.750	0.491
299.000	230.810	80.005	19.995	103.957	19.890	10.965	0.485
299.500	231.076	80.003	19.996	103.953	19.888	11.070	0.509
300.000	231.303	80.003	19.995	103.956	19.891	10.909	0.506
300.500	231.575	80.002	19.994	103.951	19.890	10.946	0.496
301.000	231.778	80.003	19.994	103.946	19.889	11.043	0.487
301.500	232.050	80.003	19.994	103.949	19.890	10.954	0.475
302.000	232.321	80.002	19.995	103.954	19.887	11.177	0.509
302.500	232.527	80.002	19.995	103.954	19.890	10.945	0.510
303.000	232.809	80.004	19.992	103.961	19.887	11.169	0.483
303.500	233.047	80.004	19.994	103.965	19.886	11.249	0.504
304.000	233.318	80.002	19.994	103.964	19.884	11.359	0.514
304.500	233.550	80.004	19.994	103.960	19.885	11.311	0.506
305.000	233.806	80.004	19.995	103.954	19.884	11.359	0.496
305.500	234.036	80.003	19.994	103.949	19.884	11.386	0.488
306.000	234.290	80.002	19.994	103.945	19.884	11.348	0.485
306.500	234.536	80.003	19.995	103.944	19.884	11.375	0.492
307.000	234.758	80.003	19.994	103.949	19.885	11.330	0.484
307.500	235.001	80.002	19.995	103.953	19.883	11.450	0.467
308.000	235.272	80.003	19.995	103.954	19.880	11.626	0.490
308.500	235.509	80.004	19.994	103.956	19.880	11.616	0.511
309.000	235.790	80.005	19.995	103.954	19.881	11.586	0.513
309.500	236.025	80.003	19.995	103.951	19.882	11.532	0.517
310.000	236.300	80.004	19.992	103.952	19.881	11.551	0.513
310.500	236.523	80.003	19.994	103.953	19.880	11.685	0.504
311.000	236.767	80.004	19.994	103.954	19.878	11.825	0.483
311.500	237.040	80.003	19.994	103.958	19.877	11.853	0.492
312.000	237.288	80.002	19.994	103.962	19.879	11.746	0.519
312.500	237.502	80.004	19.995	103.961	19.877	11.880	0.492
313.000	237.795	80.004	19.994	103.962	19.880	11.664	0.485
313.500	238.044	80.004	19.993	103.963	19.881	11.583	0.524
314.000	238.243	80.004	19.994	103.958	19.880	11.647	0.495
314.500	238.499	80.003	19.995	103.950	19.875	12.030	0.452
315.000	238.748	80.004	19.995	103.944	19.878	11.789	0.481
315.500	238.980	80.005	19.995	103.944	19.871	12.299	0.493
316.000	239.229	80.003	19.994	103.943	19.873	12.161	0.481
316.500	239.484	80.003	19.994	103.944	19.874	12.065	0.492
317.000	239.748	80.003	19.993	103.948	19.874	12.069	0.511
317.501	239.969	80.005	19.995	103.950	19.872	12.188	0.502
318.000	240.257	80.004	19.994	103.948	19.872	12.196	0.498
318.500	240.489	80.004	19.994	103.947	19.871	12.265	0.515
319.000	240.750	80.003	19.996	103.946	19.874	12.096	0.506
319.500	240.971	80.004	19.993	103.942	19.872	12.181	0.487
320.000	241.208	80.003	19.996	103.944	19.870	12.344	0.470
320.500	241.472	80.003	19.994	103.946	19.872	12.227	0.480
321.000	241.739	80.003	19.995	103.948	19.871	12.303	0.516
321.500	241.980	80.006	19.994	103.952	19.871	12.296	0.519
322.000	242.214	80.005	19.993	103.952	19.870	12.319	0.491
322.500	242.476	80.005	19.994	103.948	19.871	12.271	0.485
323.000	242.759	80.003	19.994	103.945	19.870	12.325	0.521
323.500	243.027	80.004	19.994	103.942	19.869	12.414	0.548
324.000	243.265	80.004	19.996	103.938	19.869	12.402	0.529
324.500	243.519	80.003	19.995	103.940	19.869	12.405	0.499
325.000	243.735	80.003	19.996	103.940	19.872	12.196	0.481
325.500	244.039	80.004	19.996	103.941	19.865	12.732	0.494
326.000	244.243	80.004	19.995	103.945	19.868	12.482	0.514
326.500	244.496	80.003	19.995	103.950	19.867	12.531	0.482
327.000	244.753	80.004	19.995	103.950	19.870	12.348	0.483
327.500	244.982	80.006	19.994	103.952	19.870	12.356	0.498
328.000	245.255	80.004	19.995	103.952	19.866	12.662	0.494
328.500	245.461	80.004	19.994	103.948	19.868	12.477	0.491
329.000	245.720	80.004	19.996	103.946	19.867	12.564	0.472
329.500	245.997	80.006	19.993	103.944	19.864	12.747	0.501
330.000	246.207	80.002	19.994	103.941	19.864	12.773	0.512
330.500	246.475	80.004	19.997	103.940	19.865	12.724	0.482
331.000	246.702	80.004	19.996	103.939	19.863	12.862	0.486
331.500	246.987	80.004	19.994	103.935	19.863	12.855	0.504
332.000	247.243	80.006	19.996	103.937	19.862	12.947	0.527
332.500	247.443	80.005	19.997	103.941	19.858	13.173	0.499
333.000	247.692	80.005	19.995	103.941	19.859	13.131	0.452
333.500	247.958	80.006	19.995	103.942	19.858	13.157	0.482
334.000	248.197	80.004	19.995	103.943	19.856	13.299	0.510
334.500	248.453	80.005	19.995	103.943	19.855	13.377	0.500
335.000	248.700	80.005	19.994	103.942	19.861	12.984	0.499
335.500	248.961	80.006	19.994	103.944	19.856	13.301	0.505
336.000	249.225	80.004	19.995	103.948	19.860	13.077	0.516
336.501	249.497	80.004	19.994	103.949	19.856	13.305	0.531
337.000	249.769	80.006	19.994	103.947	19.856	13.334	0.540
337.500	250.043	80.005	19.993	103.949	19.854	13.450	0.545
338.000	250.279	80.006	19.995	103.953	19.858	13.188	0.528
338.500	250.520	80.005	19.994	103.955	19.855	13.409	0.494
339.000	250.765	80.005	19.995	103.958	19.856	13.342	0.482
339.500	251.034	80.006	19.993	103.965	19.853	13.569	0.500
340.000	251.274	80.007	19.996	103.963	19.850	13.730	0.511
340.500	251.522	80.006	19.994	103.955	19.852	13.650	0.498
341.000	251.734	80.006	19.995	103.949	19.851	13.705	0.474
341.500	252.003	80.008	19.994	103.945	19.849	13.831	0.470
342.000	252.271	80.005	19.993	103.944	19.849	13.804	0.510
342.500	252.525	80.007	19.994	103.943	19.852	13.628	0.530
343.000	252.705	80.007	19.995	103.944	19.851	13.683	0.478
343.500	252.981	80.007	19.993	103.945	19.848	13.871	0.445
344.000	253.207	80.007	19.993	103.945	19.845	14.096	0.479
344.500	253.466	80.005	19.993	103.940	19.845	14.090	0.493
345.000	253.678	80.006	19.996	103.945	19.842	14.295	0.478
345.500	253.922	80.006	19.996	103.948	19.842	14.334	0.463
346.000	254.193	80.005	19.995	103.951	19.843	14.223	0.485
346.500	254.456	80.004	19.994	103.957	19.838	14.582	0.525
347.000	254.675	80.005	19.996	103.963	19.840	14.489	0.508
347.500	254.896	80.005	19.994	103.959	19.838	14.610	0.461
348.000	255.158	80.005	19.995	103.958	19.839	14.560	0.462
348.500	255.461	80.005	19.995	103.957	19.839	14.551	0.524
349.000	255.687	80.004	19.995	103.955	19.838	14.603	0.547
349.500	255.936	80.003	19.995	103.955	19.838	14.566	0.502
350.000	256.186	80.005	19.995	103.959	19.835	14.809	0.487
350.500	256.420	80.002	19.996	103.963	19.831	15.059	0.492
351.000	256.674	80.004	19.997	103.964	19.828	15.307	0.486
351.500	256.951	80.004	19.996	103.960	19.833	14.927	0.509
352.000	257.139	80.003	19.996	103.957	19.830	15.181	0.498
352.500	257.434	80.002	19.996	103.956	19.831	15.102	0.474
353.000	257.656	80.005	19.994	103.956	19.828	15.299	0.500
353.500	257.904	80.002	19.996	103.959	19.830	15.160	0.494
354.000	258.156	80.004	19.994	103.964	19.827	15.402	0.485
354.500	258.378	80.002	19.996	103.967	19.823	15.636	0.487
355.000	258.658	80.004	19.997	103.967	19.825	15.511	0.488
355.500	258.918	80.003	19.997	103.967	19.826	15.462	0.521
356.000	259.142	80.004	19.996	103.967	19.823	15.666	0.512
356.500	259.409	80.003	19.995	103.968	19.821	15.780	0.487
357.000	259.648	80.003	19.996	103.965	19.819	15.925	0.499
357.500	259.893	80.002	19.996	103.966	19.818	16.011	0.495
358.000	260.131	80.004	19.995	103.965	19.816	16.166	0.483
358.500	260.370	80.003	19.995	103.962	19.817	16.100	0.480
359.000	260.634	80.002	19.996	103.962	19.816	16.124	0.490
359.500	260.838	80.002	19.995	103.965	19.814	16.293	0.486
360.000	261.083	80.003	19.995	103.966	19.811	16.483	0.458
360.500	261.329	80.003	19.995	103.966	19.813	16.381	0.470
361.000	261.590	80.003	19.995	103.969	19.810	16.594	0.499
361.500	261.807	80.001	19.995	103.970	19.809	16.601	0.493
362.000	262.084	80.003	19.995	103.970	19.810	16.581	0.486
362.500	262.331	80.004	19.995	103.970	19.806	16.840	0.509
363.000	262.553	80.003	19.996	103.971	19.806	16.875	0.497
363.500	262.835	80.004	19.995	103.972	19.805	16.936	0.487
364.000	263.054	80.003	19.995	103.972	19.806	16.858	0.502
364.500	263.273	80.003	19.995	103.973	19.803	17.028	0.469
365.000	263.549	80.003	19.995	103.973	19.801	17.203	0.466
365.500	263.805	80.004	19.995	103.974	19.801	17.205	0.513
366.000	264.032	80.003	19.995	103.974	19.797	17.446	0.508
366.500	264.278	80.003	19.995	103.974	19.797	17.462	0.478
367.000	264.553	80.004	19.993	103.974	19.797	17.450	0.497
367.500	264.785	80.004	19.994	103.975	19.795	17.617	0.514
368.000	265.013	80.004	19.994	103.975	19.792	17.807	0.483
368.500	265.257	80.003	19.993	103.976	19.790	17.995	0.466
369.000	265.507	80.003	19.995	103.981	19.787	18.157	0.483
369.500	265.760	80.003	19.995	103.981	19.784	18.409	0.498
370.000	266.016	80.003	19.995	103.982	19.784	18.409	0.506
370.500	266.239	80.004	19.995	103.984	19.783	18.452	0.494
371.000	266.455	80.004	19.995	103.988	19.780	18.696	0.459
371.500	266.743	80.002	19.995	103.989	19.777	18.899	0.472
372.000	266.972	80.004	19.994	103.994	19.776	18.980	0.511
372.500	267.208	80.003	19.994	103.997	19.776	18.974	0.491
373.000	267.508	80.005	19.995	103.996	19.772	19.261	0.500
373.500	267.725	80.003	19.994	103.994	19.768	19.503	0.527
374.000	267.976	80.004	19.994	103.995	19.768	19.492	0.493
374.500	268.209	80.004	19.994	103.996	19.765	19.719	0.476
375.000	268.461	80.005	19.994	103.998	19.761	20.003	0.485
375.500	268.750	80.004	19.994	104.003	19.764	19.766	0.513
376.000	268.953	80.004	19.994	104.008	19.764	19.821	0.516
376.500	269.185	80.004	19.994	104.009	19.758	20.247	0.463
377.000	269.466	80.003	19.994	104.011	19.759	20.141	0.474
377.500	269.685	80.004	19.995	104.013	19.756	20.379	0.506
378.000	269.955	80.003	19.995	104.014	19.753	20.567	0.495
378.500	270.210	80.005	19.992	104.014	19.751	20.690	0.507
379.000	270.504	80.004	19.995	104.014	19.748	20.918	0.537
379.500	270.702	80.002	19.994	104.014	19.746	21.035	0.521
380.000	270.973	80.004	19.995	104.014	19.743	21.290	0.481
380.500	271.221	80.002	19.994	104.015	19.743	21.280	0.494
381.000	271.488	80.003	19.995	104.014	19.738	21.647	0.517
381.500	271.739	80.003	19.993	104.014	19.736	21.780	0.516
382.000	271.991	80.004	19.994	104.014	19.732	22.026	0.510
382.500	272.218	80.004	19.993	104.014	19.732	22.028	0.491
383.000	272.470	80.003	19.994	104.013	19.730	22.205	0.479
383.500	272.702	80.003	19.994	104.018	19.727	22.407	0.482
384.000	272.951	80.002	19.994	104.021	19.727	22.426	0.483
384.500	273.225	80.004	19.993	104.021	19.722	22.777	0.502
385.000	273.429	80.003	19.994	104.022	19.721	22.796	0.500
385.500	273.691	80.003	19.994	104.025	19.720	22.905	0.472
386.000	273.948	80.003	19.995	104.024	19.721	22.831	0.492
386.500	274.170	80.003	19.995	104.029	19.713	23.375	0.499
387.001	274.447	80.003	19.993	104.032	19.707	23.765	0.489
387.500	274.702	80.002	19.993	104.032	19.704	24.025	0.516
388.000	274.943	80.003	19.996	104.032	19.704	24.020	0.514
388.500	275.186	80.002	19.995	104.033	19.701	24.252	0.490
389.000	275.437	80.002	19.995	104.029	19.699	24.357	0.489
389.500	275.692	80.004	19.994	104.028	19.697	24.485	0.500
390.000	275.947	80.004	19.994	104.034	19.695	24.615	0.508
390.500	276.190	80.003	19.994	104.039	19.689	25.078	0.504
391.000	276.432	80.003	19.995	104.041	19.686	25.248	0.492
391.500	276.684	80.002	19.995	104.041	19.687	25.222	0.490
392.000	276.910	80.004	19.995	104.046	19.683	25.498	0.486
392.500	277.161	80.004	19.993	104.048	19.678	25.834	0.478
393.000	277.424	80.003	19.995	104.048	19.676	25.965	0.496
393.500	277.697	80.004	19.995	104.050	19.673	26.216	0.525
394.000	277.974	80.004	19.995	104.052	19.670	26.408	0.543
394.500	278.200	80.004	19.993	104.054	19.666	26.672	0.527
395.000	278.459	80.007	19.993	104.054	19.661	27.021	0.494
395.500	278.693	80.005	19.992	104.054	19.658	27.248	0.489
396.000	278.923	80.005	19.993	104.054	19.657	27.343	0.478
396.500	279.162	80.004	19.995	104.053	19.655	27.434	0.466
397.000	279.397	80.005	19.994	104.051	19.651	27.698	0.471
397.500	279.673	80.005	19.995	104.051	19.646	28.093	0.492
398.000	279.910	80.006	19.995	104.054	19.643	28.262	0.512
398.500	280.157	80.006	19.994	104.060	19.640	28.529	0.498
399.000	280.422	80.006	19.994	104.067	19.642	28.337	0.498
399.500	280.670	80.005	19.996	104.069	19.637	28.713	0.513
400.000	280.924	80.006	19.994	104.073	19.633	29.030	0.508
400.500	281.168	80.006	19.996	104.071	19.628	29.319	0.500
401.000	281.409	80.004	19.992	104.072	19.624	29.601	0.491
401.500	281.645	80.005	19.994	104.073	19.621	29.833	0.481
402.000	281.917	80.006	19.994	104.077	19.620	29.917	0.493
402.500	282.198	80.005	19.993	104.080	19.611	30.534	0.530
403.000	282.414	80.004	19.995	104.086	19.612	30.464	0.525
403.500	282.693	80.007	19.994	104.086	19.606	30.888	0.496
404.000	282.902	80.006	19.993	104.085	19.603	31.073	0.492
404.501	283.180	80.007	19.993	104.086	19.602	31.197	0.488
405.000	283.488	80.006	19.994	104.088	19.595	31.679	0.536
405.500	283.713	80.005	19.994	104.088	19.594	31.738	0.559
406.000	283.956	80.005	19.995	104.088	19.588	32.192	0.500
406.500	284.195	80.007	19.994	104.089	19.584	32.406	0.475
407.000	284.443	80.004	19.994	104.089	19.583	32.495	0.485
407.500	284.713	80.006	19.994	104.089	19.577	32.944	0.503
408.000	284.916	80.005	19.994	104.089	19.575	33.073	0.495
408.500	285.159	80.005	19.994	104.089	19.568	33.572	0.459
409.000	285.427	80.003	19.992	104.090	19.567	33.655	0.479
409.500	285.694	80.005	19.994	104.095	19.562	33.978	0.523
410.001	285.949	80.007	19.995	104.102	19.558	34.270	0.528
410.500	286.208	80.005	19.995	104.108	19.554	34.576	0.518
411.000	286.442	80.005	19.997	104.113	19.554	34.519	0.504
411.500	286.711	80.004	19.994	104.120	19.546	35.084	0.498
412.000	286.990	80.006	19.996	104.121	19.543	35.316	0.525
412.500	287.237	80.002	19.994	104.120	19.540	35.535	0.537
413.000	287.462	80.005	19.994	104.120	19.536	35.848	0.499
413.500	287.697	80.006	19.994	104.121	19.532	36.064	0.465
414.000	288.008	80.006	19.995	104.122	19.528	36.407	0.503
414.500	288.219	80.005	19.997	104.121	19.524	36.627	0.534
415.000	288.495	80.005	19.994	104.122	19.521	36.885	0.504
415.500	288.763	80.005	19.995	104.122	19.516	37.220	0.516
416.000	289.011	80.006	19.995	104.123	19.512	37.533	0.530
416.500	289.245	80.005	19.995	104.121	19.506	37.947	0.499
417.000	289.467	80.005	19.994	104.122	19.501	38.305	0.469
417.501	289.738	80.006	19.993	104.123	19.499	38.451	0.474
418.001	289.985	80.005	19.993	104.123	19.496	38.666	0.505
418.500	290.237	80.005	19.994	104.125	19.492	38.905	0.509
419.000	290.520	80.006	19.993	104.128	19.486	39.315	0.517
419.500	290.756	80.006	19.996	104.131	19.484	39.453	0.527
420.000	291.018	80.006	19.996	104.135	19.476	40.062	0.509
420.500	291.308	80.005	19.995	104.138	19.475	40.073	0.525
421.000	291.526	80.008	19.993	104.141	19.469	40.494	0.530
421.500	291.819	80.006	19.996	104.145	19.463	40.921	0.510
422.000	292.064	80.007	19.994	104.144	19.459	41.200	0.524
422.500	292.310	80.005	19.994	104.140	19.459	41.236	0.515
423.000	292.556	80.007	19.993	104.138	19.454	41.584	0.492
423.500	292.835	80.006	19.993	104.136	19.447	42.090	0.508
424.000	293.059	80.007	19.995	104.138	19.444	42.307	0.514
424.500	293.322	80.006	19.995	104.142	19.438	42.729	0.495
425.000	293.571	80.006	19.995	104.150	19.436	42.864	0.500
425.500	293.826	80.006	19.995	104.152	19.431	43.170	0.508
426.000	294.073	80.006	19.995	104.158	19.427	43.490	0.502
426.500	294.310	80.005	19.995	104.157	19.421	43.879	0.492
427.000	294.575	80.006	19.995	104.160	19.419	44.021	0.493
427.500	294.817	80.006	19.995	104.161	19.416	44.275	0.505
428.000	295.077	80.004	19.994	104.164	19.411	44.574	0.505
428.500	295.376	80.004	19.994	104.166	19.408	44.829	0.531
429.000	295.593	80.005	19.993	104.169	19.402	45.259	0.538
429.500	295.844	80.003	19.995	104.172	19.396	45.648	0.492
430.000	296.114	80.005	19.994	104.171	19.392	45.954	0.494
430.500	296.340	80.004	19.995	104.171	19.389	46.165	0.508
431.000	296.590	80.004	19.994	104.171	19.383	46.550	0.486
431.500	296.836	80.001	19.994	104.169	19.382	46.685	0.486
432.000	297.102	80.004	19.995	104.169	19.375	47.149	0.504
432.500	297.335	80.004	19.994	104.171	19.374	47.217	0.506
433.000	297.602	80.003	19.995	104.173	19.368	47.645	0.499
433.500	297.815	80.003	19.995	104.177	19.364	47.911	0.490
434.000	298.066	80.004	19.994	104.183	19.358	48.326	0.472
434.500	298.321	80.004	19.994	104.183	19.352	48.791	0.485
435.000	298.588	80.004	19.994	104.182	19.349	48.995	0.514
435.500	298.842	80.005	19.995	104.183	19.348	49.045	0.521
436.000	299.132	80.005	19.992	104.181	19.344	49.342	0.532
436.500	299.363	80.005	19.998	104.175	19.340	49.603	0.533
437.000	299.610	80.003	19.996	104.176	19.334	49.989	0.499
437.500	299.824	80.004	19.997	104.177	19.334	50.002	0.469
438.000	300.113	80.003	19.996	104.177	19.328	50.410	0.482
438.501	300.337	80.004	19.994	104.178	19.324	50.759	0.508
439.000	300.582	80.004	19.996	104.183	19.319	51.083	0.491
439.500	300.845	80.003	19.992	104.188	19.314	51.392	0.489
440.000	301.115	80.003	19.992	104.191	19.310	51.694	0.520
440.500	301.355	80.002	19.993	104.194	19.311	51.667	0.521
441.000	301.620	80.003	19.995	104.200	19.304	52.102	0.508
441.500	301.860	80.003	19.994	104.204	19.299	52.503	0.505
442.000	302.130	80.005	19.994	104.205	19.294	52.820	0.507
442.500	302.362	80.003	19.994	104.208	19.291	53.047	0.507
443.000	302.632	80.003	19.993	104.212	19.285	53.458	0.502
443.500	302.881	80.003	19.995	104.211	19.282	53.706	0.510
444.000	303.094	80.002	19.995	104.211	19.279	53.888	0.490
444.500	303.325	80.005	19.995	104.210	19.276	54.130	0.453
445.000	303.595	80.004	19.995	104.209	19.271	54.418	0.472
445.500	303.854	80.004	19.992	104.208	19.267	54.740	0.515
446.000	304.098	80.002	19.995	104.208	19.265	54.901	0.516
446.500	304.325	80.004	19.994	104.208	19.262	55.116	0.487
447.000	304.551	80.004	19.994	104.208	19.256	55.475	0.462
447.500	304.840	80.003	19.996	104.209	19.254	55.627	0.484
448.001	305.083	80.004	19.994	104.209	19.250	55.927	0.524
448.501	305.335	80.004	19.993	104.208	19.249	56.015	0.513
449.000	305.551	80.005	19.995	104.208	19.240	56.618	0.481
449.500	305.840	80.003	19.995	104.208	19.240	56.663	0.487
450.000	306.088	80.006	19.994	104.208	19.240	56.649	0.521
450.500	306.349	80.002	19.997	104.209	19.235	56.979	0.522
451.001	306.606	80.004	19.996	104.211	19.233	57.113	0.513
451.500	306.825	80.002	19.996	104.210	19.230	57.293	0.497
452.000	307.110	80.003	19.994	104.211	19.229	57.376	0.490
452.500	307.357	80.002	19.996	104.213	19.223	57.826	0.518
453.000	307.579	80.001	19.994	104.214	19.222	57.880	0.501
453.500	307.832	80.002	19.996	104.215	19.217	58.238	0.472
454.000	308.080	80.002	19.996	104.218	19.215	58.370	0.488
454.500	308.321	80.003	19.997	104.220	19.211	58.693	0.495
455.000	308.550	80.003	19.995	104.218	19.207	58.918	0.480
455.500	308.827	80.003	19.996	104.218	19.207	58.951	0.488
456.000	309.053	80.003	19.994	104.216	19.202	59.257	0.504
456.500	309.282	80.002	19.995	104.216	19.203	59.251	0.479
457.000	309.520	80.004	19.995	104.215	19.198	59.535	0.461
457.500	309.794	80.004	19.995	104.218	19.197	59.647	0.490
458.000	309.994	80.004	19.996	104.221	19.199	59.476	0.493
458.500	310.255	80.003	19.995	104.225	19.193	59.944	0.467
459.000	310.567	80.004	19.995	104.227	19.190	60.136	0.517
459.500	310.747	80.004	19.995	104.225	19.189	60.181	0.533
460.000	311.014	80.002	19.996	104.223	19.186	60.424	0.469
460.500	311.260	80.002	19.994	104.218	19.181	60.746	0.480
461.000	311.527	80.003	19.994	104.213	19.184	60.578	0.513
461.500	311.765	80.003	19.994	104.209	19.180	60.837	0.510
462.000	312.013	80.004	19.995	104.207	19.181	60.783	0.496
462.500	312.280	80.003	19.994	104.205	19.178	60.944	0.501
463.000	312.510	80.005	19.994	104.211	19.178	60.945	0.506
463.500	312.798	80.004	19.994	104.214	19.177	61.043	0.507
464.000	313.034	80.004	19.995	104.218	19.175	61.141	0.521
464.500	313.297	80.003	19.994	104.219	19.171	61.472	0.512
465.000	313.518	80.005	19.994	104.219	19.173	61.314	0.492
465.500	313.763	80.005	19.995	104.213	19.171	61.456	0.475
466.000	314.060	80.005	19.995	104.210	19.172	61.389	0.504
466.500	314.278	80.004	19.994	104.206	19.169	61.598	0.528
467.000	314.536	80.003	19.995	104.205	19.170	61.520	0.495
467.500	314.752	80.004	19.994	104.205	19.170	61.542	0.475
468.000	315.022	80.004	19.994	104.202	19.171	61.421	0.480
468.500	315.287	80.004	19.994	104.201	19.169	61.561	0.511
469.000	315.516	80.003	19.993	104.201	19.172	61.392	0.515
469.500	315.730	80.003	19.995	104.202	19.168	61.647	0.469
470.000	316.005	80.003	19.993	104.205	19.170	61.468	0.466
470.500	316.278	80.004	19.996	104.208	19.172	61.356	0.518
471.000	316.501	80.005	19.995	104.208	19.171	61.429	0.522
471.500	316.735	80.004	19.993	104.208	19.172	61.321	0.477
472.000	316.975	80.005	19.994	104.207	19.176	61.095	0.466
472.500	317.241	80.004	19.994	104.204	19.178	60.887	0.489
473.000	317.456	80.005	19.995	104.201	19.179	60.814	0.493
473.500	317.687	80.005	19.995	104.196	19.180	60.774	0.464
474.000	317.978	80.003	19.996	104.191	19.182	60.599	0.484
474.500	318.226	80.005	19.993	104.185	19.183	60.548	0.530
475.000	318.474	80.006	19.995	104.178	19.184	60.516	0.518
475.500	318.707	80.005	19.994	104.173	19.188	60.219	0.489
476.000	318.963	80.005	19.994	104.171	19.189	60.156	0.485
476.500	319.210	80.005	19.994	104.168	19.193	59.885	0.496
477.000	319.482	80.006	19.995	104.166	19.197	59.581	0.511
477.501	319.693	80.004	19.993	104.165	19.196	59.649	0.501
478.000	319.958	80.006	19.996	104.165	19.196	59.610	0.479
478.500	320.161	80.005	19.994	104.166	19.203	59.119	0.472
479.000	320.424	80.005	19.993	104.162	19.210	58.629	0.467
479.500	320.636	80.006	19.992	104.155	19.209	58.719	0.471
480.000	320.953	80.006	19.995	104.148	19.212	58.509	0.502
480.500	321.209	80.005	19.994	104.140	19.215	58.259	0.551
481.000	321.421	80.006	19.994	104.132	19.222	57.755	0.521
481.500	321.673	80.004	19.993	104.127	19.227	57.458	0.466
482.000	321.882	80.005	19.996	104.126	19.231	57.128	0.462
482.500	322.149	80.006	19.994	104.123	19.236	56.828	0.469
483.000	322.368	80.004	19.995	104.118	19.241	56.421	0.481
483.500	322.612	80.004	19.996	104.110	19.243	56.287	0.474
484.000	322.871	80.006	19.995	104.103	19.249	55.904	0.483
484.500	323.148	80.004	19.996	104.096	19.254	55.511	0.519
485.000	323.340	80.004	19.995	104.092	19.259	55.180	0.503
485.501	323.610	80.005	19.994	104.088	19.266	54.661	0.466
486.000	323.897	80.005	19.995	104.086	19.272	54.259	0.509
486.500	324.107	80.004	19.993	104.085	19.282	53.548	0.527
487.000	324.331	80.005	19.995	104.085	19.283	53.506	0.466
487.500	324.629	80.004	19.995	104.082	19.292	52.851	0.478
488.000	324.859	80.004	19.995	104.082	19.299	52.390	0.525
488.500	325.118	80.006	19.993	104.079	19.304	51.992	0.508
489.000	325.362	80.005	19.996	104.072	19.313	51.399	0.496
489.500	325.587	80.004	19.994	104.064	19.324	50.598	0.486
490.000	325.864	80.004	19.995	104.059	19.328	50.347	0.486
490.500	326.116	80.005	19.993	104.049	19.335	49.796	0.516
491.000	326.319	80.004	19.993	104.041	19.347	49.016	0.492
491.500	326.586	80.005	19.993	104.033	19.354	48.495	0.462
492.000	326.827	80.004	19.994	104.026	19.361	48.007	0.489
492.500	327.089	80.004	19.995	104.019	19.370	47.385	0.506
493.000	327.330	80.005	19.994	104.014	19.373	47.147	0.503
493.500	327.581	80.004	19.995	104.011	19.382	46.494	0.498
494.000	327.820	80.005	19.992	104.011	19.395	45.589	0.491
494.500	328.064	80.006	19.994	104.006	19.402	45.135	0.486
495.000	328.321	80.005	19.994	104.000	19.413	44.379	0.492
495.500	328.566	80.005	19.995	103.993	19.421	43.771	0.501
496.000	328.820	80.005	19.994	103.986	19.431	43.099	0.501
496.500	329.053	80.005	19.995	103.980	19.442	42.324	0.493
497.000	329.337	80.004	19.994	103.978	19.451	41.701	0.501
497.500	329.533	80.005	19.992	103.977	19.459	41.131	0.498
498.000	329.794	80.005	19.994	103.977	19.469	40.437	0.469
498.500	330.038	80.005	19.994	103.977	19.480	39.679	0.481
499.000	330.282	80.006	19.994	103.974	19.491	38.863	0.496
499.500	330.524	80.006	19.994	103.968	19.500	38.249	0.487
500.000	330.765	80.007	19.994	103.964	19.511	37.465	0.485
500.501	331.023	80.005	19.995	103.957	19.517	37.060	0.491
501.000	331.281	80.006	19.995	103.949	19.527	36.358	0.507
501.500	331.520	80.005	19.996	103.943	19.534	35.879	0.507
502.000	331.787	80.005	19.993	103.941	19.550	34.744	0.502
502.500	331.994	80.006	19.993	103.936	19.558	34.209	0.490
503.000	332.278	80.007	19.994	103.935	19.569	33.390	0.482
503.501	332.562	80.006	19.992	103.934	19.578	32.752	0.529
504.001	332.763	80.005	19.994	103.934	19.588	32.060	0.526
504.500	333.029	80.007	19.993	103.928	19.597	31.472	0.476
505.000	333.258	80.007	19.994	103.921	19.606	30.824	0.481
505.500	333.516	80.006	19.992	103.915	19.618	30.021	0.491
506.000	333.794	80.006	19.993	103.909	19.625	29.463	0.511
506.500	334.053	80.006	19.994	103.902	19.636	28.753	0.536
507.000	334.266	80.006	19.994	103.901	19.646	28.022	0.505
507.500	334.547	80.005	19.995	103.900	19.650	27.753	0.483
508.000	334.790	80.006	19.993	103.898	19.659	27.099	0.509
508.500	335.043	80.005	19.994	103.898	19.667	26.566	0.510
509.000	335.316	80.004	19.992	103.898	19.676	25.895	0.511
509.500	335.531	80.004	19.994	103.896	19.684	25.364	0.507
510.000	335.754	80.003	19.994	103.896	19.694	24.678	0.463
510.500	336.050	80.004	19.995	103.896	19.699	24.280	0.479
511.000	336.281	80.003	19.995	103.895	19.708	23.698	0.523
511.500	336.519	80.004	19.993	103.895	19.716	23.117	0.497
512.000	336.807	80.004	19.994	103.895	19.724	22.552	0.497
512.500	337.039	80.003	19.995	103.891	19.728	22.281	0.523
513.000	337.304	80.003	19.993	103.888	19.738	21.596	0.509
513.500	337.533	80.003	19.995	103.881	19.744	21.164	0.495
514.000	337.795	80.003	19.995	103.879	19.752	20.576	0.492
514.500	338.066	80.001	19.995	103.879	19.758	20.185	0.512
515.000	338.260	80.003	19.995	103.881	19.766	19.625	0.499
515.501	338.539	80.003	19.996	103.884	19.771	19.239	0.469
516.000	338.810	80.004	19.993	103.890	19.775	18.962	0.512
516.500	339.046	80.002	19.994	103.889	19.782	18.507	0.528
517.000	339.292	80.003	19.994	103.888	19.788	18.055	0.494
517.500	339.570	80.002	19.994	103.882	19.796	17.516	0.503
518.000	339.798	80.003	19.996	103.877	19.801	17.187	0.515
518.500	340.059	80.003	19.993	103.876	19.803	17.059	0.497
519.000	340.345	80.003	19.993	103.875	19.809	16.635	0.518
519.500	340.576	80.003	19.994	103.870	19.813	16.329	0.532
520.000	340.817	80.003	19.995	103.872	19.817	16.056	0.495
520.500	341.072	80.003	19.995	103.871	19.822	15.694	0.484
521.000	341.312	80.003	19.994	103.866	19.825	15.483	0.496
521.500	341.555	80.001	19.994	103.866	19.831	15.064	0.489
522.001	341.777	80.003	19.993	103.869	19.837	14.668	0.474
522.500	342.070	80.002	19.995	103.867	19.838	14.594	0.490
523.000	342.313	80.004	19.995	103.867	19.842	14.312	0.525
523.500	342.554	80.003	19.995	103.873	19.843	14.236	0.510
524.000	342.811	80.003	19.995	103.875	19.849	13.820	0.491
524.500	343.029	80.003	19.994	103.871	19.854	13.457	0.486
525.000	343.283	80.003	19.996	103.873	19.854	13.480	0.474
525.500	343.570	80.004	19.994	103.873	19.861	12.942	0.507
526.000	343.819	80.004	19.994	103.865	19.865	12.719	0.539
526.500	344.046	80.004	19.995	103.859	19.866	12.642	0.506
527.000	344.304	80.002	19.994	103.860	19.867	12.541	0.480
527.500	344.532	80.003	19.994	103.859	19.871	12.268	0.485
528.000	344.793	80.005	19.994	103.861	19.874	12.079	0.487
528.500	345.085	80.003	19.995	103.862	19.878	11.777	0.521
529.000	345.324	80.003	19.993	103.862	19.881	11.572	0.542
529.500	345.572	80.004	19.994	103.861	19.881	11.568	0.509
530.000	345.827	80.003	19.994	103.861	19.883	11.444	0.496
530.500	346.096	80.003	19.996	103.858	19.885	11.264	0.514
531.000	346.307	80.003	19.995	103.856	19.889	11.040	0.502
531.500	346.596	80.004	19.994	103.856	19.891	10.902	0.490
532.000	346.809	80.004	19.996	103.856	19.892	10.800	0.501
532.500	347.051	80.004	19.995	103.858	19.896	10.517	0.479
533.000	347.354	80.002	19.995	103.860	19.899	10.339	0.500
533.500	347.546	80.003	19.995	103.860	19.899	10.305	0.519
534.000	347.819	80.003	19.993	103.860	19.900	10.251	0.480
534.500	348.082	80.002	19.995	103.862	19.904	9.986	0.501
535.001	348.318	80.003	19.995	103.861	19.903	10.017	0.517
535.500	348.549	80.002	19.994	103.864	19.906	9.839	0.483
536.000	348.832	80.004	19.995	103.864	19.904	9.975	0.490
536.500	349.098	80.003	19.993	103.862	19.908	9.696	0.531
537.000	349.359	80.003	19.995	103.858	19.905	9.872	0.538
537.500	349.585	80.004	19.995	103.855	19.908	9.655	0.507
538.000	349.875	80.003	19.995	103.852	19.913	9.302	0.501
538.500	350.098	80.004	19.995	103.854	19.913	9.345	0.515
539.001	350.345	80.003	19.995	103.858	19.913	9.324	0.491
539.500	350.610	80.004	19.995	103.859	19.915	9.165	0.491
540.000	350.860	80.004	19.997	103.859	19.916	9.144	0.514
540.500	351.110	80.003	19.995	103.859	19.917	9.040	0.508
541.000	351.372	80.001	19.995	103.857	19.920	8.827	0.506
541.500	351.619	80.004	19.996	103.855	19.920	8.842	0.510
542.000	351.884	80.002	19.995	103.855	19.920	8.848	0.510
542.500	352.131	80.004	19.996	103.855	19.922	8.676	0.512
543.000	352.397	80.002	19.996	103.854	19.925	8.498	0.512
543.501	352.667	80.002	19.997	103.854	19.921	8.777	0.525
544.001	352.890	80.002	19.995	103.853	19.925	8.488	0.515
544.501	353.133	80.003	19.995	103.854	19.921	8.746	0.480
545.000	353.435	80.002	19.996	103.855	19.924	8.566	0.506
545.500	353.676	80.002	19.997	103.860	19.926	8.397	0.544
546.000	353.968	80.002	19.995	103.863	19.931	8.086	0.538
546.500	354.203	80.003	19.996	103.864	19.928	8.287	0.530
547.000	354.452	80.003	19.996	103.863	19.928	8.281	0.505
547.500	354.693	80.003	19.996	103.862	19.928	8.274	0.487
548.000	354.942	80.003	19.994	103.857	19.933	7.916	0.490
548.500	355.200	80.003	19.996	103.853	19.933	7.914	0.499
549.000	355.447	80.002	19.995	103.852	19.933	7.955	0.506
549.500	355.647	80.004	19.996	103.852	19.934	7.873	0.476
550.000	355.922	80.003	19.995	103.852	19.935	7.759	0.461
550.500	356.169	80.003	19.995	103.852	19.936	7.718	0.498
551.000	356.443	80.004	19.996	103.852	19.938	7.560	0.521
551.500	356.660	80.003	19.995	103.855	19.934	7.864	0.506
552.000	356.956	80.002	19.995	103.855	19.940	7.434	0.502
552.500	357.202	80.004	19.995	103.855	19.938	7.556	0.528
553.000	357.413	80.003	19.996	103.855	19.940	7.455	0.500
553.500	357.707	80.004	19.997	103.855	19.942	7.306	0.481
554.000	357.956	80.004	19.995	103.855	19.942	7.320	0.524
554.500	358.198	80.004	19.996	103.856	19.944	7.185	0.517
555.000	358.428	80.005	19.995	103.856	19.944	7.161	0.482
555.500	358.704	80.004	19.994	103.856	19.943	7.225	0.489
556.000	358.949	80.006	19.994	103.856	19.944	7.148	0.513
556.500	359.179	80.006	19.994	103.855	19.945	7.092	0.498
557.000	359.436	80.006	19.995	103.854	19.945	7.090	0.481
557.500	359.686	80.006	19.994	103.855	19.946	7.038	0.497
558.000	359.915	80.005	19.995	103.857	19.947	6.929	0.493
558.500	360.161	80.006	19.993	103.857	19.945	7.096	0.477
559.000	360.424	80.006	19.994	103.857	19.947	6.976	0.493
559.501	360.675	80.005	19.994	103.857	19.951	6.674	0.512
560.000	360.932	80.006	19.994	103.857	19.951	6.707	0.511
560.500	361.186	80.005	19.994	103.856	19.952	6.585	0.510
561.000	361.440	80.005	19.994	103.856	19.951	6.651	0.510
561.500	361.688	80.005	19.995	103.855	19.952	6.635	0.505
562.000	361.922	80.005	19.992	103.856	19.952	6.616	0.491
562.500	362.181	80.005	19.994	103.856	19.952	6.626	0.487
563.000	362.441	80.005	19.994	103.856	19.953	6.550	0.506
563.500	362.706	80.005	19.994	103.856	19.955	6.388	0.522
564.000	362.933	80.005	19.995	103.856	19.953	6.504	0.509
564.500	363.200	80.004	19.992	103.856	19.955	6.374	0.493
565.000	363.453	80.004	19.994	103.856	19.959	6.128	0.507
565.500	363.696	80.005	19.993	103.856	19.962	5.931	0.508
566.000	363.955	80.004	19.994	103.856	19.955	6.378	0.499
566.500	364.213	80.003	19.994	103.857	19.956	6.337	0.510
567.000	364.437	80.005	19.994	103.857	19.959	6.107	0.500
567.500	364.732	80.005	19.994	103.857	19.958	6.200	0.500
568.000	364.965	80.005	19.993	103.857	19.957	6.271	0.524
568.500	365.205	80.005	19.995	103.857	19.957	6.231	0.501
569.000	365.481	80.005	19.993	103.856	19.960	6.030	0.495
569.500	365.733	80.005	19.994	103.857	19.958	6.186	0.522
570.000	365.993	80.006	19.994	103.856	19.963	5.817	0.520
570.500	366.208	80.004	19.994	103.856	19.960	6.067	0.493
571.000	366.448	80.006	19.993	103.856	19.961	5.989	0.465
571.500	366.706	80.006	19.995	103.856	19.960	6.012	0.476
572.000	366.992	80.005	19.994	103.856	19.961	5.939	0.521
572.500	367.210	80.004	19.994	103.857	19.960	6.051	0.524
573.000	367.492	80.005	19.994	103.858	19.964	5.769	0.502
573.500	367.753	80.003	19.993	103.858	19.960	6.030	0.522
574.000	367.990	80.004	19.995	103.858	19.960	6.022	0.520
574.500	368.272	80.004	19.994	103.858	19.964	5.743	0.508
575.000	368.517	80.006	19.994	103.858	19.963	5.854	0.523
575.500	368.743	80.005	19.995	103.858	19.964	5.751	0.499
576.000	369.007	80.005	19.993	103.858	19.961	5.974	0.480
576.500	369.247	80.004	19.993	103.858	19.966	5.641	0.497
577.000	369.490	80.005	19.996	103.858	19.965	5.703	0.494
577.500	369.755	80.005	19.994	103.858	19.961	5.999	0.496
578.000	370.001	80.004	19.993	103.857	19.962	5.890	0.509
578.500	370.270	80.003	19.994	103.855	19.966	5.643	0.512
579.000	370.529	80.005	19.991	103.855	19.964	5.759	0.521
579.500	370.773	80.005	19.992	103.856	19.964	5.790	0.516
580.000	370.994	80.005	19.993	103.856	19.967	5.577	0.484
580.500	371.266	80.005	19.994	103.856	19.968	5.484	0.479
581.000	371.494	80.005	19.994	103.859	19.969	5.442	0.496
581.500	371.758	80.007	19.993	103.860	19.966	5.641	0.496
582.000	372.016	80.005	19.993	103.859	19.970	5.343	0.507
582.500	372.259	80.006	19.993	103.860	19.965	5.679	0.512
583.000	372.522	80.004	19.994	103.859	19.966	5.596	0.503
583.500	372.788	80.005	19.993	103.859	19.969	5.436	0.517
584.000	373.025	80.006	19.994	103.858	19.967	5.561	0.516
584.500	373.312	80.005	19.993	103.858	19.969	5.385	0.514
585.000	373.589	80.007	19.993	103.858	19.968	5.467	0.544
585.500	373.802	80.006	19.993	103.857	19.969	5.434	0.527
586.000	374.040	80.006	19.993	103.857	19.969	5.430	0.470
586.501	374.275	80.007	19.992	103.856	19.969	5.414	0.462
587.001	374.555	80.007	19.994	103.855	19.970	5.376	0.494
587.500	374.793	80.007	19.993	103.855	19.966	5.621	0.517
588.000	375.066	80.006	19.991	103.855	19.967	5.548	0.515
588.500	375.290	80.006	19.994	103.855	19.970	5.368	0.504
589.000	375.549	80.004	19.991	103.854	19.969	5.418	0.490
589.500	375.812	80.005	19.994	103.854	19.971	5.302	0.503
590.000	376.047	80.006	19.993	103.854	19.970	5.349	0.510
590.500	376.316	80.006	19.993	103.854	19.975	5.006	0.501
591.000	376.575	80.005	19.995	103.854	19.978	4.770	0.516
591.500	376.770	80.005	19.993	103.854	19.972	5.173	0.491
592.000	377.085	80.004	19.993	103.854	19.974	5.097	0.482
592.500	377.305	80.005	19.995	103.854	19.979	4.695	0.523
593.000	377.536	80.004	19.994	103.853	19.975	5.004	0.493
593.500	377.782	80.004	19.993	103.853	19.975	5.006	0.464
594.001	378.065	80.004	19.993	103.852	19.978	4.766	0.503
594.500	378.315	80.005	19.995	103.851	19.974	5.095	0.531
595.000	378.522	80.004	19.994	103.852	19.976	4.909	0.495
595.500	378.791	80.004	19.993	103.852	19.977	4.867	0.467
596.000	379.044	80.004	19.993	103.852	19.972	5.201	0.499
596.500	379.296	80.004	19.994	103.853	19.975	5.004	0.513
597.000	379.560	80.003	19.994	103.854	19.976	4.930	0.511
597.500	379.805	80.003	19.992	103.854	19.973	5.110	0.513
598.000	380.053	80.004	19.992	103.854	19.978	4.793	0.501
598.500	380.346	80.003	19.992	103.854	19.977	4.835	0.517
599.000	380.553	80.003	19.994	103.855	19.974	5.087	0.521
599.500	380.755	80.004	19.993	103.855	19.977	4.828	0.455
600.000	381.046	80.004	19.994	103.855	19.975	4.999	0.452
600.500	381.323	80.004	19.993	103.855	19.975	4.973	0.531
601.000	381.554	80.003	19.995	103.854	19.978	4.766	0.538
601.500	381.781	80.004	19.994	103.854	19.979	4.726	0.483
602.000	382.094	80.003	19.994	103.853	19.980	4.615	0.499
602.500	382.323	80.003	19.995	103.854	19.976	4.925	0.541
603.000	382.522	80.003	19.994	103.853	19.980	4.648	0.484
603.500	382.787	80.004	19.994	103.854	19.981	4.544	0.446
604.000	383.066	80.005	19.995	103.851	19.980	4.640	0.505
604.500	383.343	80.004	19.995	103.848	19.979	4.714	0.550
605.000	383.603	80.003	19.996	103.845	19.981	4.571	0.546
605.500	383.819	80.004	19.994	103.843	19.979	4.689	0.506
606.000	384.037	80.004	19.995	103.843	19.980	4.617	0.455
606.500	384.376	80.004	19.995	103.846	19.978	4.811	0.496
607.000	384.546	80.004	19.995	103.849	19.979	4.679	0.533
607.500	384.829	80.004	19.995	103.844	19.980	4.650	0.481
608.000	385.094	80.004	19.996	103.843	19.981	4.565	0.500
608.500	385.302	80.004	19.995	103.843	19.978	4.805	0.511
609.000	385.585	80.004	19.995	103.843	19.980	4.627	0.482
609.500	385.851	80.004	19.995	103.842	19.981	4.577	0.520
610.000	386.028	80.002	19.994	103.850	19.982	4.499	0.496
610.500	386.275	80.004	19.995	103.854	19.976	4.888	0.434
611.000	386.587	80.003	19.994	103.854	19.983	4.443	0.492
611.500	386.778	80.004	19.994	103.854	19.979	4.687	0.531
612.000	387.042	80.004	19.995	103.854	19.983	4.466	0.479
612.500	387.343	80.005	19.994	103.854	19.979	4.683	0.510
613.000	387.472	80.004	19.995	103.850	19.985	4.273	0.498
613.500	387.841	80.004	19.995	103.850	19.978	4.795	0.464
614.000	388.067	80.005	19.995	103.849	19.977	4.824	0.546
614.500	388.279	80.004	19.995	103.849	19.984	4.356	0.516
615.000	388.549	80.004	19.995	103.850	19.977	4.884	0.460
615.500	388.833	80.005	19.995	103.853	19.990	3.952	0.518
616.000	389.053	80.005	19.994	103.853	19.987	4.137	0.529
616.500	389.255	80.004	19.995	103.853	19.977	4.836	0.463
617.000	389.619	80.004	19.994	103.853	19.980	4.613	0.494
617.500	389.791	80.004	19.995	103.852	19.988	4.066	0.551
618.000	389.989	80.004	19.995	103.851	19.990	3.971	0.453
618.500	390.267	80.004	19.994	103.847	19.984	4.373	0.423
619.000	390.580	80.004	19.994	103.844	19.977	4.863	0.534
619.500	390.838	80.004	19.995	103.844	19.977	4.820	0.581
620.000	391.064	80.003	19.997	103.844	19.979	4.722	0.527
620.500	391.275	80.002	19.994	103.847	19.980	4.640	0.460
621.001	391.495	80.004	19.996	103.851	19.986	4.242	0.434
621.500	391.761	80.004	19.994	103.854	19.987	4.165	0.459
622.000	392.096	80.003	19.995	103.854	19.982	4.513	0.544
622.500	392.244	80.003	19.994	103.852	19.993	3.757	0.542
623.000	392.543	80.003	19.995	103.847	19.989	4.041	0.465
623.500	392.684	80.003	19.995	103.845	19.995	3.608	0.444
624.000	393.118	80.004	19.994	103.844	19.989	4.043	0.508
624.500	393.212	80.002	19.994	103.843	19.991	3.873	0.551
625.000	393.538	80.003	19.995	103.844	19.988	4.078	0.474
625.500	393.782	80.002	19.994	103.849	19.996	3.509	0.495
626.000	394.060	80.003	19.995	103.851	19.984	4.339	0.546
626.500	394.514	80.002	19.996	103.852	19.989	4.037	0.627
627.000	394.540	80.003	19.995	103.848	19.991	3.874	0.606
627.500	394.462	80.003	19.994	103.849	19.984	4.335	0.214
628.000	394.805	80.003	19.995	103.846	19.997	3.487	0.106
628.500	395.433	80.004	19.995	103.847	19.984	4.385	0.618
629.000	395.490	80.002	19.994	103.847	19.993	3.745	0.828
629.500	396.025	80.004	19.994	103.846	19.990	3.933	0.639
630.000	396.098	80.003	19.995	103.846	19.987	4.137	0.600
630.500	396.093	80.003	19.994	103.846	19.986	4.203	0.338
631.000	396.824	80.004	19.995	103.846	19.988	4.081	0.397
631.500	397.246	80.003	19.995	103.844	19.985	4.296	0.940
632.000	397.096	80.003	19.995	103.849	19.988	4.104	0.713
632.500	397.004	80.002	19.996	103.850	19.991	3.890	0.015
633.000	397.199	80.003	19.995	103.853	19.988	4.114	-0.070
633.501	397.593	80.005	19.994	103.853	19.988	4.072	0.346
634.000	397.869	80.004	19.995	103.853	19.990	3.962	0.630
634.500	398.289	80.004	19.994	103.854	19.988	4.070	0.683
635.000	398.325	80.003	19.995	103.851	19.988	4.093	0.576
635.500	399.110	80.004	19.995	103.851	19.988	4.070	0.638
636.000	398.887	80.004	19.994	103.851	19.989	3.996	0.691
636.500	399.250	80.005	19.994	103.852	19.989	4.027	0.351
637.000	399.694	80.005	19.995	103.851	19.989	3.980	0.474
637.500	400.009	80.004	19.994	103.853	19.989	4.033	0.783
638.000	399.923	80.004	19.993	103.849	19.989	4.010	0.494
638.500	400.591	80.004	19.992	103.846	19.989	4.033	0.406
639.000	400.267	80.004	19.995	103.846	19.993	3.712	0.463
639.500	400.907	80.004	19.995	103.846	19.989	3.979	0.330
640.000	401.167	80.004	19.996	103.847	19.993	3.706	0.608
640.500	401.283	80.003	19.994	103.852	19.994	3.687	0.638
641.000	401.789	80.004	19.994	103.849	19.995	3.617	0.499
641.500	401.600	80.004	19.995	103.845	19.990	3.963	0.469
642.000	402.353	80.004	19.996	103.841	19.993	3.722	0.441
642.500	402.286	80.004	19.993	103.841	19.990	3.919	0.625
643.000	402.667	80.003	19.995	103.841	19.990	3.917	0.500
643.500	402.883	80.005	19.993	103.845	19.991	3.849	0.455
644.000	403.100	80.004	19.994	103.847	19.995	3.586	0.515
644.500	403.388	80.004	19.995	103.851	19.993	3.737	0.469
645.000	403.589	80.005	19.993	103.850	19.992	3.799	0.497
645.500	403.917	80.004	19.993	103.848	19.993	3.737	0.509
646.000	404.057	80.004	19.993	103.845	19.991	3.880	0.498
646.500	404.397	80.004	19.994	103.844	19.990	3.931	0.474
647.000	404.733	80.003	19.995	103.839	19.993	3.700	0.578
647.500	404.841	80.004	19.993	103.837	19.992	3.832	0.561
648.000	405.263	80.005	19.995	103.837	19.991	3.882	0.487
648.500	405.376	80.005	19.994	103.837	19.991	3.872	0.532
649.000	405.645	80.004	19.994	103.840	19.992	3.797	0.458
649.500	405.938	80.005	19.994	103.843	19.993	3.720	0.472
650.000	406.217	80.005	19.996	103.847	19.994	3.662	0.567
650.500	406.485	80.004	19.995	103.849	19.995	3.604	0.560
651.000	406.729	80.005	19.995	103.852	19.992	3.803	0.530
651.500	406.961	80.005	19.995	103.852	19.996	3.501	0.494
652.000	407.220	80.004	19.994	103.852	19.988	4.048	0.484
652.500	407.439	80.005	19.994	103.848	19.993	3.760	0.485
653.000	407.750	80.005	19.993	103.846	19.994	3.692	0.504
653.500	408.019	80.006	19.994	103.845	19.992	3.780	0.555
654.000	408.267	80.005	19.993	103.844	19.992	3.793	0.548
654.500	408.497	80.005	19.992	103.844	19.992	3.806	0.497
655.000	408.730	80.005	19.993	103.846	19.994	3.628	0.470
655.500	409.041	80.006	19.995	103.847	19.995	3.590	0.504
656.000	409.327	80.005	19.995	103.848	19.998	3.350	0.570
656.500	409.484	80.008	19.994	103.850	19.994	3.692	0.520
657.000	409.775	80.005	19.994	103.849	19.997	3.482	0.446
657.500	410.045	80.006	19.994	103.851	19.999	3.327	0.505
658.000	410.331	80.006	19.994	103.847	19.994	3.638	0.558
658.500	410.540	80.006	19.993	103.845	20.000	3.226	0.525
659.000	410.862	80.006	19.996	103.846	19.995	3.615	0.513
659.500	411.098	80.006	19.995	103.846	19.995	3.617	0.545
660.000	411.341	80.006	19.994	103.846	20.001	3.149	0.519
660.500	411.565	80.007	19.996	103.849	19.997	3.422	0.473
661.000	411.861	80.007	19.998	103.850	19.998	3.398	0.494
661.500	412.145	80.007	19.991	103.848	19.998	3.387	0.550
662.000	412.342	80.008	19.994	103.844	19.997	3.435	0.531
662.500	412.664	80.008	19.994	103.843	20.000	3.276	0.500
663.000	412.884	80.008	19.995	103.844	20.001	3.195	0.530
663.500	413.167	80.008	19.994	103.842	20.000	3.251	0.522
664.000	413.374	80.008	19.993	103.843	19.998	3.371	0.497
664.500	413.690	80.008	19.995	103.848	20.000	3.234	0.507
665.000	413.870	80.008	19.995	103.845	19.999	3.331	0.509
665.500	414.189	80.006	19.995	103.838	19.999	3.333	0.497
666.000	414.376	80.007	19.994	103.838	20.002	3.133	0.502
666.500	414.637	80.007	19.996	103.838	19.999	3.320	0.477
667.000	414.957	80.007	19.994	103.837	19.998	3.359	0.514
667.500	415.192	80.008	19.995	103.839	20.002	3.129	0.568
668.000	415.496	80.008	19.995	103.844	19.999	3.309	0.547
668.500	415.665	80.007	19.995	103.840	20.001	3.197	0.506
669.001	415.952	80.007	19.996	103.836	19.995	3.572	0.465
669.501	416.220	80.007	19.993	103.834	20.001	3.168	0.505
670.000	416.475	80.006	19.994	103.834	20.002	3.094	0.539
670.500	416.719	80.008	19.993	103.837	19.999	3.328	0.511
671.000	417.023	80.006	19.995	103.843	20.003	3.004	0.524
671.500	417.306	80.006	19.995	103.845	20.000	3.214	0.567
672.000	417.555	80.005	19.995	103.845	19.999	3.334	0.560
672.500	417.847	80.004	19.995	103.839	19.997	3.452	0.537
673.000	418.081	80.005	19.993	103.835	19.999	3.301	0.534
673.500	418.346	80.005	19.994	103.833	19.997	3.479	0.513
674.000	418.606	80.004	19.992	103.836	20.001	3.166	0.512
674.500	418.872	80.005	19.993	103.839	20.002	3.112	0.525
675.000	419.122	80.004	19.993	103.846	19.999	3.303	0.521
675.500	419.414	80.004	19.995	103.849	19.998	3.394	0.529
676.000	419.670	80.005	19.994	103.845	19.998	3.400	0.545
676.500	419.933	80.005	19.995	103.840	19.997	3.439	0.534
677.000	420.155	80.006	19.994	103.832	19.999	3.344	0.502
677.500	420.461	80.004	19.994	103.825	19.997	3.456	0.507
678.000	420.658	80.005	19.993	103.820	20.000	3.276	0.515
678.500	421.008	80.004	19.995	103.823	20.002	3.110	0.525
679.000	421.256	80.005	19.994	103.827	20.001	3.176	0.572
679.500	421.481	80.006	19.995	103.827	19.998	3.394	0.536
680.000	421.750	80.004	19.995	103.829	20.000	3.265	0.484
680.500	421.991	80.004	19.995	103.829	19.997	3.450	0.502
681.000	422.246	80.004	19.995	103.828	19.999	3.297	0.503
681.500	422.513	80.005	19.993	103.829	20.001	3.154	0.509
682.000	422.758	80.005	19.994	103.832	20.006	2.829	0.517
682.500	423.052	80.007	19.995	103.831	20.000	3.212	0.526
683.000	423.284	80.005	19.994	103.834	20.003	3.011	0.532
683.500	423.570	80.004	19.995	103.832	19.999	3.280	0.522
684.000	423.809	80.005	19.995	103.828	20.003	3.068	0.522
684.500	424.069	80.004	19.994	103.825	20.003	3.041	0.512
685.000	424.271	80.003	19.995	103.825	20.000	3.215	0.480
685.500	424.560	80.003	19.995	103.823	20.002	3.124	0.476
686.000	424.872	80.003	19.993	103.824	20.004	2.932	0.546
686.501	425.062	80.004	19.994	103.826	20.004	2.986	0.551
687.000	425.314	80.004	19.994	103.830	20.003	3.013	0.472
687.500	425.591	80.006	19.993	103.831	20.007	2.754	0.485
688.000	425.850	80.005	19.994	103.830	20.005	2.912	0.533
688.500	426.133	80.005	19.995	103.829	20.001	3.143	0.539
689.000	426.345	80.005	19.994	103.828	20.006	2.795	0.518
689.500	426.610	80.005	19.994	103.828	20.004	2.992	0.486
690.000	426.900	80.003	19.994	103.829	20.004	2.973	0.516
690.500	427.137	80.006	19.994	103.830	20.003	3.004	0.541
691.000	427.397	80.005	19.993	103.830	20.002	3.073	0.512
691.500	427.630	80.004	19.994	103.829	20.002	3.079	0.496
692.000	427.876	80.005	19.994	103.827	20.005	2.868	0.486
692.500	428.201	80.006	19.994	103.825	20.005	2.916	0.524
693.000	428.407	80.004	19.994	103.825	20.007	2.737	0.551
693.500	428.694	80.006	19.995	103.829	20.006	2.793	0.513
694.000	428.920	80.006	19.994	103.835	20.007	2.764	0.503
694.500	429.185	80.005	19.993	103.839	20.010	2.562	0.502
695.000	429.431	80.004	19.995	103.841	20.007	2.727	0.501
695.500	429.691	80.006	19.995	103.846	20.007	2.721	0.509
696.000	429.928	80.004	19.994	103.846	20.006	2.804	0.501
696.500	430.203	80.003	19.994	103.841	20.009	2.584	0.505
697.000	430.461	80.004	19.994	103.836	20.007	2.748	0.522
697.500	430.710	80.005	19.994	103.831	20.003	2.997	0.520
698.000	430.976	80.004	19.994	103.829	20.007	2.754	0.511
698.501	431.249	80.004	19.994	103.825	20.010	2.520	0.527
699.000	431.475	80.005	19.994	103.826	20.007	2.744	0.519
699.500	431.717	80.004	19.995	103.827	20.007	2.779	0.484
700.000	431.968	80.004	19.995	103.829	20.005	2.882	0.481
700.500	432.242	80.005	19.995	103.831	20.003	3.011	0.509
701.000	432.526	80.005	19.994	103.838	20.006	2.818	0.541
701.500	432.771	80.004	19.994	103.841	20.008	2.692	0.543
702.000	433.011	80.001	19.994	103.842	20.003	3.052	0.508
702.500	433.310	80.003	19.995	103.841	20.005	2.922	0.512
703.000	433.537	80.002	19.994	103.836	20.011	2.483	0.532
703.500	433.834	80.003	19.995	103.830	20.006	2.856	0.525
704.000	434.068	80.003	19.995	103.828	20.005	2.887	0.528
704.500	434.344	80.003	19.995	103.827	20.008	2.707	0.521
705.000	434.575	80.003	19.995	103.827	20.012	2.413	0.508
705.500	434.850	80.001	19.995	103.826	20.010	2.530	0.506
706.000	435.132	80.003	19.993	103.826	20.007	2.775	0.531
706.500	435.385	80.002	19.993	103.822	20.009	2.584	0.546
707.000	435.660	80.002	19.995	103.823	20.009	2.580	0.532
707.500	435.909	80.002	19.996	103.822	20.009	2.648	0.526
708.000	436.194	80.001	19.995	103.823	20.009	2.613	0.529
708.500	436.436	80.004	19.994	103.822	20.009	2.584	0.531
709.000	436.654	80.000	19.992	103.825	20.010	2.564	0.494
709.500	436.955	80.003	19.995	103.827	20.006	2.825	0.490
710.000	437.158	80.003	19.996	103.835	20.012	2.431	0.512
710.500	437.471	80.003	19.997	103.837	20.012	2.423	0.510
711.000	437.714	80.003	19.994	103.838	20.008	2.678	0.536
711.500	437.976	80.003	19.995	103.837	20.009	2.628	0.530
712.000	438.238	80.004	19.993	103.835	20.009	2.603	0.514
712.500	438.485	80.004	19.994	103.829	20.011	2.448	0.517
713.000	438.751	80.004	19.996	103.825	20.011	2.504	0.512
713.500	439.005	80.004	19.996	103.824	20.012	2.402	0.517
714.000	439.247	80.005	19.996	103.824	20.012	2.396	0.508
714.500	439.491	80.004	19.994	103.823	20.014	2.255	0.491
715.000	439.775	80.005	19.994	103.823	20.013	2.307	0.506
715.500	440.035	80.004	19.994	103.823	20.011	2.506	0.536
716.000	440.281	80.004	19.995	103.826	20.011	2.475	0.526
716.500	440.561	80.004	19.994	103.828	20.013	2.326	0.516
717.000	440.776	80.004	19.994	103.831	20.012	2.409	0.510
717.500	441.085	80.005	19.994	103.831	20.014	2.259	0.509
718.000	441.264	80.005	19.995	103.833	20.011	2.467	0.506
718.500	441.554	80.006	19.995	103.830	20.015	2.199	0.479
719.000	441.805	80.007	19.994	103.827	20.014	2.239	0.505
719.500	442.097	80.005	19.995	103.823	20.014	2.247	0.542
720.000	442.320	80.006	19.996	103.826	20.010	2.529	0.529
720.500	442.620	80.006	19.994	103.826	20.013	2.330	0.520
721.000	442.848	80.007	19.994	103.827	20.014	2.233	0.526
721.500	443.131	80.006	19.996	103.826	20.014	2.247	0.519
722.000	443.371	80.006	19.995	103.824	20.012	2.396	0.517
722.500	443.630	80.007	19.994	103.818	20.013	2.309	0.510
723.000	443.909	80.006	19.994	103.815	20.012	2.379	0.518
723.500	444.143	80.007	19.994	103.814	20.012	2.394	0.526
724.000	444.380	80.006	19.995	103.814	20.013	2.328	0.492
724.500	444.687	80.006	19.994	103.815	20.015	2.209	0.507
725.000	444.903	80.006	19.994	103.817	20.018	2.011	0.534
725.500	445.167	80.006	19.995	103.819	20.016	2.106	0.502
726.000	445.414	80.007	19.996	103.820	20.013	2.303	0.495
726.500	445.685	80.006	19.996	103.820	20.016	2.154	0.514
727.000	445.935	80.007	19.994	103.819	20.016	2.121	0.519
727.500	446.210	80.004	19.994	103.817	20.013	2.323	0.523
728.000	446.449	80.004	19.994	103.815	20.019	1.889	0.520
728.500	446.729	80.004	19.995	103.814	20.017	2.075	0.516
729.000	446.975	80.004	19.995	103.815	20.014	2.265	0.522
729.500	447.224	80.004	19.996	103.822	20.015	2.179	0.511
730.000	447.491	80.005	19.997	103.822	20.020	1.876	0.506
730.500	447.776	80.005	19.996	103.822	20.018	1.957	0.534
731.000	447.995	80.005	19.995	103.821	20.017	2.079	0.528
731.500	448.287	80.004	19.996	103.820	20.017	2.048	0.508
732.000	448.541	80.004	19.996	103.814	20.018	1.970	0.528
732.500	448.786	80.004	19.997	103.814	20.022	1.711	0.523
733.000	449.072	80.005	19.995	103.815	20.019	1.905	0.515
733.500	449.304	80.003	19.995	103.818	20.019	1.940	0.524
734.000	449.601	80.003	19.996	103.823	20.017	2.032	0.523
734.500	449.845	80.004	19.995	103.827	20.020	1.854	0.535
735.000	450.104	80.004	19.996	103.828	20.020	1.833	0.522
735.500	450.336	80.004	19.995	103.830	20.016	2.119	0.497
736.000	450.605	80.004	19.996	103.827	20.020	1.833	0.496
736.500	450.892	80.005	19.996	103.822	20.018	1.998	0.529
737.000	451.141	80.005	19.996	103.825	20.020	1.810	0.546
737.500	451.384	80.004	19.995	103.824	20.020	1.824	0.514
738.000	451.677	80.005	19.997	103.823	20.017	2.036	0.514
738.500	451.960	80.005	19.994	103.825	20.019	1.909	0.556
739.000	452.200	80.005	19.996	103.828	20.022	1.706	0.550
739.500	452.438	80.005	19.995	103.823	20.017	2.073	0.500
740.000	452.704	80.005	19.995	103.822	20.021	1.781	0.491
740.500	453.007	80.007	19.995	103.821	20.022	1.706	0.537
741.000	453.234	80.005	19.994	103.819	20.018	1.976	0.550
741.500	453.535	80.005	19.994	103.816	20.018	1.974	0.529
742.000	453.786	80.006	19.996	103.814	20.021	1.802	0.539
742.500	454.056	80.007	19.995	103.815	20.021	1.802	0.536
743.000	454.309	80.007	19.995	103.817	20.021	1.769	0.522
743.500	454.569	80.007	19.995	103.818	20.019	1.903	0.518
744.000	454.799	80.007	19.995	103.821	20.020	1.837	0.502
744.500	455.110	80.007	19.995	103.821	20.020	1.874	0.516
745.000	455.369	80.008	19.994	103.819	20.022	1.684	0.555
745.500	455.612	80.007	19.993	103.817	20.018	1.984	0.536
746.000	455.913	80.007	19.994	103.815	20.020	1.870	0.523
746.500	456.168	80.008	19.994	103.817	20.020	1.854	0.550
747.000	456.455	80.007	19.994	103.822	20.020	1.820	0.549
747.500	456.702	80.007	19.994	103.823	20.020	1.812	0.538
748.000	456.989	80.007	19.994	103.824	20.019	1.899	0.534
748.500	457.235	80.008	19.994	103.825	20.022	1.669	0.534
749.000	457.488	80.007	19.994	103.823	20.020	1.810	0.517
749.500	457.746	80.007	19.993	103.818	20.019	1.940	0.505
750.000	458.029	80.006	19.994	103.816	20.022	1.704	0.526
750.500	458.286	80.006	19.996	103.816	20.018	2.007	0.541
751.000	458.543	80.006	19.994	103.815	20.018	1.974	0.527
751.500	458.820	80.005	19.993	103.816	20.018	1.982	0.524
752.000	459.095	80.005	19.994	103.816	20.019	1.887	0.543
752.500	459.375	80.004	19.993	103.819	20.019	1.940	0.554
753.000	459.669	80.004	19.994	103.821	20.020	1.812	0.565
753.500	459.926	80.005	19.994	103.820	20.019	1.918	0.562
754.000	460.178	80.004	19.994	103.820	20.022	1.719	0.530
754.500	460.474	80.004	19.995	103.820	20.019	1.895	0.529
755.000	460.706	80.005	19.995	103.818	20.019	1.934	0.538
755.500	460.997	80.004	19.994	103.818	20.021	1.781	0.525
756.000	461.250	80.004	19.994	103.818	20.022	1.711	0.533
756.500	461.541	80.004	19.995	103.818	20.020	1.843	0.544
757.000	461.808	80.004	19.996	103.818	20.021	1.795	0.552
757.500	462.043	80.005	19.994	103.818	20.021	1.752	0.530
758.000	462.332	80.005	19.996	103.819	20.021	1.795	0.513
758.500	462.611	80.004	19.996	103.820	20.020	1.854	0.546
759.001	462.859	80.004	19.994	103.821	20.020	1.841	0.548
759.500	463.094	80.004	19.993	103.820	20.022	1.733	0.505
760.000	463.364	80.003	19.994	103.820	20.020	1.878	0.494
760.500	463.646	80.004	19.994	103.819	20.019	1.914	0.528
761.000	463.880	80.004	19.995	103.818	20.023	1.624	0.534
761.500	464.200	80.004	19.995	103.818	20.022	1.735	0.535
762.000	464.407	80.004	19.994	103.817	20.020	1.820	0.541
762.500	464.654	80.004	19.994	103.817	20.018	1.967	0.491
763.000	464.951	80.004	19.994	103.818	20.022	1.679	0.499
763.500	465.180	80.003	19.994	103.818	20.025	1.520	0.535
764.000	465.441	80.005	19.994	103.818	20.022	1.717	0.508
764.500	465.684	80.004	19.994	103.819	20.022	1.692	0.497
765.000	465.951	80.004	19.993	103.816	20.022	1.688	0.507
765.500	466.197	80.005	19.993	103.815	20.023	1.618	0.511
766.000	466.466	80.004	19.993	103.816	20.024	1.562	0.514
766.500	466.740	80.004	19.993	103.816	20.024	1.533	0.529
767.000	466.986	80.004	19.995	103.816	20.025	1.462	0.531
767.500	467.245	80.005	19.996	103.819	20.024	1.532	0.512
768.000	467.491	80.003	19.995	103.819	20.025	1.510	0.505
768.500	467.743	80.004	19.994	103.818	20.025	1.528	0.502
769.000	468.019	80.003	19.993	103.819	20.025	1.485	0.513
769.500	468.277	80.003	19.995	103.818	20.023	1.642	0.531
770.000	468.526	80.005	19.996	103.820	20.024	1.576	0.520
770.500	468.791	80.004	19.996	103.821	20.024	1.561	0.510
771.000	469.030	80.003	19.994	103.821	20.024	1.591	0.510
771.500	469.256	80.004	19.997	103.822	20.024	1.530	0.485
772.001	469.535	80.003	19.995	103.822	20.024	1.590	0.485
772.500	469.786	80.004	19.994	103.821	20.024	1.541	0.517
773.000	470.048	80.005	19.992	103.820	20.025	1.483	0.521
773.500	470.293	80.004	19.994	103.820	20.025	1.512	0.510
774.000	470.535	80.005	19.994	103.820	20.027	1.355	0.497
774.500	470.801	80.004	19.998	103.817	20.026	1.417	0.498
775.000	471.053	80.004	19.994	103.816	20.027	1.365	0.513
775.500	471.278	80.006	19.993	103.811	20.025	1.472	0.497
776.000	471.527	80.006	19.993	103.808	20.025	1.495	0.475
776.500	471.787	80.003	19.993	103.807	20.026	1.425	0.491
777.000	472.011	80.004	19.994	103.810	20.024	1.584	0.496
777.500	472.282	80.004	19.993	103.812	20.027	1.375	0.490
778.000	472.525	80.005	19.995	103.817	20.026	1.390	0.505
778.500	472.754	80.004	19.994	103.819	20.028	1.288	0.493
779.000	473.012	80.003	19.994	103.820	20.025	1.462	0.479
779.500	473.257	80.004	19.994	103.819	20.028	1.290	0.494
780.000	473.551	80.004	19.994	103.819	20.026	1.448	0.521
780.500	473.761	80.004	19.994	103.819	20.029	1.210	0.522
781.000	474.004	80.005	19.994	103.819	20.028	1.268	0.479
781.500	474.256	80.004	19.993	103.820	20.027	1.328	0.474
782.000	474.525	80.004	19.994	103.820	20.029	1.224	0.508
782.500	474.778	80.003	19.993	103.819	20.031	1.094	0.521
783.000	475.011	80.004	19.994	103.818	20.029	1.247	0.504
783.500	475.263	80.005	19.994	103.813	20.026	1.452	0.486
784.000	475.512	80.004	19.994	103.810	20.026	1.414	0.493
784.500	475.780	80.004	19.994	103.809	20.024	1.543	0.509
785.000	476.054	80.004	19.995	103.807	20.027	1.340	0.529
785.500	476.276	80.004	19.994	103.808	20.029	1.226	0.518
786.000	476.508	80.005	19.995	103.812	20.028	1.296	0.475
786.501	476.757	80.004	19.994	103.814	20.027	1.356	0.468
787.000	477.011	80.003	19.994	103.813	20.025	1.464	0.492
787.500	477.261	80.003	19.993	103.812	20.026	1.454	0.504
788.000	477.501	80.003	19.995	103.812	20.027	1.383	0.497
788.500	477.732	80.004	19.994	103.812	20.028	1.317	0.481
789.000	477.979	80.003	19.994	103.812	20.025	1.470	0.474
789.500	478.240	80.003	19.993	103.812	20.026	1.415	0.493
790.000	478.453	80.003	19.994	103.811	20.026	1.396	0.491
790.500	478.706	80.004	19.995	103.811	20.030	1.160	0.470
791.000	478.935	80.002	19.994	103.811	20.030	1.147	0.473
791.500	479.176	80.005	19.995	103.810	20.029	1.207	0.476
792.000	479.433	80.005	19.994	103.811	20.032	1.019	0.484
792.500	479.727	80.004	19.994	103.815	20.028	1.309	0.524
793.000	479.951	80.004	19.995	103.815	20.031	1.064	0.535
793.500	480.193	80.006	19.993	103.814	20.032	1.007	0.492
794.000	480.415	80.005	19.994	103.815	20.030	1.141	0.465
794.500	480.699	80.005	19.996	103.815	20.032	1.023	0.485
795.000	480.896	80.005	19.995	103.816	20.030	1.141	0.494
795.500	481.186	80.005	19.995	103.814	20.034	0.864	0.484
796.000	481.438	80.006	19.995	103.815	20.030	1.166	0.514
796.500	481.671	80.005	19.994	103.815	20.030	1.125	0.514
797.000	481.867	80.006	19.995	103.815	20.034	0.872	0.457
797.500	482.148	80.007	19.996	103.814	20.030	1.164	0.453
798.000	482.348	80.005	19.994	103.816	20.030	1.168	0.479
798.500	482.572	80.006	19.995	103.814	20.031	1.087	0.452
799.000	482.841	80.005	19.995	103.814	20.031	1.064	0.458
799.500	483.110	80.006	19.995	103.814	20.028	1.263	0.516
800.000	483.345	80.006	19.994	103.814	20.031	1.044	0.521
800.500	483.594	80.007	19.995	103.815	20.029	1.218	0.494
801.000	483.839	80.006	19.994	103.816	20.033	0.919	0.489
801.500	484.069	80.005	19.994	103.816	20.030	1.145	0.485
802.000	484.309	80.005	19.995	103.815	20.030	1.124	0.473
802.500	484.521	80.008	19.994	103.815	20.028	1.251	0.461
803.000	484.764	80.007	19.994	103.814	20.031	1.100	0.453
803.500	485.023	80.006	19.994	103.814	20.032	1.019	0.479
804.000	485.265	80.006	19.995	103.814	20.029	1.236	0.502
804.500	485.547	80.006	19.996	103.813	20.031	1.060	0.512
805.000	485.752	80.006	19.995	103.813	20.031	1.069	0.506
805.500	485.995	80.005	19.995	103.813	20.031	1.073	0.467
806.000	486.295	80.006	19.994	103.814	20.027	1.332	0.495
806.500	486.518	80.005	19.995	103.814	20.030	1.176	0.533
807.000	486.761	80.006	19.996	103.815	20.029	1.201	0.495
807.500	486.989	80.006	19.995	103.817	20.033	0.928	0.469
808.000	487.276	80.005	19.995	103.817	20.031	1.089	0.493
808.500	487.552	80.006	19.995	103.817	20.033	0.940	0.539
809.000	487.761	80.007	19.994	103.817	20.032	1.007	0.524
809.500	487.989	80.006	19.994	103.817	20.030	1.153	0.461
810.000	488.245	80.005	19.995	103.817	20.028	1.280	0.460
810.500	488.497	80.006	19.995	103.816	20.032	1.035	0.495
811.000	488.719	80.006	19.994	103.816	20.028	1.249	0.491
811.500	488.975	80.006	19.994	103.817	20.031	1.089	0.477
812.000	489.261	80.006	19.995	103.819	20.029	1.212	0.510
812.500	489.502	80.005	19.995	103.821	20.032	1.011	0.534
813.000	489.743	80.006	19.994	103.820	20.029	1.187	0.505
813.500	490.014	80.006	19.995	103.821	20.032	1.017	0.497
814.000	490.286	80.004	19.994	103.822	20.033	0.944	0.527
814.500	490.531	80.005	19.994	103.820	20.031	1.075	0.530
815.000	490.782	80.005	19.995	103.819	20.029	1.193	0.506
815.500	491.030	80.006	19.993	103.819	20.028	1.313	0.498
816.001	491.334	80.005	19.996	103.820	20.033	0.963	0.526
816.500	491.583	80.005	19.995	103.818	20.031	1.083	0.552
817.000	491.840	80.004	19.995	103.818	20.031	1.087	0.530
817.500	492.095	80.005	19.994	103.818	20.033	0.924	0.509
818.000	492.365	80.004	19.994	103.818	20.031	1.062	0.518
818.501	492.643	80.005	19.994	103.817	20.033	0.949	0.536
819.001	492.919	80.005	19.995	103.819	20.032	1.035	0.551
819.500	493.168	80.004	19.993	103.819	20.031	1.071	0.540
820.000	493.448	80.005	19.994	103.819	20.030	1.174	0.527
820.500	493.709	80.006	19.996	103.820	20.030	1.149	0.535
821.000	493.972	80.006	19.995	103.820	20.031	1.077	0.533
821.500	494.261	80.006	19.994	103.818	20.029	1.207	0.538
822.000	494.549	80.006	19.995	103.817	20.029	1.180	0.564
822.500	494.846	80.006	19.995	103.817	20.031	1.048	0.581
823.000	495.063	80.007	19.994	103.817	20.032	1.002	0.550
823.500	495.381	80.007	19.994	103.817	20.032	1.025	0.525
824.000	495.623	80.006	19.994	103.817	20.034	0.893	0.548
824.500	495.909	80.006	19.996	103.818	20.031	1.102	0.544
825.000	496.181	80.007	19.995	103.818	20.031	1.056	0.543
825.500	496.468	80.006	19.994	103.817	20.033	0.959	0.558
826.000	496.721	80.005	19.995	103.818	20.031	1.083	0.550
826.500	497.033	80.007	19.995	103.819	20.031	1.081	0.553
827.000	497.293	80.007	19.996	103.818	20.031	1.085	0.568
827.500	497.580	80.007	19.995	103.818	20.031	1.087	0.559
828.000	497.857	80.007	19.997	103.817	20.031	1.069	0.556
828.500	498.097	80.006	19.995	103.816	20.031	1.073	0.541
829.000	498.410	80.005	19.992	103.815	20.032	1.013	0.535
829.500	498.668	80.007	19.995	103.815	20.031	1.095	0.562
830.000	498.950	80.005	19.996	103.815	20.027	1.323	0.556
830.500	499.232	80.006	19.996	103.817	20.029	1.211	0.552
831.000	499.519	80.006	19.996	103.817	20.029	1.213	0.566
831.500	499.820	80.006	19.996	103.817	20.031	1.069	0.578
832.000	500.081	80.005	19.995	103.818	20.033	0.934	0.575
832.500	500.354	80.007	19.995	103.817	20.030	1.160	0.548
833.000	500.651	80.006	19.994	103.816	20.032	0.977	0.552
833.500	500.966	80.006	19.995	103.816	20.030	1.156	0.592
834.000	501.227	80.003	19.996	103.818	20.029	1.230	0.594
834.500	501.473	80.004	19.995	103.818	20.028	1.278	0.541
835.000	501.757	80.003	19.996	103.819	20.033	0.899	0.518
835.500	502.056	80.004	19.995	103.821	20.032	1.023	0.556
836.000	502.290	80.004	19.996	103.822	20.034	0.859	0.558
836.500	502.595	80.005	19.995	103.821	20.032	0.992	0.536
837.000	502.865	80.003	19.995	103.819	20.031	1.042	0.557
837.500	503.146	80.004	19.994	103.820	20.034	0.886	0.563
838.000	503.462	80.003	19.995	103.817	20.032	0.994	0.574
838.500	503.703	80.004	19.996	103.817	20.031	1.100	0.577
839.000	503.987	80.005	19.993	103.819	20.030	1.174	0.541
839.500	504.274	80.004	19.994	103.820	20.031	1.054	0.547
840.000	504.528	80.003	19.994	103.820	20.031	1.048	0.556
840.500	504.823	80.004	19.994	103.824	20.034	0.882	0.546
841.000	505.100	80.004	19.994	103.824	20.032	1.013	0.561
841.500	505.389	80.004	19.993	103.823	20.032	0.971	0.569
842.000	505.647	80.004	19.994	103.822	20.031	1.106	0.556
842.501	505.931	80.003	19.994	103.822	20.034	0.886	0.544
843.000	506.199	80.004	19.995	103.817	20.031	1.064	0.547
843.500	506.488	80.004	19.996	103.817	20.033	0.957	0.555
844.000	506.767	80.003	19.995	103.814	20.032	1.031	0.562
844.500	507.025	80.004	19.994	103.812	20.030	1.156	0.552
845.000	507.314	80.004	19.995	103.812	20.030	1.162	0.542
845.500	507.586	80.004	19.994	103.814	20.028	1.253	0.554
846.000	507.853	80.004	19.994	103.815	20.032	0.988	0.550
846.500	508.141	80.004	19.995	103.818	20.032	0.986	0.547
847.000	508.431	80.004	19.992	103.819	20.031	1.050	0.566
847.500	508.688	80.004	19.993	103.820	20.031	1.075	0.563
848.000	508.986	80.005	19.994	103.819	20.037	0.683	0.551
848.500	509.251	80.005	19.994	103.818	20.031	1.081	0.559
849.000	509.552	80.006	19.996	103.817	20.030	1.137	0.565
849.501	509.818	80.006	19.994	103.817	20.033	0.963	0.567
850.000	510.113	80.005	19.994	103.816	20.031	1.108	0.564
850.500	510.344	80.005	19.994	103.815	20.031	1.071	0.544
851.000	510.629	80.005	19.994	103.814	20.033	0.957	0.521
851.500	510.900	80.004	19.994	103.814	20.030	1.174	0.536
852.000	511.188	80.005	19.994	103.814	20.031	1.048	0.557
852.500	511.448	80.004	19.993	103.814	20.032	0.973	0.554
853.000	511.690	80.004	19.994	103.813	20.030	1.160	0.525
853.500	511.990	80.005	19.993	103.815	20.030	1.110	0.522
854.000	512.271	80.005	19.993	103.815	20.033	0.949	0.561
854.500	512.516	80.005	19.994	103.815	20.031	1.079	0.553
855.001	512.805	80.005	19.992	103.815	20.032	1.017	0.530
855.500	513.062	80.005	19.994	103.816	20.029	1.193	0.540
856.000	513.344	80.005	19.995	103.816	20.032	1.009	0.543
856.500	513.662	80.005	19.994	103.816	20.029	1.218	0.569
857.000	513.893	80.005	19.995	103.815	20.032	0.978	0.574
857.500	514.167	80.004	19.993	103.810	20.032	1.013	0.527
858.000	514.460	80.006	19.994	103.806	20.032	1.013	0.536
858.500	514.735	80.005	19.994	103.805	20.032	1.031	0.567
859.000	514.972	80.005	19.993	103.803	20.032	0.986	0.540
859.500	515.276	80.005	19.993	103.804	20.033	0.938	0.526
860.000	515.578	80.005	19.994	103.809	20.032	1.015	0.573
860.500	515.858	80.005	19.993	103.813	20.030	1.135	0.594
861.000	516.131	80.005	19.993	103.815	20.031	1.077	0.568
861.500	516.419	80.006	19.993	103.813	20.033	0.911	0.557
862.000	516.690	80.004	19.994	103.811	20.032	1.002	0.560
862.500	516.939	80.005	19.994	103.810	20.036	0.742	0.539
863.000	517.200	80.005	19.995	103.808	20.032	0.976	0.515
863.500	517.480	80.004	19.995	103.807	20.033	0.932	0.525
864.000	517.760	80.005	19.994	103.808	20.035	0.783	0.550
864.500	518.028	80.004	19.994	103.806	20.032	1.027	0.554
865.000	518.282	80.005	19.994	103.804	20.032	0.980	0.535
865.500	518.551	80.004	19.995	103.806	20.032	1.036	0.522
866.001	518.817	80.004	19.994	103.807	20.032	0.980	0.529
866.500	519.089	80.004	19.994	103.809	20.038	0.584	0.537
867.000	519.370	80.004	19.995	103.815	20.035	0.806	0.546
867.500	519.662	80.005	19.994	103.817	20.035	0.824	0.563
868.000	519.932	80.004	19.995	103.813	20.034	0.835	0.567
868.500	520.185	80.005	19.993	103.813	20.032	1.006	0.543
869.000	520.477	80.004	19.994	103.813	20.033	0.961	0.535
869.500	520.719	80.004	19.994	103.812	20.033	0.938	0.540
870.000	521.010	80.005	19.994	103.812	20.032	1.015	0.533
870.500	521.242	80.005	19.994	103.816	20.028	1.249	0.528
871.000	521.573	80.006	19.993	103.813	20.031	1.064	0.543
871.500	521.783	80.004	19.994	103.812	20.035	0.808	0.552
872.000	522.090	80.005	19.994	103.810	20.033	0.963	0.529
872.500	522.337	80.005	19.994	103.809	20.035	0.816	0.536
873.000	522.645	80.005	19.994	103.805	20.036	0.721	0.555
873.500	522.895	80.006	19.995	103.809	20.032	0.994	0.557
874.000	523.171	80.005	19.995	103.810	20.033	0.940	0.542
874.500	523.455	80.006	19.995	103.812	20.032	1.021	0.543
875.000	523.720	80.005	19.995	103.815	20.037	0.652	0.554
875.500	523.975	80.006	19.994	103.817	20.032	0.996	0.534
876.000	524.221	80.005	19.994	103.817	20.036	0.733	0.510
876.500	524.563	80.005	19.995	103.817	20.035	0.806	0.544
877.000	524.789	80.006	19.993	103.816	20.034	0.845	0.578
877.500	525.083	80.007	19.994	103.813	20.034	0.837	0.544
878.000	525.335	80.006	19.995	103.812	20.035	0.802	0.533
878.500	525.543	80.006	19.994	103.812	20.035	0.779	0.503
879.000	525.871	80.006	19.994	103.812	20.033	0.934	0.498
879.500	526.126	80.006	19.994	103.813	20.033	0.924	0.560
880.000	526.383	80.006	19.995	103.815	20.035	0.812	0.548
880.500	526.652	80.006	19.993	103.816	20.034	0.847	0.519
881.000	526.924	80.006	19.993	103.816	20.033	0.953	0.533
881.500	527.193	80.007	19.993	103.816	20.031	1.073	0.541
882.000	527.453	80.006	19.994	103.816	20.033	0.944	0.535
882.500	527.738	80.007	19.992	103.816	20.035	0.824	0.537
883.000	527.958	80.007	19.996	103.817	20.035	0.814	0.525
883.500	528.265	80.006	19.993	103.817	20.033	0.905	0.516
884.000	528.515	80.006	19.994	103.817	20.033	0.907	0.542
884.500	528.783	80.006	19.994	103.814	20.035	0.775	0.538
885.000	529.054	80.006	19.994	103.814	20.035	0.793	0.529
885.500	529.329	80.007	19.995	103.814	20.033	0.953	0.542
886.000	529.587	80.005	19.995	103.814	20.036	0.723	0.540
886.500	529.855	80.005	19.994	103.813	20.032	0.982	0.529
887.000	530.103	80.005	19.994	103.811	20.030	1.131	0.521
887.500	530.394	80.006	19.994	103.805	20.030	1.172	0.527
888.000	530.662	80.005	19.994	103.799	20.030	1.120	0.549
888.500	530.903	80.006	19.993	103.797	20.034	0.860	0.534
889.000	531.176	80.004	19.993	103.798	20.032	0.973	0.512
889.500	531.430	80.004	19.995	103.802	20.032	1.007	0.520
890.000	531.681	80.004	19.995	103.807	20.035	0.789	0.516
890.500	531.951	80.005	19.997	103.813	20.034	0.874	0.513
891.000	532.251	80.005	19.995	103.816	20.033	0.955	0.545
891.500	532.469	80.005	19.995	103.817	20.034	0.895	0.544
892.000	532.739	80.005	19.996	103.817	20.035	0.798	0.503
892.500	533.019	80.005	19.994	103.815	20.035	0.818	0.519
893.000	533.235	80.004	19.994	103.809	20.035	0.812	0.523
893.500	533.514	80.004	19.995	103.808	20.034	0.835	0.495
894.000	533.797	80.004	19.995	103.807	20.035	0.775	0.529
894.500	534.039	80.004	19.995	103.804	20.037	0.673	0.544
895.000	534.316	80.004	19.995	103.806	20.036	0.698	0.522
895.500	534.553	80.004	19.994	103.811	20.034	0.891	0.516
896.000	534.863	80.004	19.995	103.812	20.037	0.686	0.531
896.500	535.100	80.005	19.995	103.813	20.036	0.731	0.547
897.000	535.362	80.005	19.995	103.815	20.037	0.663	0.523
897.500	535.639	80.004	19.995	103.814	20.038	0.588	0.519
898.000	535.920	80.003	19.994	103.812	20.037	0.623	0.548
898.500	536.154	80.005	19.995	103.813	20.034	0.890	0.537
899.000	536.425	80.006	19.994	103.813	20.040	0.445	0.510
899.500	536.663	80.006	19.995	103.814	20.042	0.296	0.507
900.000	536.918	80.004	19.994	103.816	20.036	0.700	0.501
900.500	537.168	80.005	19.995	103.816	20.038	0.582	0.499
901.000	537.449	80.006	19.994	103.808	20.039	0.489	0.518
901.500	537.692	80.006	19.994	103.800	20.038	0.561	0.528
902.000	537.943	80.005	19.994	103.797	20.035	0.816	0.509
902.500	538.226	80.006	19.994	103.797	20.038	0.596	0.514
903.000	538.462	80.006	19.994	103.799	20.038	0.584	0.526
903.500	538.724	80.005	19.993	103.803	20.037	0.665	0.508
904.000	538.993	80.006	19.994	103.809	20.037	0.659	0.515
904.500	539.243	80.005	19.995	103.811	20.036	0.746	0.525
905.000	539.489	80.006	19.996	103.809	20.036	0.725	0.507
905.500	539.769	80.007	19.994	103.809	20.033	0.936	0.511
906.000	539.997	80.006	19.994	103.808	20.036	0.723	0.517
906.500	540.299	80.007	19.994	103.807	20.037	0.679	0.519
907.000	540.563	80.006	19.995	103.806	20.035	0.789	0.548
907.500	540.808	80.007	19.995	103.807	20.036	0.713	0.538
908.001	541.055	80.007	19.993	103.808	20.038	0.607	0.501
908.500	541.288	80.007	19.994	103.811	20.036	0.717	0.486
909.000	541.581	80.007	19.994	103.814	20.037	0.684	0.503
909.500	541.817	80.006	19.993	103.817	20.033	0.955	0.528
910.000	542.116	80.005	19.993	103.817	20.035	0.762	0.532
910.500	542.365	80.006	19.994	103.817	20.035	0.771	0.541
911.000	542.602	80.006	19.995	103.817	20.039	0.483	0.517
911.500	542.897	80.006	19.994	103.817	20.035	0.797	0.509
912.000	543.106	80.005	19.994	103.815	20.038	0.566	0.518
912.500	543.397	80.005	19.993	103.814	20.038	0.551	0.502
913.000	543.666	80.006	19.994	103.813	20.037	0.625	0.530
913.500	543.902	80.006	19.994	103.814	20.038	0.551	0.532
914.000	544.147	80.006	19.993	103.813	20.037	0.657	0.493
914.500	544.402	80.006	19.995	103.814	20.036	0.696	0.491
915.000	544.644	80.005	19.995	103.814	20.036	0.712	0.498
915.500	544.881	80.004	19.996	103.814	20.037	0.688	0.488
916.000	545.174	80.004	19.994	103.813	20.038	0.597	0.504
916.500	545.416	80.004	19.995	103.811	20.034	0.835	0.533
917.000	545.712	80.004	19.994	103.809	20.037	0.681	0.537
917.500	545.914	80.004	19.995	103.806	20.037	0.663	0.518
918.001	546.159	80.004	19.994	103.804	20.038	0.597	0.472
918.501	546.395	80.003	19.994	103.803	20.037	0.657	0.464
919.000	546.671	80.004	19.996	103.804	20.036	0.698	0.497
919.500	546.949	80.003	19.995	103.806	20.038	0.601	0.533
920.000	547.210	80.004	19.996	103.806	20.036	0.700	0.547
920.500	547.441	80.005	19.995	103.803	20.036	0.758	0.516
921.000	547.678	80.005	19.996	103.803	20.038	0.578	0.480
921.500	547.919	80.004	19.996	103.799	20.037	0.642	0.473
922.000	548.213	80.004	19.995	103.797	20.038	0.607	0.506
922.500	548.475	80.004	19.995	103.799	20.037	0.646	0.546
923.000	548.707	80.004	19.994	103.802	20.035	0.779	0.525
923.500	548.952	80.003	19.996	103.802	20.038	0.592	0.485
924.000	549.231	80.004	19.996	103.807	20.035	0.826	0.501
924.500	549.480	80.003	19.995	103.809	20.038	0.563	0.527
925.000	549.727	80.003	19.996	103.811	20.037	0.656	0.512
925.500	549.988	80.005	19.996	103.811	20.037	0.675	0.502
926.000	550.284	80.003	19.995	103.812	20.036	0.696	0.532
926.500	550.496	80.003	19.995	103.808	20.037	0.648	0.532
927.000	550.797	80.003	19.995	103.807	20.035	0.797	0.511
927.500	551.003	80.004	19.995	103.806	20.036	0.744	0.510
928.000	551.277	80.004	19.995	103.807	20.035	0.801	0.493
928.500	551.514	80.003	19.995	103.808	20.035	0.777	0.495
929.000	551.763	80.004	19.995	103.812	20.038	0.561	0.498
929.500	552.002	80.003	19.996	103.810	20.036	0.748	0.487
930.000	552.269	80.004	19.994	103.806	20.036	0.715	0.497
930.500	552.515	80.004	19.995	103.800	20.039	0.480	0.510
931.000	552.786	80.004	19.994	103.800	20.040	0.420	0.515
931.500	553.020	80.004	19.994	103.797	20.041	0.358	0.511
932.000	553.262	80.005	19.994	103.797	20.039	0.543	0.491
932.500	553.538	80.005	19.995	103.800	20.038	0.563	0.497
933.000	553.786	80.005	19.995	103.803	20.039	0.520	0.521
933.500	554.067	80.004	19.995	103.803	20.037	0.625	0.526
934.000	554.338	80.004	19.995	103.806	20.041	0.394	0.541
934.500	554.552	80.004	19.994	103.807	20.036	0.710	0.519
935.000	554.824	80.006	19.994	103.811	20.037	0.663	0.485
935.500	555.071	80.005	19.994	103.811	20.036	0.704	0.502
936.000	555.311	80.004	19.994	103.812	20.039	0.526	0.503
936.500	555.580	80.006	19.994	103.812	20.040	0.427	0.498
937.000	555.859	80.004	19.994	103.813	20.037	0.685	0.529
937.500	556.090	80.005	19.994	103.813	20.039	0.493	0.529
938.000	556.362	80.006	19.995	103.814	20.037	0.640	0.507
938.500	556.615	80.005	19.995	103.814	20.039	0.541	0.514
939.000	556.895	80.006	19.994	103.814	20.041	0.383	0.529
939.500	557.130	80.005	19.994	103.813	20.039	0.520	0.524
940.000	557.392	80.006	19.994	103.811	20.039	0.516	0.505
940.500	557.632	80.005	19.995	103.811	20.040	0.445	0.499
941.000	557.931	80.006	19.994	103.808	20.040	0.452	0.521
941.500	558.195	80.005	19.995	103.806	20.039	0.516	0.551
942.000	558.447	80.006	19.995	103.803	20.040	0.449	0.539
942.500	558.699	80.005	19.996	103.799	20.038	0.590	0.510
943.000	558.951	80.005	19.994	103.798	20.037	0.667	0.504
943.500	559.225	80.004	19.994	103.801	20.042	0.300	0.515
944.000	559.523	80.005	19.995	103.803	20.040	0.431	0.549
944.500	559.763	80.005	19.995	103.807	20.039	0.493	0.555
945.000	560.048	80.007	19.994	103.813	20.040	0.443	0.532
945.500	560.297	80.004	19.994	103.814	20.043	0.267	0.529
946.000	560.547	80.005	19.995	103.815	20.042	0.277	0.517
946.500	560.797	80.005	19.994	103.813	20.040	0.423	0.500
947.000	561.077	80.005	19.994	103.812	20.039	0.516	0.515
947.500	561.320	80.004	19.994	103.812	20.041	0.346	0.526
948.000	561.575	80.005	19.994	103.813	20.039	0.491	0.511
948.500	561.836	80.003	19.993	103.811	20.042	0.327	0.507
949.000	562.117	80.004	19.993	103.813	20.040	0.466	0.529
949.500	562.358	80.004	19.995	103.811	20.042	0.323	0.532
950.000	562.623	80.003	19.995	103.813	20.043	0.246	0.514
950.500	562.875	80.005	19.995	103.811	20.038	0.598	0.511
951.001	563.136	80.004	19.995	103.812	20.039	0.522	0.515
951.500	563.391	80.004	19.994	103.812	20.039	0.514	0.515
952.000	563.637	80.005	19.995	103.815	20.040	0.429	0.508
952.500	563.887	80.004	19.995	103.815	20.037	0.640	0.499
953.000	564.131	80.003	19.994	103.817	20.038	0.607	0.495
953.500	564.396	80.005	19.995	103.815	20.039	0.503	0.501
954.000	564.645	80.005	19.995	103.815	20.039	0.495	0.511
954.500	564.912	80.005	19.994	103.815	20.040	0.412	0.514
955.000	565.205	80.005	19.994	103.814	20.036	0.698	0.538
955.500	565.410	80.005	19.995	103.814	20.037	0.640	0.530
956.000	565.699	80.006	19.994	103.816	20.040	0.439	0.496
956.500	565.943	80.004	19.995	103.814	20.038	0.574	0.513
957.000	566.216	80.007	19.994	103.814	20.039	0.505	0.525
957.500	566.495	80.006	19.994	103.812	20.041	0.367	0.534
958.000	566.740	80.005	19.994	103.811	20.039	0.499	0.538
958.500	567.004	80.006	19.994	103.812	20.042	0.296	0.517
959.000	567.290	80.005	19.994	103.814	20.041	0.360	0.530
959.500	567.538	80.006	19.993	103.815	20.043	0.265	0.542
960.000	567.773	80.007	19.995	103.817	20.037	0.623	0.508
960.500	568.001	80.006	19.995	103.817	20.041	0.356	0.473
961.000	568.307	80.006	19.994	103.815	20.038	0.563	0.499
961.500	568.549	80.006	19.994	103.814	20.037	0.675	0.542
962.000	568.773	80.006	19.994	103.813	20.040	0.429	0.507
962.500	569.070	80.007	19.994	103.814	20.037	0.636	0.493
963.000	569.320	80.006	19.993	103.811	20.039	0.509	0.534
963.500	569.592	80.007	19.994	103.812	20.041	0.369	0.534
964.000	569.835	80.007	19.994	103.808	20.040	0.441	0.518
964.500	570.071	80.008	19.995	103.809	20.037	0.626	0.497
965.000	570.345	80.006	19.994	103.808	20.035	0.760	0.495
965.500	570.621	80.007	19.994	103.811	20.037	0.671	0.530
966.000	570.871	80.006	19.994	103.809	20.037	0.688	0.538
966.500	571.112	80.006	19.994	103.808	20.039	0.505	0.509
967.000	571.367	80.005	19.994	103.807	20.035	0.760	0.494
967.500	571.585	80.005	19.995	103.807	20.040	0.433	0.485
968.000	571.879	80.006	19.994	103.806	20.036	0.708	0.492
968.500	572.146	80.007	19.993	103.809	20.036	0.746	0.537
969.000	572.364	80.006	19.993	103.813	20.037	0.652	0.523
969.500	572.648	80.006	19.995	103.814	20.038	0.580	0.493
970.000	572.857	80.006	19.993	103.815	20.038	0.601	0.498
970.500	573.148	80.005	19.994	103.816	20.038	0.551	0.496
971.000	573.424	80.005	19.994	103.817	20.041	0.379	0.533
971.500	573.700	80.006	19.994	103.819	20.042	0.335	0.559
972.000	573.966	80.006	19.993	103.819	20.041	0.350	0.547
972.500	574.256	80.006	19.993	103.819	20.043	0.236	0.549
973.000	574.522	80.005	19.993	103.819	20.042	0.290	0.556
973.500	574.777	80.005	19.994	103.817	20.043	0.220	0.539
974.000	575.027	80.005	19.992	103.817	20.043	0.259	0.513
974.500	575.289	80.006	19.993	103.817	20.039	0.543	0.509
975.000	575.548	80.005	19.994	103.816	20.040	0.420	0.516
975.500	575.817	80.005	19.994	103.812	20.041	0.375	0.524
976.000	576.059	80.005	19.993	103.814	20.040	0.476	0.519
976.500	576.310	80.005	19.994	103.813	20.038	0.611	0.502
977.000	576.552	80.006	19.994	103.813	20.040	0.472	0.493
977.500	576.794	80.006	19.994	103.813	20.037	0.630	0.489
978.000	577.044	80.006	19.995	103.816	20.039	0.514	0.488
978.500	577.310	80.007	19.995	103.817	20.037	0.675	0.504
979.000	577.578	80.005	19.994	103.814	20.041	0.348	0.525
979.500	577.851	80.005	19.995	103.812	20.038	0.561	0.537
980.000	578.101	80.006	19.994	103.807	20.038	0.584	0.532
980.500	578.352	80.006	19.994	103.807	20.040	0.439	0.512
981.000	578.590	80.006	19.994	103.804	20.040	0.470	0.495
981.500	578.839	80.005	19.994	103.804	20.039	0.538	0.488
982.000	579.098	80.005	19.994	103.804	20.037	0.648	0.497
982.500	579.347	80.006	19.995	103.807	20.043	0.246	0.508
983.000	579.623	80.006	19.994	103.806	20.043	0.267	0.517
983.500	579.874	80.006	19.995	103.805	20.039	0.547	0.526
984.000	580.124	80.007	19.995	103.807	20.039	0.512	0.514
984.500	580.378	80.008	19.994	103.805	20.041	0.365	0.502
985.000	580.634	80.005	19.994	103.806	20.040	0.478	0.507
985.500	580.919	80.007	19.994	103.805	20.041	0.408	0.526
986.000	581.188	80.007	19.994	103.806	20.040	0.412	0.548
986.500	581.441	80.007	19.995	103.805	20.042	0.280	0.538
987.000	581.686	80.008	19.994	103.802	20.045	0.114	0.510
987.500	581.945	80.008	19.995	103.800	20.039	0.522	0.501
988.000	582.191	80.007	19.995	103.801	20.041	0.408	0.505
988.500	582.444	80.007	19.994	103.803	20.038	0.601	0.502
989.000	582.695	80.008	19.995	103.803	20.040	0.447	0.501
989.500	582.942	80.007	19.994	103.801	20.044	0.178	0.501
990.000	583.175	80.007	19.994	103.800	20.041	0.387	0.489
990.500	583.457	80.006	19.996	103.800	20.036	0.696	0.497
991.000	583.689	80.006	19.994	103.800	20.038	0.596	0.514
991.501	583.950	80.007	19.994	103.801	20.039	0.510	0.503
992.000	584.238	80.007	19.995	103.807	20.042	0.313	0.521
992.500	584.466	80.006	19.994	103.809	20.039	0.514	0.532
993.000	584.713	80.006	19.994	103.809	20.042	0.296	0.496
993.500	584.967	80.007	19.995	103.808	20.040	0.472	0.489
994.000	585.215	80.006	19.994	103.809	20.041	0.394	0.501
994.500	585.477	80.006	19.994	103.810	20.039	0.541	0.506
995.000	585.743	80.006	19.994	103.810	20.040	0.416	0.519
995.500	586.007	80.005	19.995	103.811	20.038	0.557	0.529
996.000	586.233	80.004	19.995	103.811	20.040	0.474	0.510
996.500	586.496	80.004	19.994	103.810	20.039	0.534	0.490
997.000	586.800	80.005	19.995	103.809	20.038	0.565	0.528
997.500	587.013	80.005	19.995	103.806	20.039	0.545	0.541
998.000	587.267	80.004	19.995	103.804	20.040	0.431	0.492
998.500	587.520	80.005	19.995	103.800	20.039	0.528	0.487
999.000	587.797	80.006	19.994	103.801	20.040	0.443	0.518
999.500	588.041	80.005	19.994	103.802	20.039	0.541	0.525
1000.000	588.320	80.005	19.994	103.804	20.037	0.628	0.522
1000.500	588.606	80.005	19.995	103.802	20.035	0.795	0.544
1001.000	588.842	80.006	19.994	103.805	20.037	0.630	0.544
1001.500	589.060	80.005	19.994	103.805	20.040	0.431	0.488
1002.000	589.318	80.005	19.996	103.804	20.040	0.449	0.464
1002.500	589.605	80.006	19.995	103.805	20.039	0.491	0.511
1003.000	589.875	80.006	19.995	103.808	20.037	0.621	0.551
1003.500	590.155	80.006	19.996	103.811	20.040	0.449	0.554
1004.000	590.406	80.005	19.995	103.810	20.041	0.400	0.541
1004.500	590.631	80.006	19.995	103.810	20.040	0.460	0.503
1005.000	590.873	80.005	19.994	103.811	20.038	0.570	0.471
1005.500	591.143	80.005	19.995	103.809	20.038	0.566	0.490
1006.000	591.388	80.006	19.995	103.808	20.039	0.499	0.514
1006.500	591.661	80.003	19.995	103.807	20.038	0.584	0.516
1007.000	591.920	80.006	19.995	103.806	20.040	0.423	0.525
1007.500	592.176	80.006	19.995	103.805	20.041	0.373	0.524
1008.000	592.448	80.006	19.994	103.800	20.038	0.559	0.522
1008.500	592.669	80.006	19.994	103.796	20.037	0.638	0.510
1009.000	592.916	80.003	19.994	103.795	20.040	0.470	0.480
1009.500	593.156	80.005	19.996	103.794	20.038	0.595	0.478
1010.000	593.437	80.004	19.996	103.795	20.037	0.686	0.504
1010.500	593.672	80.004	19.995	103.798	20.038	0.582	0.518
1011.000	593.995	80.004	19.995	103.798	20.038	0.605	0.537
1011.500	594.219	80.004	19.995	103.798	20.036	0.733	0.553
1012.000	594.491	80.004	19.997	103.800	20.037	0.682	0.522
1012.500	594.720	80.005	19.998	103.800	20.038	0.582	0.499
1013.000	594.993	80.005	19.995	103.803	20.035	0.760	0.502
1013.500	595.319	80.005	19.997	103.808	20.040	0.441	0.550
1014.000	595.527	80.004	19.994	103.808	20.040	0.464	0.566
1014.500	595.779	80.005	19.994	103.809	20.037	0.650	0.497
1015.000	596.043	80.004	19.996	103.810	20.039	0.487	0.488
1015.500	596.295	80.004	19.996	103.808	20.041	0.362	0.516
1016.000	596.562	80.005	19.997	103.802	20.036	0.692	0.517
1016.500	596.791	80.004	19.996	103.799	20.043	0.263	0.507
1017.000	597.063	80.004	19.994	103.794	20.042	0.329	0.499
1017.500	597.324	80.004	19.995	103.788	20.038	0.597	0.517
1018.000	597.578	80.004	19.996	103.785	20.037	0.657	0.524
1018.500	597.807	80.005	19.995	103.786	20.038	0.555	0.499
1019.000	598.101	80.004	19.996	103.785	20.040	0.416	0.503
1019.500	598.358	80.005	19.995	103.789	20.038	0.588	0.536
1020.000	598.566	80.003	19.996	103.791	20.040	0.472	0.508
1020.500	598.825	80.004	19.995	103.788	20.044	0.164	0.466
1021.000	599.097	80.005	19.995	103.787	20.042	0.331	0.499
1021.500	599.345	80.005	19.996	103.791	20.040	0.470	0.526
1022.000	599.574	80.004	19.994	103.789	20.044	0.160	0.499
1022.500	599.828	80.003	19.995	103.789	20.038	0.611	0.480
1023.000	600.071	80.004	19.995	103.796	20.045	0.101	0.490
1023.500	600.348	80.004	19.996	103.804	20.040	0.410	0.508
1024.001	600.585	80.005	19.995	103.807	20.040	0.431	0.517
1024.501	600.836	80.003	19.995	103.808	20.040	0.441	0.501
1025.001	601.084	80.004	19.995	103.806	20.038	0.611	0.493
1025.500	601.349	80.003	19.995	103.800	20.043	0.269	0.506
1026.000	601.608	80.004	19.996	103.795	20.039	0.524	0.519
1026.500	601.851	80.005	19.996	103.792	20.039	0.493	0.513
1027.000	602.131	80.003	19.995	103.795	20.040	0.433	0.512
1027.500	602.342	80.004	19.996	103.796	20.041	0.396	0.507
1028.000	602.620	80.004	19.995	103.801	20.038	0.563	0.490
1028.500	602.859	80.003	19.995	103.799	20.040	0.427	0.503
1029.000	603.118	80.004	19.994	103.795	20.044	0.149	0.508
1029.500	603.380	80.005	19.994	103.788	20.041	0.408	0.510
1030.000	603.619	80.005	19.994	103.785	20.039	0.520	0.511
1030.500	603.911	80.004	19.995	103.780	20.039	0.526	0.516
1031.000	604.124	80.004	19.995	103.784	20.041	0.371	0.517
1031.500	604.352	80.003	19.993	103.787	20.040	0.450	0.473
1032.001	604.643	80.004	19.995	103.789	20.036	0.715	0.480
1032.500	604.865	80.005	19.994	103.792	20.038	0.601	0.516
1033.000	605.165	80.005	19.995	103.792	20.034	0.847	0.517
1033.500	605.366	80.005	19.993	103.790	20.039	0.483	0.512
1034.000	605.647	80.003	19.995	103.791	20.041	0.342	0.492
1034.500	605.895	80.005	19.995	103.792	20.036	0.741	0.505
1035.000	606.154	80.005	19.993	103.792	20.039	0.508	0.518
1035.500	606.407	80.004	19.994	103.794	20.037	0.619	0.509
1036.000	606.663	80.006	19.994	103.792	20.042	0.315	0.510
1036.500	606.847	80.005	19.994	103.790	20.035	0.775	0.474
1037.000	607.139	80.005	19.995	103.793	20.038	0.590	0.458
1037.500	607.370	80.005	19.994	103.792	20.036	0.740	0.500
1038.000	607.602	80.006	19.994	103.791	20.037	0.673	0.493
1038.500	607.844	80.005	19.994	103.791	20.038	0.592	0.468
1039.000	608.081	80.006	19.994	103.789	20.038	0.586	0.476
1039.500	608.355	80.006	19.994	103.784	20.040	0.412	0.496
1040.000	608.556	80.006	19.995	103.786	20.037	0.644	0.493
1040.500	608.840	80.006	19.994	103.790	20.037	0.667	0.480
1041.000	609.099	80.006	19.994	103.789	20.043	0.263	0.514
1041.500	609.298	80.006	19.995	103.789	20.038	0.549	0.501
1042.000	609.552	80.005	19.993	103.789	20.043	0.251	0.456
1042.500	609.787	80.008	19.994	103.788	20.041	0.400	0.471
1043.000	610.010	80.006	19.995	103.787	20.041	0.404	0.473
1043.500	610.286	80.007	19.995	103.792	20.037	0.624	0.479
1044.000	610.493	80.007	19.993	103.796	20.043	0.230	0.491
1044.500	610.772	80.007	19.995	103.799	20.040	0.414	0.485
1045.000	610.983	80.007	19.995	103.801	20.041	0.400	0.488
1045.500	611.210	80.007	19.994	103.801	20.040	0.474	0.464
1046.000	611.477	80.007	19.993	103.801	20.039	0.543	0.466
1046.500	611.724	80.007	19.995	103.800	20.040	0.472	0.504
1047.000	611.955	80.007	19.994	103.796	20.039	0.516	0.496
1047.500	612.220	80.007	19.995	103.794	20.040	0.433	0.487
1048.000	612.411	80.008	19.994	103.789	20.040	0.435	0.476
1048.500	612.703	80.005	19.994	103.785	20.035	0.777	0.470
1049.000	612.964	80.006	19.994	103.781	20.039	0.493	0.519
1049.500	613.151	80.005	19.994	103.786	20.039	0.535	0.501
1050.000	613.412	80.007	19.994	103.785	20.039	0.491	0.448
1050.500	613.637	80.006	19.994	103.786	20.038	0.578	0.467
1051.000	613.877	80.006	19.995	103.785	20.043	0.255	0.475
1051.500	614.126	80.006	19.994	103.784	20.041	0.363	0.476
1052.000	614.382	80.006	19.995	103.787	20.040	0.427	0.497
1052.501	614.625	80.005	19.994	103.793	20.036	0.704	0.502
1053.000	614.865	80.005	19.994	103.797	20.038	0.570	0.491
1053.500	615.121	80.006	19.995	103.796	20.040	0.439	0.490
1054.000	615.336	80.006	19.995	103.795	20.040	0.445	0.483
1054.500	615.565	80.006	19.995	103.790	20.040	0.441	0.457
1055.000	615.844	80.005	19.995	103.786	20.037	0.634	0.476
1055.500	616.076	80.005	19.994	103.785	20.041	0.392	0.510
1056.000	616.322	80.007	19.995	103.788	20.041	0.392	0.494
1056.500	616.556	80.004	19.996	103.791	20.039	0.505	0.479
1057.000	616.805	80.006	19.995	103.794	20.039	0.524	0.482
1057.500	617.033	80.004	19.995	103.798	20.040	0.416	0.480
1058.000	617.290	80.007	19.995	103.801	20.039	0.495	0.481
1058.500	617.531	80.005	19.994	103.800	20.038	0.607	0.491
1059.000	617.763	80.006	19.994	103.797	20.038	0.594	0.486
1059.500	618.015	80.006	19.996	103.794	20.039	0.524	0.479
1060.000	618.260	80.005	19.994	103.789	20.039	0.508	0.491
1060.500	618.490	80.006	19.994	103.785	20.037	0.634	0.486
1061.000	618.749	80.006	19.994	103.791	20.036	0.700	0.482
1061.500	618.965	80.006	19.994	103.795	20.037	0.652	0.482
1062.000	619.211	80.007	19.995	103.793	20.035	0.771	0.469
1062.500	619.443	80.006	19.994	103.795	20.036	0.738	0.470
1063.001	619.670	80.007	19.995	103.792	20.039	0.520	0.468
1063.500	619.936	80.007	19.994	103.785	20.035	0.802	0.476
1064.000	620.141	80.007	19.994	103.781	20.035	0.791	0.482
1064.500	620.426	80.007	19.994	103.780	20.037	0.646	0.480
1065.001	620.663	80.007	19.993	103.783	20.039	0.547	0.505
1065.500	620.887	80.008	19.994	103.790	20.040	0.477	0.491
1066.000	621.149	80.008	19.994	103.791	20.038	0.597	0.474
1066.500	621.384	80.007	19.994	103.793	20.039	0.499	0.491
1067.000	621.624	80.007	19.993	103.793	20.037	0.665	0.486
1067.500	621.871	80.008	19.994	103.788	20.039	0.534	0.481
1068.000	622.102	80.007	19.994	103.784	20.035	0.781	0.483
1068.500	622.371	80.008	19.994	103.784	20.036	0.750	0.489
1069.000	622.637	80.006	19.992	103.783	20.037	0.646	0.517
1069.500	622.874	80.008	19.995	103.785	20.035	0.798	0.519
1070.000	623.104	80.007	19.995	103.791	20.042	0.302	0.485
1070.500	623.346	80.007	19.994	103.795	20.036	0.704	0.469
1071.000	623.588	80.007	19.995	103.801	20.039	0.481	0.478
1071.500	623.843	80.007	19.994	103.807	20.038	0.590	0.491
1072.000	624.084	80.006	19.993	103.808	20.037	0.621	0.496
1072.500	624.306	80.007	19.995	103.801	20.033	0.953	0.480
1073.000	624.530	80.007	19.995	103.794	20.037	0.624	0.455
1073.500	624.763	80.005	19.995	103.788	20.038	0.572	0.452
1074.000	625.048	80.006	19.993	103.783	20.039	0.516	0.488
1074.500	625.248	80.007	19.995	103.783	20.039	0.541	0.501
1075.000	625.511	80.006	19.994	103.786	20.038	0.549	0.474
1075.500	625.775	80.006	19.994	103.785	20.039	0.528	0.495
1076.000	625.967	80.006	19.993	103.783	20.040	0.468	0.492
1076.500	626.235	80.005	19.994	103.783	20.040	0.464	0.459
1077.000	626.445	80.004	19.995	103.782	20.038	0.596	0.469
1077.500	626.759	80.005	19.995	103.785	20.038	0.572	0.501
1078.000	626.999	80.004	19.995	103.791	20.038	0.599	0.539
1078.500	627.238	80.005	19.995	103.795	20.038	0.594	0.517
1079.000	627.521	80.004	19.996	103.794	20.039	0.499	0.501
1079.500	627.745	80.004	19.995	103.793	20.039	0.514	0.514
1080.000	627.987	80.004	19.996	103.790	20.039	0.539	0.486
1080.500	628.242	80.003	19.994	103.792	20.037	0.640	0.481
1081.000	628.497	80.003	19.995	103.791	20.037	0.677	0.504
1081.500	628.746	80.004	19.995	103.794	20.038	0.576	0.507
1082.000	629.002	80.002	19.995	103.794	20.041	0.404	0.505
1082.500	629.291	80.003	19.996	103.797	20.036	0.737	0.525
1083.000	629.493	80.003	19.996	103.794	20.039	0.545	0.517
1083.500	629.747	80.004	19.995	103.792	20.037	0.630	0.474
1084.000	630.048	80.004	19.995	103.792	20.037	0.679	0.506
1084.500	630.286	80.004	19.995	103.793	20.035	0.812	0.547
1085.000	630.530	80.003	19.995	103.792	20.039	0.481	0.510
1085.500	630.793	80.003	19.994	103.795	20.037	0.673	0.495
1086.000	631.047	80.003	19.994	103.801	20.037	0.673	0.512
1086.500	631.307	80.004	19.993	103.805	20.037	0.655	0.515
1087.000	631.551	80.004	19.994	103.807	20.040	0.478	0.509
1087.500	631.834	80.004	19.994	103.805	20.034	0.884	0.516
1088.000	632.085	80.004	19.995	103.802	20.035	0.795	0.531
1088.500	632.321	80.003	19.994	103.799	20.039	0.528	0.510
1089.000	632.572	80.004	19.995	103.798	20.039	0.487	0.487
1089.500	632.852	80.004	19.994	103.797	20.038	0.609	0.509
1090.000	633.114	80.004	19.994	103.796	20.040	0.423	0.537
1090.500	633.351	80.005	19.995	103.795	20.037	0.651	0.520
1091.000	633.602	80.004	19.995	103.799	20.039	0.535	0.493
1091.500	633.912	80.004	19.994	103.801	20.042	0.294	0.525
1092.000	634.128	80.004	19.994	103.802	20.036	0.723	0.544
1092.500	634.366	80.003	19.994	103.803	20.037	0.684	0.490
1093.000	634.679	80.005	19.994	103.801	20.038	0.603	0.502
1093.500	634.894	80.005	19.994	103.800	20.037	0.655	0.539
1094.000	635.177	80.003	19.996	103.796	20.037	0.677	0.513
1094.500	635.411	80.003	19.994	103.794	20.035	0.800	0.507
1095.000	635.720	80.004	19.993	103.797	20.037	0.640	0.530
1095.500	635.978	80.005	19.994	103.802	20.043	0.247	0.555
1096.000	636.229	80.004	19.995	103.800	20.036	0.729	0.538
1096.500	636.475	80.005	19.994	103.805	20.038	0.605	0.503
1097.000	636.739	80.004	19.994	103.810	20.038	0.582	0.504
1097.500	637.014	80.005	19.993	103.806	20.039	0.489	0.525
1098.000	637.273	80.005	19.994	103.805	20.040	0.468	0.536
1098.500	637.519	80.004	19.994	103.805	20.039	0.518	0.519
1099.000	637.757	80.005	19.995	103.798	20.041	0.346	0.495
1099.500	638.020	80.006	19.994	103.795	20.037	0.652	0.493
1100.000	638.297	80.004	19.994	103.795	20.040	0.429	0.521
1100.500	638.563	80.003	19.994	103.789	20.035	0.773	0.541
1101.000	638.804	80.004	19.993	103.785	20.039	0.520	0.525
1101.500	639.041	80.004	19.993	103.784	20.038	0.568	0.493
1102.000	639.341	80.003	19.994	103.781	20.040	0.410	0.507
1102.500	639.586	80.005	19.994	103.780	20.036	0.713	0.541
1103.000	639.817	80.004	19.995	103.783	20.037	0.628	0.511
1103.500	640.109	80.004	19.995	103.790	20.039	0.483	0.500
1104.000	640.359	80.004	19.995	103.798	20.038	0.617	0.532
1104.501	640.594	80.005	19.995	103.804	20.037	0.679	0.513
1105.000	640.856	80.003	19.995	103.808	20.035	0.783	0.491
1105.500	641.130	80.004	19.995	103.806	20.037	0.677	0.517
1106.000	641.413	80.004	19.994	103.801	20.036	0.748	0.547
1106.500	641.666	80.003	19.994	103.795	20.037	0.655	0.546
1107.000	641.924	80.003	19.995	103.789	20.037	0.679	0.523
1107.500	642.204	80.003	19.993	103.787	20.036	0.748	0.525
1108.000	642.474	80.003	19.995	103.787	20.038	0.580	0.544
1108.500	642.717	80.003	19.994	103.791	20.041	0.406	0.532
1109.000	642.970	80.004	19.995	103.794	20.043	0.232	0.504
1109.500	643.205	80.004	19.997	103.795	20.040	0.437	0.492
1110.000	643.489	80.003	19.996	103.795	20.042	0.284	0.503
1110.500	643.743	80.003	19.995	103.796	20.042	0.294	0.529
1111.000	644.006	80.003	19.995	103.791	20.043	0.234	0.528
1111.500	644.283	80.003	19.996	103.788	20.037	0.651	0.529
1112.000	644.591	80.003	19.995	103.793	20.042	0.280	0.563
1112.500	644.826	80.003	19.997	103.797	20.044	0.162	0.565
1113.000	645.104	80.003	19.996	103.795	20.037	0.638	0.528
1113.500	645.364	80.001	19.995	103.795	20.043	0.255	0.526
1114.000	645.610	80.004	19.996	103.798	20.039	0.534	0.522
1114.500	645.834	80.003	19.995	103.798	20.038	0.578	0.487
1115.000	646.119	80.003	19.995	103.795	20.041	0.373	0.489
1115.500	646.390	80.002	19.995	103.795	20.040	0.448	0.533
1116.000	646.660	80.004	19.996	103.793	20.040	0.441	0.549
1116.500	646.906	80.003	19.994	103.789	20.037	0.628	0.529
1117.000	647.157	80.005	19.996	103.783	20.038	0.574	0.506
1117.500	647.489	80.005	19.996	103.781	20.042	0.282	0.540
1118.000	647.735	80.004	19.996	103.785	20.035	0.812	0.580
1118.500	648.000	80.004	19.996	103.789	20.037	0.622	0.545
1119.000	648.237	80.006	19.994	103.790	20.039	0.524	0.507
1119.500	648.528	80.005	19.996	103.792	20.041	0.373	0.515
1120.000	648.783	80.006	19.995	103.790	20.043	0.215	0.537
1120.500	649.050	80.005	19.995	103.784	20.044	0.159	0.534
1121.000	649.319	80.004	19.994	103.780	20.042	0.305	0.529
1121.500	649.601	80.005	19.994	103.782	20.042	0.307	0.543
1122.000	649.836	80.005	19.995	103.780	20.042	0.298	0.534
1122.501	650.146	80.006	19.995	103.784	20.043	0.207	0.531
1123.000	650.411	80.007	19.995	103.792	20.041	0.398	0.560
1123.500	650.668	80.006	19.995	103.800	20.042	0.338	0.548
1124.000	650.936	80.006	19.994	103.805	20.038	0.561	0.524
1124.500	651.190	80.007	19.994	103.806	20.044	0.162	0.524
1125.000	651.494	80.007	19.994	103.802	20.038	0.580	0.540
1125.500	651.749	80.005	19.993	103.794	20.039	0.499	0.558
1126.000	652.006	80.008	19.994	103.786	20.040	0.435	0.535
1126.500	652.251	80.007	19.994	103.784	20.042	0.292	0.507
1127.000	652.490	80.008	19.994	103.789	20.039	0.483	0.493
1127.500	652.823	80.008	19.995	103.793	20.040	0.472	0.528
1128.000	653.023	80.008	19.994	103.796	20.038	0.551	0.553
1128.500	653.318	80.008	19.994	103.795	20.042	0.309	0.515
1129.000	653.570	80.006	19.993	103.792	20.037	0.688	0.521
1129.500	653.823	80.008	19.994	103.789	20.041	0.367	0.526
1130.000	654.106	80.008	19.996	103.790	20.041	0.354	0.520
1130.500	654.367	80.007	19.994	103.790	20.041	0.350	0.540
1131.000	654.632	80.006	19.994	103.791	20.039	0.516	0.535
1131.500	654.919	80.006	19.994	103.792	20.040	0.478	0.539
1132.000	655.140	80.006	19.994	103.788	20.041	0.344	0.530
1132.500	655.425	80.006	19.994	103.784	20.040	0.429	0.507
1133.000	655.686	80.006	19.993	103.782	20.041	0.400	0.526
1133.500	655.932	80.006	19.995	103.782	20.041	0.375	0.527
1134.000	656.257	80.006	19.995	103.782	20.037	0.644	0.540
1134.500	656.492	80.004	19.994	103.789	20.039	0.501	0.566
1135.000	656.745	80.005	19.995	103.793	20.041	0.344	0.524
1135.500	657.002	80.006	19.994	103.798	20.040	0.437	0.499
1136.000	657.272	80.007	19.996	103.801	20.045	0.064	0.519
1136.500	657.515	80.006	19.994	103.799	20.039	0.495	0.520
1137.000	657.787	80.006	19.995	103.794	20.042	0.290	0.514
1137.500	658.067	80.006	19.995	103.787	20.038	0.553	0.534
1138.000	658.318	80.005	19.993	103.787	20.039	0.520	0.541
1138.500	658.562	80.006	19.994	103.790	20.036	0.696	0.513
1139.000	658.827	80.005	19.994	103.793	20.037	0.663	0.502
1139.500	659.088	80.005	19.994	103.793	20.038	0.576	0.517
1140.000	659.377	80.006	19.994	103.799	20.037	0.653	0.538
1140.500	659.591	80.005	19.995	103.800	20.035	0.777	0.526
1141.000	659.864	80.006	19.994	103.797	20.038	0.563	0.494
1141.500	660.131	80.006	19.994	103.795	20.041	0.392	0.514
1142.000	660.375	80.005	19.994	103.795	20.037	0.619	0.526
1142.500	660.624	80.005	19.995	103.795	20.040	0.414	0.502
1143.000	660.875	80.006	19.995	103.791	20.038	0.551	0.497
1143.500	661.144	80.005	19.994	103.790	20.038	0.609	0.510
1144.000	661.407	80.006	19.993	103.796	20.036	0.758	0.525
1144.500	661.640	80.005	19.995	103.800	20.039	0.547	0.514
1145.000	661.913	80.005	19.993	103.798	20.035	0.779	0.501
1145.500	662.162	80.006	19.993	103.796	20.040	0.429	0.514
1146.000	662.398	80.006	19.995	103.797	20.041	0.408	0.504
1146.500	662.655	80.006	19.994	103.796	20.039	0.526	0.489
1147.000	662.949	80.005	19.994	103.791	20.040	0.439	0.522
1147.500	663.192	80.007	19.995	103.793	20.036	0.744	0.544
1148.000	663.450	80.005	19.993	103.794	20.038	0.553	0.519
1148.500	663.729	80.007	19.994	103.791	20.036	0.700	0.519
1149.000	663.975	80.007	19.995	103.789	20.039	0.510	0.531
1149.500	664.210	80.008	19.994	103.788	20.038	0.566	0.503
1150.000	664.439	80.007	19.995	103.788	20.039	0.545	0.472
1150.500	664.728	80.007	19.994	103.789	20.038	0.615	0.491
1151.000	664.978	80.007	19.994	103.792	20.036	0.696	0.529
1151.500	665.244	80.007	19.994	103.791	20.037	0.675	0.527
1152.000	665.516	80.007	19.994	103.791	20.038	0.605	0.527
1152.500	665.721	80.007	19.993	103.789	20.037	0.652	0.508
1153.000	665.956	80.007	19.994	103.787	20.036	0.721	0.458
1153.500	666.239	80.005	19.992	103.785	20.037	0.679	0.479
1154.000	666.496	80.006	19.994	103.789	20.037	0.682	0.529
1154.500	666.744	80.005	19.994	103.789	20.041	0.408	0.522
1155.000	667.030	80.005	19.994	103.787	20.041	0.350	0.520
1155.500	667.297	80.005	19.994	103.787	20.044	0.164	0.544
1156.001	667.535	80.007	19.994	103.785	20.039	0.528	0.529
1156.501	667.787	80.006	19.994	103.781	20.039	0.506	0.498
1157.000	668.051	80.005	19.993	103.786	20.039	0.501	0.503
1157.500	668.282	80.006	19.994	103.786	20.036	0.717	0.505
1158.000	668.573	80.003	19.993	103.791	20.039	0.537	0.508
1158.500	668.757	80.005	19.994	103.794	20.038	0.553	0.499
1159.000	669.027	80.004	19.993	103.794	20.043	0.236	0.465
1159.500	669.282	80.004	19.995	103.790	20.040	0.441	0.489
1160.000	669.538	80.005	19.994	103.793	20.040	0.456	0.518
1160.500	669.781	80.004	19.993	103.790	20.043	0.226	0.505
1161.001	670.052	80.004	19.995	103.787	20.041	0.360	0.506
1161.500	670.306	80.005	19.994	103.791	20.041	0.390	0.520
1162.000	670.570	80.004	19.995	103.790	20.039	0.539	0.521
1162.500	670.798	80.004	19.994	103.792	20.042	0.315	0.505
1163.000	671.057	80.004	19.993	103.795	20.040	0.425	0.489
1163.500	671.289	80.004	19.993	103.798	20.040	0.412	0.489
1164.000	671.561	80.005	19.993	103.794	20.039	0.481	0.497
1164.500	671.800	80.004	19.994	103.793	20.039	0.501	0.508
1165.000	672.016	80.004	19.994	103.788	20.041	0.379	0.483
1165.500	672.281	80.004	19.993	103.783	20.038	0.584	0.468
1166.000	672.541	80.005	19.993	103.780	20.042	0.321	0.503
1166.500	672.806	80.005	19.993	103.780	20.036	0.721	0.524
1167.000	673.044	80.003	19.994	103.780	20.039	0.522	0.514
1167.500	673.337	80.003	19.993	103.780	20.042	0.319	0.517
1168.000	673.611	80.004	19.994	103.780	20.039	0.543	0.549
1168.500	673.848	80.004	19.994	103.782	20.035	0.779	0.539
1169.000	674.102	80.003	19.994	103.784	20.038	0.613	0.501
1169.500	674.334	80.004	19.994	103.788	20.038	0.591	0.489
1170.000	674.610	80.002	19.992	103.789	20.040	0.460	0.497
1170.500	674.839	80.003	19.994	103.789	20.037	0.638	0.506
1171.000	675.123	80.003	19.993	103.787	20.040	0.435	0.509
1171.500	675.322	80.003	19.995	103.786	20.038	0.603	0.498
1172.000	675.607	80.004	19.994	103.781	20.038	0.605	0.484
1172.500	675.877	80.004	19.993	103.781	20.038	0.590	0.520
1173.000	676.125	80.003	19.994	103.780	20.037	0.642	0.537
1173.500	676.353	80.003	19.993	103.780	20.037	0.640	0.497
1174.000	676.627	80.003	19.994	103.779	20.037	0.638	0.489
1174.500	676.882	80.004	19.995	103.778	20.037	0.644	0.515
1175.000	677.171	80.004	19.994	103.778	20.034	0.885	0.536
1175.500	677.328	80.005	19.995	103.778	20.037	0.671	0.495
1176.000	677.617	80.004	19.995	103.777	20.040	0.425	0.446
1176.500	677.866	80.004	19.995	103.777	20.039	0.528	0.492
1177.000	678.146	80.004	19.994	103.777	20.039	0.532	0.533
1177.500	678.386	80.003	19.995	103.778	20.037	0.634	0.524
1178.000	678.627	80.005	19.995	103.777	20.038	0.597	0.501
1178.500	678.852	80.003	19.994	103.777	20.036	0.742	0.474
1179.000	679.129	80.004	19.994	103.776	20.038	0.561	0.483
1179.500	679.342	80.004	19.995	103.778	20.034	0.839	0.496
1180.001	679.571	80.005	19.995	103.777	20.041	0.387	0.466
1180.500	679.833	80.002	19.994	103.778	20.039	0.522	0.466
1181.000	680.083	80.004	19.996	103.779	20.037	0.675	0.502
1181.500	680.329	80.004	19.994	103.780	20.036	0.750	0.504
1182.000	680.589	80.004	19.995	103.778	20.038	0.601	0.501
1182.500	680.839	80.004	19.993	103.778	20.036	0.713	0.508
1183.000	681.079	80.005	19.995	103.779	20.032	0.982	0.500
1183.500	681.317	80.004	19.994	103.779	20.037	0.626	0.484
1184.000	681.553	80.004	19.995	103.778	20.038	0.553	0.476
1184.500	681.824	80.003	19.994	103.779	20.038	0.617	0.490
1185.000	682.051	80.004	19.995	103.778	20.034	0.845	0.503
1185.500	682.316	80.004	19.994	103.776	20.038	0.574	0.495
1186.000	682.585	80.005	19.995	103.777	20.035	0.795	0.513
1186.500	682.837	80.003	19.994	103.779	20.035	0.760	0.528
1187.000	683.032	80.005	19.994	103.778	20.037	0.680	0.484
1187.500	683.231	80.004	19.994	103.779	20.039	0.535	0.420
1188.000	683.510	80.003	19.995	103.780	20.036	0.744	0.436
1188.500	683.801	80.003	19.995	103.780	20.035	0.825	0.524
1189.000	684.074	80.003	19.991	103.778	20.035	0.825	0.567
1189.500	684.293	80.003	19.996	103.779	20.036	0.702	0.528
1190.000	684.548	80.004	19.996	103.779	20.038	0.590	0.483
1190.500	684.784	80.005	19.995	103.778	20.034	0.876	0.483
1191.000	685.043	80.004	19.996	103.777	20.038	0.609	0.493
1191.500	685.285	80.003	19.995	103.777	20.039	0.522	0.498
1192.000	685.537	80.003	19.994	103.777	20.037	0.624	0.497
1192.500	685.798	80.003	19.994	103.775	20.035	0.812	0.504
1193.000	686.018	80.003	19.994	103.775	20.033	0.961	0.497
1193.501	686.283	80.003	19.994	103.774	20.037	0.649	0.483
1194.000	686.510	80.003	19.996	103.775	20.035	0.785	0.489
1194.500	686.794	80.004	19.996	103.775	20.038	0.605	0.502
1195.000	687.016	80.004	19.995	103.777	20.039	0.534	0.508
1195.500	687.276	80.004	19.994	103.782	20.039	0.489	0.494
1196.000	687.533	80.003	19.995	103.785	20.034	0.852	0.500
1196.500	687.790	80.003	19.996	103.785	20.041	0.398	0.516
1197.000	688.030	80.003	19.995	103.784	20.036	0.706	0.505
1197.500	688.326	80.003	19.996	103.782	20.042	0.332	0.516
1198.000	688.534	80.004	19.995	103.777	20.039	0.516	0.520
1198.500	688.809	80.004	19.994	103.775	20.037	0.638	0.494
1199.000	689.031	80.004	19.994	103.776	20.037	0.659	0.491
1199.500	689.290	80.004	19.995	103.777	20.036	0.740	0.489
1200.000	689.576	80.005	19.995	103.779	20.037	0.630	0.513
1200.500	689.809	80.004	19.995	103.779	20.042	0.323	0.532
1201.000	690.084	80.004	19.996	103.779	20.037	0.621	0.513
1201.500	690.353	80.005	19.996	103.780	20.037	0.636	0.526
1202.000	690.592	80.003	19.995	103.779	20.038	0.611	0.526
1202.500	690.845	80.005	19.996	103.778	20.038	0.586	0.500
1203.000	691.097	80.006	19.995	103.778	20.035	0.773	0.498
1203.500	691.360	80.005	19.995	103.778	20.035	0.787	0.510
1204.000	691.609	80.005	19.996	103.776	20.036	0.731	0.513
1204.500	691.853	80.005	19.996	103.775	20.037	0.679	0.503
1205.001	692.153	80.004	19.995	103.777	20.036	0.711	0.519
1205.501	692.355	80.006	19.996	103.779	20.041	0.344	0.523
1206.000	692.623	80.005	19.996	103.779	20.036	0.742	0.486
1206.500	692.911	80.005	19.995	103.779	20.037	0.655	0.513
1207.000	693.178	80.006	19.995	103.779	20.036	0.692	0.555
1207.500	693.440	80.004	19.995	103.777	20.039	0.524	0.542
1208.000	693.695	80.005	19.996	103.776	20.038	0.599	0.523
1208.500	693.931	80.006	19.995	103.779	20.034	0.870	0.504
1209.000	694.161	80.005	19.996	103.784	20.033	0.907	0.479
1209.500	694.451	80.005	19.996	103.786	20.038	0.564	0.493
1210.000	694.726	80.004	19.995	103.786	20.034	0.833	0.542
1210.500	694.999	80.005	19.997	103.786	20.037	0.673	0.556
1211.000	695.251	80.005	19.996	103.783	20.036	0.711	0.536
1211.500	695.518	80.005	19.996	103.781	20.038	0.617	0.522
1212.000	695.791	80.005	19.995	103.782	20.040	0.445	0.530
1212.500	696.059	80.004	19.994	103.782	20.035	0.771	0.541
1213.000	696.282	80.004	19.994	103.783	20.035	0.781	0.516
1213.500	696.543	80.003	19.994	103.785	20.035	0.798	0.488
1214.000	696.796	80.004	19.995	103.785	20.031	1.053	0.499
1214.500	697.072	80.004	19.995	103.784	20.030	1.173	0.521
1215.000	697.345	80.005	19.995	103.783	20.035	0.777	0.539
1215.500	697.633	80.005	19.995	103.782	20.037	0.638	0.555
1216.000	697.861	80.004	19.994	103.780	20.034	0.849	0.538
1216.500	698.162	80.005	19.994	103.777	20.035	0.783	0.523
1217.000	698.448	80.003	19.994	103.776	20.034	0.843	0.558
1217.500	698.662	80.004	19.995	103.776	20.033	0.920	0.543
1218.000	698.926	80.005	19.994	103.776	20.035	0.810	0.489
1218.500	699.159	80.005	19.994	103.776	20.039	0.541	0.488
1219.000	699.431	80.004	19.993	103.776	20.037	0.636	0.501
1219.500	699.743	80.005	19.994	103.777	20.033	0.938	0.544
1220.000	699.991	80.005	19.994	103.778	20.035	0.818	0.572
1220.500	700.217	80.005	19.995	103.778	20.034	0.845	0.518
1221.000	700.501	80.006	19.995	103.779	20.032	0.997	0.492
1221.500	700.789	80.007	19.994	103.779	20.037	0.647	0.541
1222.000	701.038	80.005	19.994	103.779	20.032	1.034	0.555
1222.500	701.285	80.006	19.994	103.778	20.031	1.094	0.517
1223.000	701.561	80.005	19.995	103.778	20.032	1.034	0.509
1223.500	701.782	80.006	19.994	103.777	20.031	1.061	0.510
1224.000	702.068	80.005	19.994	103.777	20.034	0.831	0.502
1224.500	702.320	80.005	19.995	103.776	20.032	1.007	0.523
1225.000	702.576	80.005	19.994	103.776	20.031	1.042	0.523
1225.500	702.831	80.006	19.994	103.772	20.033	0.937	0.510
1226.000	703.093	80.004	19.994	103.769	20.035	0.814	0.514
1226.500	703.310	80.005	19.994	103.768	20.033	0.938	0.498
1227.000	703.628	80.005	19.994	103.769	20.036	0.727	0.507
1227.500	703.854	80.006	19.993	103.770	20.034	0.829	0.539
1228.000	704.116	80.005	19.993	103.773	20.036	0.744	0.516
1228.500	704.355	80.006	19.994	103.776	20.034	0.839	0.495
1229.000	704.626	80.006	19.993	103.777	20.035	0.812	0.505
1229.500	704.878	80.006	19.994	103.778	20.038	0.611	0.516
1230.000	705.139	80.007	19.994	103.778	20.035	0.823	0.518
1230.500	705.408	80.007	19.994	103.778	20.033	0.916	0.522
1231.000	705.633	80.006	19.992	103.778	20.031	1.059	0.512
1231.500	705.850	80.006	19.993	103.773	20.040	0.431	0.468
1232.000	706.139	80.006	19.993	103.768	20.032	0.970	0.474
1232.500	706.398	80.007	19.993	103.765	20.033	0.924	0.527
1233.000	706.616	80.006	19.995	103.763	20.032	1.009	0.512
1233.500	706.903	80.006	19.995	103.763	20.033	0.924	0.491
1234.000	707.134	80.006	19.993	103.769	20.034	0.887	0.512
1234.500	707.378	80.007	19.994	103.772	20.031	1.073	0.496
1235.000	707.608	80.006	19.993	103.775	20.038	0.553	0.474
1235.500	707.886	80.005	19.993	103.776	20.034	0.889	0.491
1236.000	708.136	80.005	19.992	103.776	20.035	0.791	0.518
1236.500	708.329	80.006	19.994	103.777	20.037	0.659	0.485
1237.000	708.637	80.006	19.994	103.778	20.035	0.762	0.472
1237.500	708.871	80.004	19.993	103.778	20.034	0.874	0.521
1238.000	709.099	80.005	19.995	103.779	20.037	0.624	0.502
1238.500	709.363	80.006	19.994	103.780	20.036	0.696	0.477
1239.000	709.638	80.006	19.995	103.779	20.033	0.949	0.516
1239.500	709.867	80.005	19.994	103.777	20.036	0.702	0.522
1240.000	710.148	80.004	19.994	103.777	20.038	0.615	0.507
1240.500	710.407	80.005	19.995	103.777	20.033	0.924	0.525
1241.000	710.595	80.004	19.994	103.777	20.038	0.566	0.493
1241.500	710.871	80.004	19.994	103.776	20.033	0.926	0.455
1242.001	711.118	80.004	19.994	103.775	20.033	0.901	0.494
1242.500	711.366	80.004	19.995	103.775	20.035	0.783	0.509
1243.000	711.626	80.005	19.995	103.776	20.032	0.988	0.501
1243.500	711.878	80.004	19.994	103.776	20.039	0.537	0.510
1244.000	712.114	80.006	19.994	103.776	20.035	0.767	0.500
1244.500	712.384	80.004	19.993	103.777	20.034	0.891	0.497
1245.000	712.576	80.005	19.994	103.777	20.032	1.019	0.484
1245.500	712.824	80.004	19.995	103.776	20.035	0.777	0.451
1246.000	713.091	80.004	19.994	103.776	20.037	0.651	0.478
1246.500	713.343	80.004	19.994	103.777	20.037	0.675	0.517
1247.000	713.592	80.004	19.995	103.776	20.035	0.820	0.510
1247.500	713.818	80.004	19.996	103.775	20.034	0.847	0.488
1248.000	714.083	80.004	19.994	103.775	20.031	1.065	0.483
1248.500	714.299	80.003	19.993	103.774	20.039	0.539	0.486
1249.000	714.577	80.004	19.994	103.774	20.037	0.657	0.487
1249.500	714.806	80.005	19.996	103.775	20.035	0.791	0.501
1250.000	715.090	80.004	19.995	103.776	20.036	0.731	0.511
1250.500	715.351	80.004	19.995	103.776	20.038	0.599	0.529
1251.000	715.603	80.006	19.995	103.776	20.039	0.483	0.529
1251.500	715.843	80.004	19.994	103.779	20.038	0.617	0.502
1252.000	716.119	80.006	19.994	103.780	20.037	0.624	0.504
1252.500	716.333	80.005	19.995	103.780	20.038	0.584	0.503
1253.000	716.593	80.005	19.994	103.781	20.033	0.916	0.482
1253.500	716.844	80.004	19.994	103.780	20.036	0.719	0.492
1254.000	717.091	80.004	19.995	103.777	20.032	0.970	0.505
1254.500	717.335	80.004	19.994	103.776	20.038	0.603	0.495
1255.000	717.597	80.004	19.995	103.776	20.036	0.731	0.498
1255.500	717.856	80.005	19.993	103.776	20.040	0.423	0.513
1256.000	718.084	80.005	19.993	103.776	20.037	0.626	0.504
1256.500	718.340	80.004	19.995	103.776	20.037	0.680	0.485
1257.000	718.560	80.006	19.994	103.776	20.036	0.696	0.480
1257.500	718.876	80.005	19.994	103.775	20.036	0.750	0.506
1258.000	719.082	80.006	19.994	103.777	20.037	0.626	0.529
1258.500	719.377	80.004	19.993	103.778	20.034	0.893	0.512
1259.000	719.607	80.005	19.994	103.778	20.035	0.783	0.513
1259.500	719.849	80.006	19.995	103.777	20.036	0.754	0.498
1260.000	720.108	80.006	19.993	103.778	20.035	0.781	0.487
1260.500	720.352	80.005	19.992	103.776	20.033	0.924	0.502
1261.000	720.590	80.006	19.994	103.775	20.039	0.512	0.493
1261.500	720.840	80.004	19.995	103.775	20.032	0.968	0.485
1262.000	721.115	80.006	19.993	103.776	20.036	0.702	0.507
1262.500	721.376	80.004	19.993	103.776	20.034	0.895	0.531
1263.000	721.639	80.004	19.994	103.775	20.031	1.042	0.530
1263.500	721.921	80.005	19.994	103.775	20.035	0.785	0.534
1264.000	722.174	80.005	19.994	103.775	20.037	0.675	0.540
1264.500	722.429	80.006	19.995	103.774	20.038	0.582	0.521
1265.000	722.688	80.005	19.995	103.775	20.035	0.800	0.511
1265.500	722.948	80.004	19.995	103.776	20.041	0.371	0.516
1266.000	723.180	80.005	19.995	103.776	20.038	0.603	0.506
1266.500	723.478	80.006	19.995	103.776	20.034	0.851	0.511
1267.000	723.724	80.006	19.995	103.776	20.037	0.626	0.537
1267.500	723.975	80.004	19.993	103.777	20.038	0.617	0.520
1268.000	724.239	80.004	19.994	103.778	20.037	0.667	0.506
1268.500	724.510	80.005	19.995	103.783	20.036	0.702	0.525
1269.000	724.761	80.005	19.995	103.783	20.035	0.773	0.529
1269.500	725.054	80.003	19.995	103.782	20.037	0.644	0.533
1270.000	725.334	80.004	19.994	103.781	20.032	0.978	0.558
1270.500	725.559	80.005	19.995	103.779	20.039	0.495	0.539
1271.000	725.803	80.003	19.995	103.775	20.040	0.421	0.488
1271.500	726.093	80.004	19.994	103.775	20.036	0.702	0.501
1272.000	726.343	80.003	19.995	103.774	20.034	0.880	0.536
1272.500	726.620	80.004	19.994	103.770	20.034	0.847	0.533
1273.000	726.894	80.004	19.995	103.768	20.033	0.918	0.539
1273.500	727.161	80.004	19.995	103.767	20.035	0.802	0.546
1274.000	727.404	80.004	19.996	103.767	20.035	0.773	0.526
1274.500	727.723	80.003	19.996	103.770	20.031	1.055	0.536
1275.000	727.973	80.005	19.995	103.773	20.034	0.870	0.565
1275.500	728.236	80.003	19.994	103.775	20.034	0.860	0.541
1276.000	728.481	80.005	19.995	103.776	20.036	0.736	0.511
1276.500	728.729	80.003	19.996	103.776	20.037	0.619	0.501
1277.000	728.993	80.004	19.994	103.776	20.039	0.516	0.502
1277.500	729.286	80.005	19.996	103.776	20.036	0.744	0.534
1278.000	729.538	80.004	19.995	103.776	20.037	0.663	0.551
1278.500	729.799	80.004	19.995	103.776	20.040	0.441	0.529
1279.000	730.036	80.004	19.995	103.776	20.038	0.615	0.505
1279.500	730.339	80.005	19.995	103.777	20.032	0.995	0.519
1280.000	730.600	80.003	19.995	103.779	20.034	0.837	0.552
1280.500	730.807	80.005	19.995	103.779	20.038	0.568	0.516
1281.000	731.123	80.004	19.994	103.781	20.037	0.651	0.496
1281.500	731.378	80.004	19.995	103.781	20.040	0.450	0.547
1282.000	731.603	80.005	19.994	103.779	20.032	1.024	0.526
1282.500	731.884	80.005	19.995	103.778	20.036	0.756	0.493
1283.000	732.169	80.006	19.995	103.777	20.038	0.561	0.536
1283.500	732.448	80.007	19.994	103.777	20.038	0.588	0.565
1284.000	732.681	80.003	19.994	103.778	20.036	0.756	0.538
1284.500	732.996	80.005	19.994	103.779	20.036	0.690	0.530
1285.000	733.194	80.006	19.995	103.779	20.038	0.566	0.530
1285.500	733.475	80.006	19.995	103.779	20.036	0.750	0.496
1286.000	733.709	80.005	19.993	103.779	20.037	0.630	0.497
1286.500	733.991	80.006	19.994	103.779	20.036	0.702	0.516
1287.000	734.263	80.006	19.994	103.779	20.036	0.752	0.535
1287.500	734.396	80.003	19.995	103.779	20.036	0.696	0.480
1288.001	734.694	80.005	19.995	103.782	20.033	0.932	0.418
1288.500	735.008	80.007	19.993	103.784	20.039	0.543	0.522
1289.000	735.284	80.008	19.994	103.782	20.039	0.543	0.601
1289.500	735.490	80.007	19.996	103.781	20.038	0.597	0.536
1290.000	735.819	80.008	19.995	103.780	20.036	0.729	0.508
1290.500	735.966	80.005	19.994	103.776	20.038	0.586	0.506
1291.000	736.252	80.005	19.993	103.774	20.038	0.595	0.455
1291.500	736.474	80.005	19.994	103.775	20.037	0.653	0.470
1292.000	736.773	80.005	19.995	103.776	20.037	0.626	0.514
1292.500	737.023	80.005	19.994	103.776	20.039	0.501	0.535
1293.000	737.304	80.005	19.995	103.776	20.038	0.611	0.541
1293.500	737.531	80.006	19.994	103.777	20.038	0.591	0.520
1294.000	737.765	80.004	19.995	103.777	20.035	0.802	0.484
1294.500	738.011	80.006	19.994	103.776	20.033	0.955	0.471
1295.000	738.307	80.004	19.995	103.778	20.037	0.626	0.511
1295.500	738.507	80.004	19.995	103.778	20.037	0.642	0.519
1296.000	738.765	80.005	19.993	103.775	20.038	0.591	0.477
1296.500	739.031	80.004	19.995	103.773	20.035	0.789	0.491
1297.000	739.243	80.004	19.994	103.773	20.039	0.537	0.501
1297.500	739.547	80.004	19.994	103.774	20.034	0.854	0.498
1298.000	739.793	80.005	19.996	103.774	20.036	0.750	0.533
1298.500	740.045	80.005	19.995	103.776	20.038	0.615	0.524
1299.000	740.292	80.005	19.995	103.779	20.038	0.549	0.498
1299.500	740.514	80.004	19.994	103.779	20.035	0.823	0.484
1300.000	740.791	80.004	19.996	103.779	20.034	0.837	0.484
1300.500	741.059	80.005	19.996	103.777	20.037	0.669	0.522
1301.000	741.319	80.003	19.995	103.777	20.035	0.760	0.537
1301.500	741.564	80.006	19.995	103.777	20.033	0.922	0.516
1302.000	741.796	80.004	19.994	103.777	20.035	0.787	0.491
1302.500	742.033	80.005	19.994	103.777	20.035	0.764	0.473
1303.001	742.313	80.005	19.995	103.777	20.040	0.468	0.493
1303.500	742.562	80.005	19.996	103.776	20.036	0.725	0.522
1304.000	742.791	80.005	19.995	103.776	20.032	0.970	0.503
1304.500	743.058	80.005	19.996	103.775	20.037	0.636	0.487
1305.000	743.271	80.007	19.996	103.774	20.036	0.692	0.488
1305.500	743.532	80.005	19.994	103.773	20.034	0.849	0.477
