Sample ID:	C:\MCC\MCC Cal\Test\Gypsum_Wallboard_Paper_211001_R1.txt
Sample Weight (mg):	4.69
Heating Rate (C/s):	0.5
Combustor Temp (C):	900
N2 Flow Rate (cc/min):	80
O2 Flow Rate (cc/min):	20
Calibration File:	C:\MCC\MCC Cal\Coeff1 JN10440_30_210304.txt.txt
T Correction Coefficients:	0	1.024463	0
Time Shift (s):	14
*
Time (s)	Temperature (C)	N2 flow rate (cc/min)	O2 flow rate (cc/min)	Flow Rate (cc/min)	Oxygen (%)	HRR (W/g)	Heating rate (C/s)
0.000	106.427	79.999	19.996	100.530	20.094	-0.265	-0.019
0.500	106.445	80.000	19.996	100.529	20.096	-0.400	-0.007
1.000	106.443	79.999	19.994	100.529	20.094	-0.214	0.020
1.500	106.421	80.000	19.996	100.529	20.092	-0.113	-0.004
2.000	106.448	79.998	19.994	100.529	20.095	-0.321	-0.010
2.500	106.444	80.000	19.997	100.529	20.093	-0.142	0.014
3.000	106.436	80.000	19.997	100.531	20.091	-0.068	0.005
3.500	106.482	80.000	19.997	100.531	20.095	-0.310	0.013
4.000	106.486	80.001	19.997	100.532	20.093	-0.195	0.044
4.500	106.466	80.000	19.996	100.533	20.093	-0.178	0.017
5.000	106.460	80.000	19.995	100.534	20.092	-0.110	-0.021
5.500	106.492	80.001	19.995	100.533	20.092	-0.097	0.000
6.000	106.454	80.001	19.995	100.533	20.093	-0.177	0.010
6.500	106.434	80.000	19.995	100.531	20.093	-0.139	-0.032
7.000	106.437	80.000	19.995	100.529	20.095	-0.313	-0.038
7.500	106.477	80.001	19.995	100.528	20.092	-0.137	0.013
8.000	106.476	80.001	19.996	100.527	20.092	-0.074	0.041
8.500	106.437	80.001	19.996	100.527	20.091	-0.061	-0.001
9.000	106.445	80.001	19.996	100.529	20.091	-0.014	-0.036
9.500	106.438	80.002	19.996	100.529	20.095	-0.276	-0.015
10.000	106.449	80.002	19.996	100.529	20.091	-0.063	0.003
10.500	106.487	80.000	19.994	100.530	20.089	0.068	0.027
11.000	106.457	80.003	19.994	100.528	20.091	-0.045	0.028
11.500	106.431	80.002	19.994	100.527	20.089	0.099	-0.024
12.000	106.487	80.000	19.994	100.528	20.091	-0.038	-0.013
12.500	106.482	80.002	19.994	100.529	20.090	0.025	0.041
13.000	106.483	80.001	19.994	100.530	20.089	0.097	0.023
13.500	106.486	80.003	19.995	100.532	20.092	-0.090	0.000
14.000	106.493	80.002	19.994	100.533	20.094	-0.250	0.007
14.500	106.461	80.003	19.994	100.535	20.093	-0.139	-0.008
15.000	106.465	80.002	19.996	100.534	20.092	-0.110	-0.027
15.500	106.471	80.001	19.994	100.534	20.095	-0.317	-0.010
16.000	106.455	80.001	19.995	100.534	20.097	-0.424	-0.000
16.500	106.468	80.002	19.996	100.534	20.093	-0.141	-0.006
17.000	106.458	80.001	19.994	100.532	20.093	-0.155	0.000
17.500	106.466	80.002	19.995	100.533	20.091	-0.025	0.000
18.000	106.482	80.001	19.996	100.533	20.092	-0.081	0.011
18.500	106.459	80.001	19.997	100.533	20.093	-0.195	0.009
19.000	106.495	80.000	19.996	100.533	20.092	-0.097	0.003
19.500	106.461	80.001	19.995	100.534	20.093	-0.162	0.007
20.000	106.441	80.000	19.995	100.533	20.092	-0.072	-0.026
20.500	106.480	79.999	19.995	100.534	20.092	-0.087	-0.018
21.000	106.456	79.999	19.995	100.535	20.092	-0.092	0.017
21.500	106.476	80.000	19.996	100.535	20.094	-0.245	0.006
22.000	106.453	80.001	19.995	100.537	20.090	0.047	-0.003
22.500	106.483	80.000	19.995	100.538	20.092	-0.101	0.002
23.000	106.456	80.000	19.996	100.544	20.089	0.096	0.005
23.500	106.468	80.000	19.994	100.550	20.086	0.289	-0.006
24.000	106.479	80.001	19.995	100.558	20.087	0.209	0.004
24.500	106.513	80.000	19.993	100.563	20.088	0.184	0.034
25.000	106.499	80.000	19.995	100.572	20.088	0.164	0.033
25.500	106.462	79.999	19.995	100.580	20.084	0.402	-0.015
26.000	106.508	80.000	19.994	100.588	20.085	0.361	-0.021
26.500	106.517	79.999	19.995	100.596	20.082	0.574	0.031
27.000	106.511	80.000	19.993	100.606	20.082	0.554	0.028
27.500	106.552	79.999	19.994	100.617	20.077	0.895	0.019
28.000	106.559	79.999	19.994	100.624	20.077	0.892	0.042
28.500	106.595	80.000	19.995	100.633	20.077	0.931	0.046
29.000	106.618	79.999	19.994	100.640	20.077	0.877	0.051
29.500	106.631	79.999	19.994	100.647	20.075	1.033	0.047
30.000	106.631	79.999	19.995	100.650	20.075	1.038	0.025
30.500	106.668	79.999	19.994	100.657	20.070	1.343	0.025
31.000	106.660	79.999	19.995	100.665	20.071	1.305	0.033
31.500	106.710	80.000	19.993	100.673	20.072	1.238	0.036
32.000	106.730	80.000	19.995	100.681	20.074	1.119	0.056
32.500	106.767	80.000	19.995	100.696	20.069	1.446	0.063
33.000	106.760	79.999	19.995	100.705	20.068	1.496	0.043
33.500	106.815	79.998	19.995	100.712	20.067	1.568	0.039
34.000	106.859	80.001	19.994	100.720	20.065	1.675	0.073
34.500	106.896	80.000	19.995	100.725	20.062	1.884	0.090
35.000	106.926	80.001	19.996	100.725	20.062	1.873	0.074
35.500	107.010	79.998	19.994	100.728	20.064	1.740	0.091
36.000	107.026	80.000	19.994	100.730	20.064	1.758	0.107
36.500	107.064	79.999	19.995	100.733	20.062	1.910	0.077
37.000	107.101	80.000	19.995	100.736	20.058	2.191	0.064
37.500	107.164	79.999	19.995	100.738	20.062	1.937	0.088
38.000	107.240	80.000	19.995	100.739	20.058	2.177	0.120
38.500	107.310	80.000	19.995	100.742	20.058	2.148	0.142
39.000	107.330	80.001	19.995	100.744	20.056	2.317	0.118
39.500	107.398	80.001	19.995	100.747	20.056	2.332	0.089
40.001	107.444	79.999	19.995	100.746	20.055	2.348	0.101
40.501	107.518	80.000	19.995	100.746	20.053	2.541	0.117
41.001	107.583	80.000	19.995	100.742	20.055	2.366	0.129
41.501	107.636	80.000	19.994	100.737	20.057	2.254	0.129
42.001	107.698	80.000	19.994	100.733	20.055	2.404	0.117
42.500	107.768	79.999	19.994	100.735	20.053	2.501	0.123
43.000	107.854	79.999	19.995	100.734	20.052	2.561	0.144
43.500	107.923	79.999	19.994	100.734	20.058	2.144	0.155
44.000	107.991	80.000	19.995	100.734	20.052	2.597	0.146
44.500	108.081	80.001	19.994	100.733	20.054	2.440	0.147
45.000	108.163	79.999	19.995	100.731	20.054	2.469	0.165
45.500	108.306	79.999	19.994	100.731	20.055	2.404	0.199
46.000	108.372	80.001	19.995	100.731	20.052	2.586	0.217
46.500	108.446	80.000	19.995	100.731	20.054	2.453	0.174
47.000	108.527	80.000	19.995	100.732	20.055	2.400	0.148
47.501	108.604	79.999	19.996	100.733	20.054	2.409	0.157
48.001	108.721	79.998	19.996	100.733	20.052	2.572	0.176
48.500	108.759	79.998	19.996	100.733	20.054	2.473	0.175
49.000	108.866	80.001	19.995	100.732	20.053	2.532	0.150
49.500	108.973	79.999	19.995	100.729	20.053	2.495	0.180
50.000	109.086	79.999	19.995	100.729	20.054	2.419	0.217
50.500	109.181	79.998	19.995	100.728	20.054	2.453	0.214
51.001	109.222	79.999	19.994	100.726	20.052	2.556	0.172
51.501	109.345	79.999	19.995	100.725	20.054	2.473	0.150
52.000	109.483	79.998	19.996	100.726	20.052	2.549	0.212
52.500	109.544	80.000	19.995	100.726	20.052	2.551	0.229
53.000	109.683	80.000	19.995	100.727	20.055	2.392	0.199
53.500	109.713	79.997	19.995	100.728	20.052	2.560	0.185
54.000	109.829	79.998	19.995	100.730	20.053	2.506	0.158
54.500	109.949	79.998	19.996	100.730	20.054	2.433	0.191
55.000	110.068	79.999	19.996	100.730	20.055	2.367	0.237
55.500	110.127	80.000	19.997	100.730	20.056	2.298	0.209
56.000	110.241	79.999	19.997	100.730	20.054	2.450	0.176
56.500	110.364	79.998	19.995	100.731	20.052	2.607	0.205
57.000	110.473	79.998	19.997	100.732	20.056	2.340	0.234
57.500	110.609	79.998	19.996	100.731	20.050	2.692	0.239
58.000	110.691	79.999	19.995	100.731	20.055	2.369	0.232
58.500	110.779	79.999	19.995	100.731	20.053	2.531	0.194
59.000	110.868	79.999	19.995	100.734	20.053	2.540	0.173
59.500	111.007	80.000	19.994	100.737	20.052	2.553	0.202
60.001	111.152	79.999	19.995	100.743	20.050	2.685	0.256
60.501	111.260	79.999	19.997	100.750	20.048	2.856	0.268
61.000	111.384	80.000	19.996	100.755	20.049	2.748	0.243
61.500	111.494	80.001	19.997	100.757	20.051	2.661	0.233
62.000	111.599	80.001	19.995	100.756	20.047	2.907	0.224
62.500	111.708	80.000	19.996	100.753	20.047	2.913	0.215
63.000	111.795	79.999	19.995	100.750	20.050	2.734	0.205
63.500	111.933	80.000	19.995	100.747	20.049	2.752	0.210
64.000	112.073	80.001	19.995	100.749	20.052	2.588	0.251
64.500	112.177	80.001	19.995	100.750	20.050	2.731	0.261
65.000	112.294	80.000	19.995	100.752	20.050	2.729	0.233
65.500	112.450	80.001	19.995	100.752	20.051	2.673	0.247
66.000	112.577	80.001	19.995	100.756	20.047	2.889	0.278
66.500	112.705	80.000	19.994	100.757	20.049	2.785	0.269
67.000	112.837	80.002	19.995	100.759	20.049	2.759	0.258
67.500	112.958	80.001	19.995	100.761	20.050	2.702	0.256
68.000	113.091	80.000	19.996	100.766	20.048	2.836	0.253
68.500	113.210	80.000	19.995	100.767	20.048	2.827	0.253
69.000	113.399	80.001	19.994	100.767	20.047	2.881	0.280
69.500	113.506	80.002	19.996	100.767	20.046	3.000	0.301
70.000	113.643	80.002	19.994	100.770	20.046	2.989	0.270
70.500	113.785	80.001	19.994	100.771	20.046	2.998	0.261
71.000	113.917	80.002	19.994	100.770	20.045	3.016	0.277
71.500	114.029	80.001	19.994	100.772	20.046	2.998	0.260
72.000	114.196	80.000	19.996	100.773	20.042	3.237	0.262
72.500	114.324	80.001	19.994	100.774	20.043	3.199	0.287
73.000	114.475	80.001	19.995	100.773	20.041	3.284	0.287
73.500	114.602	80.000	19.994	100.780	20.043	3.150	0.278
74.000	114.751	80.000	19.994	100.785	20.044	3.116	0.277
74.500	114.902	80.000	19.995	100.788	20.045	3.070	0.288
75.000	115.046	80.000	19.996	100.788	20.043	3.211	0.297
75.501	115.185	80.000	19.993	100.793	20.045	3.054	0.289
76.001	115.327	79.999	19.995	100.792	20.044	3.083	0.282
76.501	115.500	80.000	19.996	100.788	20.045	3.047	0.298
77.001	115.652	79.999	19.995	100.788	20.043	3.211	0.320
77.500	115.819	79.999	19.995	100.793	20.040	3.358	0.322
78.000	115.978	79.999	19.995	100.793	20.043	3.182	0.323
78.500	116.132	80.000	19.996	100.795	20.043	3.170	0.319
79.000	116.317	80.002	19.996	100.801	20.040	3.390	0.326
79.500	116.481	80.000	19.995	100.804	20.040	3.352	0.344
80.000	116.640	80.000	19.995	100.805	20.040	3.399	0.336
80.500	116.759	80.000	19.996	100.805	20.037	3.601	0.301
81.000	116.917	79.999	19.995	100.804	20.037	3.565	0.277
81.500	117.113	80.001	19.996	100.804	20.036	3.652	0.316
82.000	117.300	80.000	19.995	100.804	20.036	3.621	0.369
82.500	117.436	80.000	19.996	100.804	20.040	3.385	0.353
83.000	117.660	79.999	19.996	100.803	20.039	3.471	0.341
83.500	117.769	80.000	19.996	100.804	20.039	3.480	0.346
84.000	117.950	79.999	19.996	100.804	20.035	3.695	0.312
84.500	118.143	80.001	19.995	100.805	20.036	3.627	0.332
85.000	118.302	80.001	19.995	100.804	20.037	3.610	0.363
85.500	118.474	80.001	19.997	100.805	20.037	3.587	0.342
86.000	118.685	80.000	19.996	100.802	20.034	3.782	0.357
86.500	118.819	80.001	19.996	100.801	20.037	3.574	0.364
87.000	118.979	80.002	19.996	100.800	20.037	3.585	0.319
87.500	119.212	80.000	19.996	100.801	20.035	3.730	0.343
88.000	119.351	80.000	19.996	100.802	20.037	3.601	0.383
88.500	119.544	79.999	19.994	100.804	20.038	3.517	0.352
89.000	119.740	80.001	19.996	100.803	20.038	3.513	0.361
89.500	119.929	80.001	19.996	100.803	20.038	3.535	0.387
90.000	120.112	80.001	19.995	100.804	20.037	3.593	0.378
90.500	120.264	80.000	19.996	100.804	20.033	3.856	0.354
91.001	120.473	80.002	19.995	100.805	20.039	3.464	0.348
91.501	120.671	80.002	19.996	100.806	20.041	3.298	0.384
92.000	120.831	80.001	19.995	100.807	20.041	3.340	0.383
92.500	121.051	80.002	19.995	100.805	20.040	3.412	0.369
93.000	121.269	80.003	19.996	100.802	20.038	3.504	0.409
93.500	121.414	80.003	19.995	100.802	20.039	3.419	0.401
94.000	121.641	80.003	19.994	100.802	20.040	3.404	0.368
94.501	121.778	80.001	19.995	100.800	20.040	3.410	0.368
95.001	121.957	80.002	19.994	100.800	20.040	3.394	0.340
95.501	122.163	80.001	19.993	100.800	20.040	3.381	0.350
96.001	122.381	80.002	19.993	100.796	20.037	3.554	0.404
96.500	122.570	80.002	19.994	100.796	20.042	3.248	0.415
97.000	122.778	80.001	19.994	100.797	20.041	3.290	0.402
97.500	123.008	80.001	19.996	100.799	20.045	3.061	0.417
98.000	123.163	80.001	19.994	100.801	20.045	3.075	0.411
98.500	123.371	80.001	19.994	100.805	20.043	3.164	0.375
99.000	123.545	79.999	19.995	100.806	20.038	3.512	0.373
99.500	123.773	80.001	19.994	100.807	20.043	3.204	0.392
100.000	123.926	80.000	19.994	100.808	20.042	3.271	0.391
100.500	124.178	80.000	19.995	100.808	20.040	3.354	0.393
101.000	124.375	80.000	19.996	100.808	20.037	3.614	0.427
101.500	124.572	79.999	19.995	100.808	20.040	3.396	0.422
102.000	124.801	79.999	19.994	100.808	20.040	3.379	0.410
102.500	124.993	79.998	19.996	100.809	20.040	3.370	0.423
103.000	125.229	79.999	19.994	100.809	20.040	3.387	0.425
103.500	125.422	80.000	19.995	100.809	20.042	3.267	0.429
104.000	125.655	79.998	19.995	100.809	20.043	3.155	0.428
104.500	125.879	79.999	19.994	100.796	20.042	3.278	0.442
105.000	126.079	80.000	19.994	100.775	20.039	3.466	0.440
105.501	126.292	79.998	19.994	100.764	20.040	3.416	0.418
106.001	126.504	79.999	19.995	100.762	20.040	3.379	0.419
106.500	126.696	79.998	19.995	100.763	20.040	3.369	0.415
107.000	126.921	80.000	19.995	100.778	20.042	3.231	0.410
107.500	127.137	79.998	19.994	100.828	20.041	3.320	0.429
108.000	127.330	79.998	19.995	100.845	20.043	3.210	0.425
108.500	127.565	79.999	19.995	100.846	20.041	3.293	0.419
109.000	127.769	79.999	19.994	100.846	20.043	3.213	0.433
109.500	128.002	80.000	19.996	100.843	20.044	3.116	0.438
110.000	128.216	80.001	19.995	100.815	20.044	3.108	0.442
110.500	128.441	79.998	19.995	100.808	20.046	3.013	0.443
111.000	128.699	79.999	19.994	100.808	20.041	3.345	0.461
111.500	128.939	79.997	19.996	100.808	20.043	3.157	0.491
112.000	129.130	79.999	19.995	100.809	20.040	3.410	0.465
112.500	129.331	80.000	19.994	100.809	20.041	3.316	0.411
113.000	129.531	79.998	19.995	100.808	20.042	3.214	0.396
113.500	129.771	79.999	19.994	100.810	20.044	3.093	0.420
114.000	129.978	80.000	19.994	100.810	20.040	3.397	0.444
114.500	130.190	79.998	19.995	100.809	20.043	3.148	0.433
115.001	130.365	79.998	19.994	100.809	20.044	3.085	0.403
115.501	130.635	79.998	19.995	100.810	20.043	3.197	0.416
116.000	130.817	79.998	19.995	100.810	20.046	3.007	0.448
116.500	131.055	79.998	19.994	100.810	20.045	3.045	0.436
117.000	131.309	79.999	19.996	100.810	20.043	3.184	0.457
117.500	131.555	79.999	19.994	100.810	20.043	3.168	0.496
118.000	131.763	79.998	19.995	100.810	20.042	3.271	0.477
118.500	131.959	80.000	19.994	100.810	20.041	3.318	0.429
119.000	132.204	80.000	19.995	100.809	20.044	3.123	0.422
119.500	132.417	79.999	19.995	100.809	20.045	3.079	0.450
120.000	132.652	80.000	19.996	100.808	20.047	2.946	0.453
120.500	132.887	79.999	19.994	100.807	20.044	3.088	0.459
121.000	133.110	79.999	19.996	100.805	20.046	2.989	0.464
121.500	133.340	79.999	19.994	100.805	20.049	2.803	0.456
122.000	133.570	80.000	19.995	100.804	20.045	3.029	0.456
122.501	133.800	80.000	19.995	100.800	20.047	2.882	0.460
123.001	134.023	79.999	19.995	100.797	20.048	2.814	0.457
123.500	134.252	80.001	19.995	100.792	20.045	3.049	0.452
124.000	134.526	80.000	19.995	100.790	20.046	2.998	0.477
124.500	134.712	80.001	19.994	100.790	20.046	2.987	0.481
125.000	134.955	79.999	19.995	100.795	20.047	2.938	0.445
125.500	135.193	80.000	19.995	100.798	20.044	3.084	0.455
126.000	135.376	80.000	19.995	100.802	20.047	2.916	0.451
126.500	135.644	80.000	19.995	100.799	20.044	3.086	0.436
127.000	135.882	80.001	19.994	100.797	20.045	3.056	0.478
127.500	136.084	80.000	19.996	100.797	20.044	3.115	0.472
128.000	136.332	80.000	19.994	100.797	20.044	3.121	0.445
128.500	136.554	80.000	19.994	100.799	20.047	2.944	0.460
129.000	136.796	80.000	19.995	100.803	20.044	3.092	0.467
129.500	137.038	80.001	19.995	100.799	20.044	3.123	0.474
130.000	137.262	80.001	19.996	100.798	20.043	3.170	0.475
130.500	137.513	80.000	19.995	100.799	20.047	2.924	0.470
131.000	137.716	80.000	19.994	100.799	20.048	2.864	0.465
131.500	137.969	80.000	19.995	100.797	20.046	2.976	0.456
132.000	138.189	79.998	19.995	100.801	20.043	3.193	0.465
132.500	138.447	80.000	19.994	100.801	20.044	3.124	0.475
133.000	138.665	79.999	19.994	100.800	20.046	2.972	0.477
133.500	138.869	79.999	19.994	100.798	20.046	2.999	0.449
134.000	139.150	79.999	19.994	100.800	20.044	3.138	0.453
134.500	139.411	79.999	19.994	100.799	20.045	3.057	0.513
135.000	139.630	79.999	19.995	100.799	20.044	3.081	0.511
135.500	139.919	80.000	19.994	100.797	20.047	2.895	0.494
136.000	140.089	79.999	19.994	100.794	20.045	3.043	0.483
136.500	140.348	79.999	19.994	100.788	20.043	3.165	0.444
137.000	140.614	79.999	19.995	100.788	20.043	3.176	0.477
137.500	140.824	79.999	19.994	100.789	20.044	3.129	0.501
138.000	141.045	80.000	19.995	100.791	20.044	3.122	0.454
138.500	141.300	79.999	19.996	100.796	20.045	3.043	0.454
139.000	141.509	79.999	19.996	100.802	20.042	3.232	0.470
139.500	141.745	79.999	19.995	100.802	20.045	3.061	0.454
140.000	141.992	79.999	19.996	100.801	20.045	3.023	0.464
140.500	142.225	80.000	19.995	100.803	20.049	2.754	0.482
141.000	142.469	79.998	19.996	100.801	20.048	2.869	0.479
141.500	142.677	80.001	19.997	100.799	20.050	2.710	0.464
142.000	142.930	80.000	19.995	100.794	20.051	2.627	0.456
142.500	143.225	80.000	19.995	100.792	20.050	2.710	0.505
143.000	143.489	79.999	19.994	100.784	20.050	2.727	0.553
143.500	143.706	80.000	19.995	100.781	20.048	2.837	0.520
144.000	143.912	80.000	19.996	100.782	20.049	2.763	0.452
144.500	144.171	80.000	19.996	100.784	20.049	2.764	0.444
145.000	144.402	80.000	19.996	100.782	20.050	2.707	0.478
145.500	144.627	80.001	19.995	100.784	20.052	2.546	0.473
146.001	144.900	80.001	19.996	100.784	20.050	2.725	0.477
146.501	145.137	80.000	19.996	100.780	20.052	2.588	0.504
147.000	145.387	80.002	19.995	100.780	20.053	2.524	0.499
147.500	145.629	80.001	19.995	100.780	20.050	2.685	0.490
148.000	145.873	80.001	19.996	100.780	20.051	2.627	0.489
148.500	146.106	80.001	19.995	100.778	20.049	2.779	0.481
149.000	146.333	80.002	19.995	100.780	20.049	2.757	0.468
149.500	146.612	80.002	19.995	100.784	20.049	2.795	0.483
150.000	146.785	80.001	19.995	100.783	20.045	3.021	0.479
150.500	147.050	80.001	19.994	100.783	20.052	2.546	0.445
151.000	147.287	80.002	19.996	100.783	20.050	2.679	0.470
151.500	147.558	80.001	19.995	100.778	20.048	2.811	0.505
152.000	147.775	80.000	19.995	100.771	20.051	2.640	0.499
152.500	148.032	80.001	19.994	100.775	20.050	2.690	0.481
153.000	148.292	80.000	19.994	100.778	20.048	2.836	0.495
153.500	148.515	80.001	19.994	100.778	20.052	2.596	0.500
154.000	148.772	79.999	19.995	100.778	20.051	2.658	0.482
154.500	149.013	80.000	19.996	100.783	20.051	2.676	0.489
155.000	149.273	80.000	19.995	100.781	20.051	2.674	0.499
155.500	149.510	80.002	19.995	100.779	20.050	2.681	0.499
156.000	149.788	80.001	19.996	100.780	20.051	2.616	0.506
156.500	150.020	80.002	19.995	100.782	20.054	2.450	0.512
157.000	150.267	80.001	19.995	100.779	20.053	2.479	0.495
157.500	150.526	79.999	19.996	100.782	20.049	2.759	0.493
158.000	150.714	80.000	19.994	100.783	20.051	2.627	0.476
158.500	150.991	80.000	19.996	100.785	20.050	2.699	0.456
159.000	151.217	80.000	19.996	100.787	20.054	2.473	0.484
159.500	151.505	80.001	19.996	100.787	20.054	2.455	0.508
160.000	151.738	80.001	19.994	100.782	20.049	2.791	0.518
160.500	151.982	79.999	19.994	100.778	20.051	2.645	0.499
161.000	152.240	79.999	19.995	100.774	20.053	2.540	0.490
161.500	152.476	80.001	19.996	100.770	20.052	2.585	0.498
162.000	152.699	80.001	19.996	100.770	20.055	2.353	0.477
162.500	152.972	80.000	19.996	100.770	20.054	2.463	0.477
163.000	153.167	80.001	19.995	100.770	20.054	2.457	0.482
163.500	153.377	80.000	19.996	100.770	20.056	2.275	0.436
164.000	153.659	79.999	19.994	100.770	20.053	2.500	0.448
164.500	153.885	79.999	19.994	100.768	20.053	2.509	0.500
165.000	154.126	79.999	19.995	100.769	20.056	2.334	0.488
165.500	154.344	80.000	19.995	100.768	20.056	2.318	0.463
166.000	154.607	80.000	19.995	100.767	20.053	2.537	0.470
166.500	154.841	79.999	19.995	100.767	20.053	2.504	0.489
167.000	155.083	79.999	19.995	100.769	20.054	2.437	0.486
167.500	155.323	79.999	19.995	100.769	20.051	2.645	0.479
168.000	155.553	80.000	19.995	100.770	20.054	2.441	0.476
168.500	155.784	80.000	19.994	100.770	20.053	2.504	0.466
169.000	156.034	80.000	19.994	100.769	20.052	2.580	0.472
169.500	156.249	80.001	19.996	100.768	20.055	2.398	0.473
170.000	156.526	80.000	19.995	100.768	20.054	2.412	0.478
170.500	156.741	80.001	19.995	100.766	20.054	2.427	0.492
171.000	156.996	80.001	19.995	100.767	20.052	2.567	0.481
171.500	157.214	80.000	19.995	100.767	20.054	2.463	0.472
172.000	157.447	80.000	19.995	100.766	20.052	2.591	0.462
172.500	157.664	80.001	19.995	100.767	20.056	2.334	0.450
173.000	157.943	80.000	19.996	100.767	20.054	2.430	0.473
173.500	158.192	80.002	19.995	100.763	20.053	2.497	0.512
174.000	158.395	80.001	19.995	100.763	20.057	2.224	0.490
174.500	158.646	80.001	19.996	100.764	20.056	2.320	0.453
175.000	158.880	80.002	19.996	100.763	20.058	2.197	0.470
175.500	159.126	80.001	19.995	100.762	20.056	2.298	0.483
176.000	159.371	80.002	19.996	100.765	20.054	2.441	0.486
176.500	159.618	80.001	19.995	100.764	20.054	2.435	0.492
177.000	159.805	80.001	19.995	100.764	20.054	2.433	0.463
177.500	160.117	80.001	19.995	100.764	20.053	2.498	0.466
178.000	160.331	80.000	19.994	100.765	20.055	2.399	0.513
178.500	160.535	80.001	19.996	100.765	20.057	2.226	0.472
179.000	160.762	80.001	19.995	100.766	20.053	2.526	0.424
179.500	161.006	80.000	19.996	100.766	20.056	2.327	0.451
180.000	161.249	80.001	19.996	100.767	20.054	2.446	0.479
180.500	161.484	80.000	19.995	100.767	20.053	2.504	0.483
181.000	161.730	80.000	19.995	100.767	20.056	2.316	0.479
181.500	161.912	80.001	19.994	100.767	20.058	2.199	0.454
182.000	162.167	79.999	19.995	100.766	20.053	2.506	0.433
182.500	162.417	80.001	19.995	100.765	20.054	2.450	0.471
183.000	162.642	79.999	19.995	100.764	20.053	2.493	0.490
183.500	162.883	80.000	19.995	100.763	20.054	2.441	0.470
184.000	163.072	79.998	19.997	100.763	20.056	2.279	0.448
184.500	163.333	79.999	19.996	100.764	20.056	2.327	0.440
185.000	163.587	80.000	19.995	100.762	20.055	2.345	0.483
185.500	163.799	79.999	19.995	100.761	20.051	2.665	0.491
186.000	164.007	79.999	19.995	100.759	20.057	2.244	0.443
186.500	164.311	79.999	19.995	100.757	20.055	2.341	0.466
187.000	164.494	80.000	19.995	100.753	20.054	2.428	0.500
187.500	164.771	79.998	19.995	100.754	20.052	2.545	0.474
188.000	165.008	80.000	19.995	100.752	20.052	2.589	0.487
188.500	165.252	80.001	19.995	100.754	20.051	2.650	0.497
189.000	165.541	80.000	19.995	100.757	20.050	2.695	0.507
189.500	165.745	79.999	19.994	100.761	20.048	2.836	0.513
190.000	165.963	80.000	19.993	100.762	20.051	2.636	0.458
190.500	166.179	79.999	19.994	100.764	20.054	2.441	0.428
191.000	166.408	80.000	19.995	100.764	20.055	2.388	0.439
191.500	166.627	80.001	19.995	100.762	20.054	2.462	0.447
192.000	166.881	79.999	19.995	100.762	20.055	2.383	0.460
192.500	167.159	79.998	19.996	100.761	20.052	2.545	0.502
193.000	167.381	79.999	19.994	100.764	20.051	2.623	0.516
193.500	167.614	80.000	19.994	100.764	20.050	2.686	0.477
194.000	167.848	79.999	19.996	100.767	20.054	2.448	0.461
194.500	168.075	80.000	19.995	100.767	20.054	2.436	0.464
195.000	168.349	80.000	19.995	100.768	20.055	2.376	0.481
195.500	168.525	80.000	19.994	100.762	20.056	2.331	0.475
196.000	168.794	80.000	19.996	100.759	20.053	2.492	0.447
196.500	169.018	79.999	19.994	100.758	20.055	2.367	0.469
197.000	169.261	80.000	19.994	100.755	20.055	2.387	0.480
197.500	169.518	79.998	19.995	100.750	20.054	2.455	0.483
198.000	169.756	80.000	19.994	100.750	20.056	2.333	0.497
198.500	169.966	80.000	19.994	100.749	20.057	2.244	0.472
199.000	170.213	80.000	19.996	100.750	20.054	2.426	0.453
199.500	170.480	79.999	19.995	100.749	20.056	2.338	0.485
200.000	170.688	80.002	19.995	100.753	20.056	2.327	0.495
200.500	170.909	80.000	19.995	100.760	20.055	2.380	0.452
201.000	171.180	80.000	19.995	100.758	20.056	2.287	0.460
201.500	171.351	80.000	19.994	100.756	20.052	2.551	0.467
202.000	171.599	80.000	19.994	100.754	20.053	2.482	0.431
202.500	171.801	80.001	19.995	100.748	20.052	2.545	0.434
203.000	172.076	80.000	19.995	100.747	20.053	2.531	0.463
203.500	172.270	80.002	19.996	100.750	20.053	2.482	0.473
204.000	172.551	79.999	19.994	100.751	20.053	2.522	0.472
204.500	172.797	80.000	19.995	100.757	20.052	2.551	0.501
205.000	173.036	80.001	19.995	100.763	20.051	2.674	0.506
205.500	173.252	80.000	19.994	100.765	20.050	2.730	0.471
206.000	173.473	80.000	19.995	100.768	20.051	2.652	0.446
206.500	173.696	80.000	19.994	100.768	20.052	2.603	0.440
207.000	173.966	80.000	19.995	100.768	20.053	2.518	0.469
207.500	174.164	80.000	19.995	100.769	20.053	2.515	0.481
208.000	174.436	80.000	19.996	100.769	20.052	2.594	0.469
208.500	174.667	80.000	19.994	100.769	20.053	2.513	0.486
209.000	174.876	80.001	19.996	100.768	20.054	2.425	0.471
209.500	175.169	80.002	19.996	100.765	20.050	2.696	0.471
210.000	175.398	80.000	19.996	100.763	20.052	2.548	0.512
210.500	175.633	79.999	19.996	100.763	20.052	2.582	0.493
211.000	175.854	80.001	19.995	100.763	20.054	2.418	0.459
211.500	176.060	80.000	19.995	100.763	20.052	2.555	0.441
212.000	176.289	80.001	19.995	100.764	20.051	2.649	0.431
212.500	176.561	80.000	19.995	100.762	20.050	2.730	0.468
213.000	176.816	79.999	19.995	100.757	20.051	2.647	0.514
213.500	177.032	80.001	19.995	100.754	20.049	2.802	0.498
214.000	177.264	79.999	19.994	100.753	20.049	2.786	0.459
214.500	177.508	79.999	19.994	100.754	20.052	2.551	0.462
215.000	177.697	80.000	19.995	100.756	20.050	2.734	0.454
215.500	177.942	79.999	19.994	100.760	20.048	2.826	0.434
216.000	178.172	79.999	19.994	100.760	20.050	2.715	0.455
216.500	178.414	80.000	19.994	100.761	20.051	2.631	0.474
217.000	178.637	80.000	19.995	100.761	20.051	2.632	0.469
217.500	178.853	80.001	19.995	100.759	20.052	2.582	0.452
218.000	179.143	79.998	19.995	100.758	20.052	2.596	0.472
218.500	179.369	79.999	19.995	100.761	20.054	2.455	0.511
219.000	179.604	80.000	19.994	100.763	20.052	2.578	0.489
219.500	179.837	80.000	19.995	100.763	20.052	2.544	0.464
220.000	180.063	80.001	19.995	100.767	20.053	2.488	0.463
220.500	180.286	80.000	19.995	100.769	20.050	2.721	0.454
221.000	180.525	80.000	19.996	100.769	20.050	2.728	0.455
221.500	180.793	79.999	19.994	100.768	20.051	2.636	0.485
222.000	181.027	79.999	19.994	100.769	20.050	2.677	0.505
222.500	181.288	79.999	19.995	100.769	20.054	2.423	0.499
223.000	181.518	79.999	19.994	100.770	20.053	2.510	0.493
223.500	181.774	80.000	19.995	100.770	20.052	2.595	0.489
224.000	181.985	80.000	19.995	100.771	20.050	2.710	0.477
224.500	182.215	80.001	19.994	100.771	20.054	2.439	0.454
225.000	182.426	80.002	19.995	100.771	20.055	2.381	0.441
225.500	182.711	80.002	19.995	100.771	20.055	2.396	0.469
226.000	182.942	80.001	19.993	100.770	20.051	2.629	0.506
226.500	183.143	80.001	19.994	100.770	20.050	2.694	0.474
227.000	183.405	80.000	19.994	100.769	20.051	2.652	0.448
227.500	183.625	80.001	19.995	100.770	20.053	2.482	0.473
228.000	183.887	80.002	19.995	100.769	20.051	2.641	0.482
228.500	184.126	80.002	19.994	100.767	20.053	2.477	0.491
229.000	184.348	80.001	19.994	100.766	20.053	2.524	0.481
229.500	184.613	80.002	19.995	100.765	20.056	2.331	0.474
230.000	184.876	80.000	19.994	100.764	20.052	2.555	0.507
230.500	185.098	80.001	19.995	100.765	20.055	2.399	0.507
231.000	185.349	80.002	19.994	100.767	20.050	2.677	0.479
231.500	185.610	80.001	19.994	100.765	20.053	2.537	0.493
232.000	185.857	79.999	19.995	100.760	20.054	2.434	0.510
232.500	186.143	80.002	19.995	100.761	20.054	2.459	0.520
233.000	186.368	80.002	19.995	100.761	20.053	2.526	0.522
233.500	186.588	80.001	19.994	100.761	20.049	2.777	0.479
234.000	186.848	80.001	19.995	100.765	20.049	2.780	0.463
234.500	187.089	80.002	19.995	100.770	20.052	2.580	0.490
235.000	187.347	80.001	19.993	100.770	20.049	2.770	0.500
235.500	187.574	80.001	19.996	100.770	20.049	2.773	0.492
236.000	187.838	80.000	19.994	100.769	20.049	2.791	0.488
236.500	188.051	80.001	19.996	100.766	20.049	2.788	0.484
237.000	188.293	80.000	19.995	100.766	20.050	2.732	0.466
237.500	188.570	80.000	19.995	100.766	20.049	2.809	0.487
238.000	188.769	80.000	19.995	100.767	20.047	2.892	0.497
238.500	189.041	80.000	19.995	100.766	20.047	2.908	0.473
239.000	189.321	80.001	19.995	100.768	20.046	2.979	0.512
239.500	189.541	79.999	19.994	100.768	20.044	3.093	0.526
240.000	189.750	79.999	19.995	100.767	20.046	2.952	0.465
240.500	190.012	79.999	19.995	100.766	20.046	2.977	0.450
241.000	190.256	80.000	19.995	100.767	20.045	3.046	0.488
241.500	190.521	80.000	19.994	100.765	20.046	2.981	0.507
242.000	190.743	80.000	19.995	100.764	20.044	3.139	0.498
242.500	190.975	80.000	19.995	100.765	20.043	3.157	0.471
243.000	191.274	80.000	19.994	100.766	20.044	3.089	0.493
243.500	191.480	80.000	19.995	100.767	20.046	2.980	0.518
244.000	191.724	80.001	19.995	100.769	20.047	2.881	0.478
244.500	191.955	79.999	19.995	100.770	20.049	2.780	0.463
245.000	192.204	80.000	19.995	100.770	20.048	2.875	0.477
245.501	192.454	79.999	19.995	100.770	20.045	3.045	0.489
246.001	192.739	79.999	19.995	100.769	20.044	3.089	0.517
246.500	192.927	80.001	19.995	100.768	20.049	2.775	0.504
247.000	193.198	80.001	19.996	100.767	20.049	2.805	0.466
247.500	193.379	80.001	19.995	100.766	20.049	2.762	0.456
248.000	193.637	80.002	19.995	100.766	20.050	2.710	0.446
248.500	193.899	80.001	19.996	100.764	20.050	2.719	0.480
249.000	194.177	80.002	19.995	100.764	20.049	2.764	0.530
249.500	194.393	80.001	19.996	100.763	20.047	2.892	0.517
250.000	194.609	80.001	19.995	100.762	20.050	2.704	0.463
250.500	194.857	80.002	19.994	100.760	20.052	2.572	0.448
251.000	195.105	80.001	19.994	100.759	20.050	2.709	0.480
251.500	195.351	80.002	19.995	100.758	20.052	2.578	0.495
252.000	195.620	80.002	19.995	100.758	20.054	2.475	0.505
252.500	195.829	80.002	19.994	100.757	20.054	2.453	0.497
253.000	196.075	80.002	19.994	100.758	20.052	2.578	0.467
253.500	196.294	80.002	19.994	100.757	20.054	2.417	0.460
254.000	196.537	80.001	19.995	100.754	20.054	2.428	0.463
254.500	196.785	80.002	19.995	100.749	20.056	2.336	0.477
255.000	197.010	80.001	19.994	100.748	20.055	2.403	0.482
255.500	197.236	80.001	19.995	100.743	20.051	2.654	0.462
256.000	197.518	80.001	19.994	100.742	20.051	2.652	0.479
256.500	197.744	80.001	19.995	100.745	20.050	2.717	0.508
257.000	198.010	80.002	19.994	100.748	20.052	2.606	0.500
257.500	198.267	80.001	19.994	100.749	20.051	2.664	0.508
258.000	198.524	80.004	19.995	100.756	20.047	2.897	0.519
258.500	198.759	80.002	19.996	100.759	20.050	2.731	0.503
259.000	198.996	80.001	19.995	100.760	20.050	2.700	0.482
259.500	199.267	80.001	19.995	100.762	20.049	2.798	0.490
260.000	199.473	80.001	19.996	100.764	20.050	2.677	0.493
260.500	199.779	80.001	19.994	100.763	20.048	2.827	0.494
261.000	200.023	80.001	19.995	100.758	20.048	2.861	0.531
261.500	200.226	80.001	19.995	100.752	20.049	2.754	0.498
262.000	200.501	80.001	19.994	100.745	20.050	2.693	0.463
262.500	200.738	80.001	19.994	100.741	20.048	2.857	0.495
263.000	200.980	79.999	19.995	100.742	20.047	2.895	0.495
263.500	201.219	80.001	19.996	100.743	20.049	2.751	0.480
264.000	201.456	80.000	19.995	100.745	20.048	2.821	0.478
264.500	201.764	79.999	19.995	100.748	20.049	2.789	0.511
265.000	202.001	79.999	19.995	100.750	20.050	2.715	0.546
265.500	202.228	79.999	19.996	100.747	20.049	2.794	0.505
266.000	202.474	80.000	19.996	100.745	20.050	2.713	0.468
266.500	202.781	79.999	19.996	100.749	20.050	2.700	0.512
267.000	203.020	79.998	19.996	100.748	20.048	2.835	0.549
267.500	203.208	79.999	19.996	100.745	20.048	2.850	0.487
268.000	203.484	79.999	19.996	100.741	20.046	2.971	0.446
268.500	203.732	80.000	19.996	100.743	20.047	2.908	0.494
269.000	203.997	79.998	19.997	100.740	20.045	3.048	0.518
269.500	204.197	79.999	19.997	100.740	20.043	3.169	0.489
270.000	204.454	79.998	19.995	100.737	20.045	3.043	0.461
270.500	204.693	79.998	19.997	100.742	20.048	2.832	0.477
271.000	204.903	79.997	19.996	100.741	20.048	2.872	0.472
271.500	205.171	79.999	19.996	100.739	20.051	2.659	0.463
272.000	205.414	79.998	19.997	100.739	20.045	3.026	0.495
272.500	205.655	79.998	19.996	100.739	20.052	2.573	0.497
273.000	205.866	79.998	19.995	100.735	20.050	2.713	0.468
273.500	206.114	80.000	19.996	100.735	20.049	2.764	0.456
274.000	206.340	80.000	19.995	100.737	20.051	2.645	0.466
274.500	206.613	79.998	19.995	100.738	20.050	2.740	0.487
275.000	206.843	79.997	19.997	100.742	20.050	2.739	0.501
275.500	207.114	79.999	19.997	100.744	20.050	2.739	0.502
276.000	207.350	79.999	19.997	100.742	20.052	2.545	0.504
276.500	207.577	79.999	19.997	100.740	20.050	2.677	0.486
277.000	207.857	80.000	19.996	100.737	20.052	2.603	0.485
277.500	208.073	79.999	19.996	100.735	20.052	2.558	0.501
278.000	208.333	79.999	19.996	100.734	20.051	2.666	0.486
278.500	208.597	79.999	19.996	100.734	20.053	2.516	0.500
279.000	208.847	80.000	19.996	100.735	20.048	2.852	0.519
279.500	209.081	79.999	19.994	100.736	20.051	2.628	0.499
280.000	209.318	80.000	19.994	100.735	20.050	2.693	0.477
280.500	209.559	80.000	19.995	100.733	20.051	2.641	0.474
281.000	209.769	80.000	19.995	100.733	20.053	2.534	0.464
281.500	210.038	79.999	19.995	100.739	20.050	2.686	0.465
282.000	210.261	79.999	19.995	100.743	20.047	2.905	0.485
282.500	210.497	80.000	19.994	100.746	20.051	2.646	0.475
283.000	210.745	80.000	19.995	100.753	20.051	2.674	0.471
283.500	210.971	80.001	19.994	100.758	20.050	2.681	0.480
284.000	211.226	79.999	19.994	100.758	20.052	2.567	0.478
284.500	211.490	80.000	19.995	100.759	20.047	2.894	0.500
285.000	211.713	79.999	19.994	100.759	20.047	2.914	0.503
285.500	211.995	79.999	19.994	100.758	20.048	2.816	0.496
286.000	212.252	80.000	19.994	100.758	20.050	2.702	0.522
286.500	212.509	79.999	19.995	100.754	20.048	2.867	0.527
287.000	212.745	79.999	19.995	100.752	20.046	2.971	0.504
287.500	212.975	79.999	19.995	100.753	20.049	2.800	0.480
288.000	213.188	79.999	19.995	100.751	20.051	2.641	0.455
288.500	213.472	80.000	19.994	100.750	20.050	2.711	0.470
289.000	213.719	79.999	19.994	100.753	20.048	2.848	0.514
289.501	214.015	80.000	19.994	100.754	20.048	2.845	0.538
290.000	214.259	80.001	19.995	100.753	20.049	2.744	0.542
290.500	214.500	79.999	19.995	100.755	20.048	2.839	0.512
291.000	214.756	80.000	19.996	100.754	20.047	2.901	0.491
291.500	214.971	79.999	19.996	100.754	20.047	2.878	0.484
292.000	215.215	80.000	19.994	100.751	20.048	2.860	0.465
292.500	215.486	80.001	19.995	100.752	20.049	2.777	0.487
293.000	215.734	79.999	19.995	100.752	20.047	2.908	0.517
293.500	215.959	79.999	19.996	100.753	20.049	2.804	0.496
294.000	216.227	80.000	19.995	100.754	20.046	2.965	0.483
294.500	216.478	79.999	19.996	100.756	20.046	2.972	0.506
295.000	216.730	80.000	19.994	100.751	20.044	3.089	0.511
295.500	216.955	80.000	19.995	100.749	20.044	3.116	0.490
296.000	217.197	79.998	19.995	100.750	20.046	2.956	0.472
296.500	217.467	80.000	19.995	100.747	20.044	3.095	0.489
297.000	217.725	79.999	19.995	100.746	20.044	3.122	0.520
297.500	217.983	79.999	19.994	100.747	20.049	2.769	0.522
298.000	218.218	80.000	19.994	100.748	20.045	3.028	0.505
298.500	218.457	79.999	19.994	100.752	20.046	2.970	0.484
299.001	218.686	79.999	19.994	100.751	20.044	3.136	0.471
299.500	218.939	79.999	19.995	100.748	20.044	3.120	0.475
300.000	219.161	79.999	19.995	100.748	20.042	3.217	0.479
300.500	219.426	79.999	19.994	100.747	20.043	3.156	0.481
301.000	219.722	79.998	19.994	100.746	20.043	3.194	0.524
301.500	219.990	79.999	19.995	100.748	20.040	3.349	0.562
302.000	220.231	79.999	19.994	100.752	20.044	3.110	0.537
302.500	220.447	79.999	19.995	100.757	20.042	3.265	0.483
303.000	220.727	79.999	19.994	100.760	20.041	3.305	0.476
303.500	220.977	79.998	19.995	100.761	20.040	3.359	0.512
304.000	221.202	79.998	19.994	100.762	20.042	3.278	0.502
304.500	221.492	79.999	19.995	100.764	20.042	3.240	0.495
305.000	221.747	79.999	19.995	100.766	20.046	2.948	0.530
305.500	221.986	79.999	19.995	100.769	20.041	3.309	0.519
306.000	222.240	80.000	19.995	100.767	20.045	3.049	0.494
306.500	222.481	80.000	19.994	100.768	20.042	3.217	0.494
307.000	222.773	80.000	19.994	100.768	20.043	3.174	0.514
307.500	222.994	80.000	19.994	100.768	20.042	3.262	0.523
308.000	223.260	80.001	19.994	100.763	20.040	3.390	0.500
308.500	223.510	80.000	19.994	100.763	20.036	3.625	0.501
309.000	223.759	80.000	19.993	100.763	20.038	3.486	0.507
309.500	224.011	80.001	19.993	100.762	20.038	3.540	0.500
310.000	224.279	80.001	19.993	100.761	20.038	3.526	0.511
310.500	224.513	80.001	19.994	100.762	20.038	3.519	0.511
311.000	224.755	80.002	19.994	100.763	20.039	3.450	0.489
311.500	225.017	80.001	19.994	100.758	20.040	3.374	0.489
312.000	225.310	80.001	19.994	100.757	20.039	3.437	0.529
312.500	225.510	80.002	19.994	100.752	20.039	3.424	0.524
313.000	225.776	80.002	19.994	100.750	20.037	3.552	0.479
313.500	225.981	80.001	19.993	100.747	20.039	3.444	0.468
314.000	226.265	80.001	19.994	100.751	20.036	3.616	0.480
314.500	226.527	80.001	19.996	100.750	20.036	3.666	0.518
315.000	226.778	80.002	19.995	100.752	20.040	3.414	0.530
315.500	227.021	80.001	19.993	100.753	20.039	3.470	0.504
316.000	227.262	80.002	19.994	100.754	20.038	3.544	0.489
316.500	227.523	80.002	19.995	100.752	20.039	3.475	0.493
317.000	227.787	80.002	19.995	100.753	20.038	3.504	0.514
317.500	228.044	80.002	19.993	100.756	20.035	3.713	0.523
318.000	228.303	80.000	19.995	100.755	20.036	3.662	0.518
318.500	228.574	80.002	19.995	100.757	20.037	3.578	0.523
319.000	228.860	80.002	19.995	100.760	20.036	3.657	0.544
319.500	229.081	80.001	19.995	100.758	20.035	3.738	0.533
320.000	229.367	80.002	19.994	100.759	20.032	3.917	0.507
320.500	229.626	80.001	19.995	100.760	20.035	3.715	0.526
321.000	229.872	80.001	19.995	100.761	20.037	3.592	0.525
321.500	230.139	80.002	19.994	100.761	20.036	3.632	0.509
322.000	230.396	80.003	19.995	100.764	20.038	3.505	0.518
322.501	230.613	80.001	19.995	100.760	20.038	3.505	0.499
323.000	230.882	80.002	19.996	100.756	20.038	3.516	0.480
323.500	231.136	80.002	19.994	100.752	20.035	3.704	0.505
324.000	231.373	80.001	19.995	100.748	20.036	3.663	0.507
324.500	231.646	80.001	19.994	100.746	20.036	3.630	0.500
325.000	231.907	80.001	19.995	100.751	20.037	3.610	0.522
325.500	232.171	80.001	19.994	100.755	20.037	3.599	0.530
326.000	232.424	79.999	19.995	100.757	20.037	3.566	0.521
326.500	232.682	80.000	19.995	100.761	20.034	3.814	0.514
327.000	232.920	80.000	19.995	100.762	20.036	3.673	0.503
327.500	233.192	80.000	19.994	100.759	20.034	3.763	0.503
328.000	233.416	80.002	19.995	100.755	20.035	3.684	0.504
328.500	233.680	79.999	19.996	100.751	20.034	3.799	0.492
329.000	233.946	80.000	19.996	100.745	20.036	3.655	0.509
329.500	234.227	80.000	19.995	100.742	20.032	3.933	0.539
330.000	234.483	80.001	19.995	100.742	20.031	3.998	0.542
330.500	234.714	80.002	19.996	100.744	20.030	4.070	0.512
331.000	234.991	80.000	19.994	100.743	20.030	4.064	0.498
331.500	235.194	80.002	19.995	100.743	20.030	4.050	0.494
332.000	235.484	80.003	19.995	100.741	20.029	4.113	0.486
332.500	235.729	80.002	19.995	100.738	20.028	4.203	0.514
333.000	235.997	80.002	19.995	100.734	20.025	4.389	0.524
333.500	236.223	80.001	19.995	100.733	20.028	4.178	0.504
334.000	236.478	80.002	19.995	100.736	20.030	4.075	0.488
334.500	236.712	80.001	19.994	100.742	20.028	4.187	0.485
335.000	236.993	80.002	19.994	100.749	20.028	4.196	0.502
335.500	237.302	80.002	19.995	100.748	20.027	4.250	0.552
336.000	237.580	80.002	19.994	100.748	20.030	4.037	0.588
336.500	237.783	80.002	19.994	100.743	20.024	4.445	0.534
337.000	238.077	80.002	19.996	100.736	20.025	4.399	0.489
337.500	238.286	80.002	19.995	100.732	20.024	4.446	0.500
338.000	238.547	80.003	19.995	100.733	20.024	4.442	0.486
338.500	238.808	80.004	19.995	100.733	20.024	4.426	0.496
339.000	239.080	80.004	19.995	100.733	20.026	4.307	0.528
339.500	239.314	80.003	19.994	100.733	20.025	4.368	0.520
340.000	239.576	80.002	19.995	100.732	20.026	4.343	0.501
340.500	239.782	80.002	19.994	100.730	20.026	4.350	0.482
341.000	240.058	80.003	19.994	100.730	20.022	4.599	0.475
341.500	240.302	80.002	19.994	100.729	20.022	4.581	0.501
342.000	240.553	80.002	19.994	100.728	20.023	4.504	0.508
342.500	240.773	80.002	19.995	100.727	20.023	4.550	0.483
343.000	241.027	80.003	19.995	100.727	20.019	4.778	0.473
343.500	241.266	80.003	19.994	100.726	20.020	4.729	0.484
344.000	241.530	80.002	19.995	100.727	20.021	4.675	0.498
344.500	241.759	80.002	19.994	100.727	20.021	4.635	0.498
345.000	242.005	80.000	19.995	100.727	20.020	4.704	0.484
345.500	242.273	80.002	19.995	100.727	20.018	4.867	0.495
346.000	242.538	79.999	19.994	100.728	20.020	4.688	0.523
346.500	242.778	80.001	19.996	100.727	20.016	4.958	0.519
347.000	243.017	79.999	19.994	100.728	20.017	4.940	0.492
347.500	243.273	80.000	19.995	100.732	20.015	5.055	0.487
348.000	243.493	80.000	19.994	100.740	20.016	4.990	0.486
348.500	243.769	79.999	19.995	100.741	20.015	5.067	0.486
349.000	244.032	80.000	19.995	100.745	20.012	5.233	0.518
349.500	244.253	79.999	19.996	100.746	20.013	5.163	0.511
350.000	244.514	80.000	19.995	100.742	20.013	5.201	0.483
350.500	244.720	79.999	19.995	100.735	20.013	5.166	0.475
351.000	244.979	80.000	19.996	100.735	20.010	5.404	0.466
351.500	245.235	80.000	19.995	100.733	20.013	5.197	0.490
352.000	245.496	79.998	19.995	100.737	20.010	5.366	0.516
352.500	245.745	79.999	19.995	100.741	20.014	5.148	0.513
353.000	246.041	79.998	19.995	100.742	20.011	5.334	0.527
353.500	246.253	79.999	19.996	100.742	20.012	5.253	0.527
354.000	246.538	79.999	19.996	100.742	20.010	5.377	0.503
354.500	246.772	79.999	19.997	100.737	20.010	5.391	0.508
355.000	246.979	79.999	19.995	100.737	20.009	5.427	0.480
355.500	247.208	80.000	19.996	100.738	20.008	5.525	0.438
356.000	247.502	79.999	19.997	100.745	20.006	5.626	0.479
356.500	247.713	80.000	19.996	100.750	20.009	5.435	0.514
357.000	247.954	79.997	19.995	100.756	20.006	5.637	0.479
357.500	248.232	80.000	19.997	100.761	20.006	5.657	0.485
358.000	248.463	79.999	19.995	100.763	20.008	5.548	0.514
358.500	248.720	79.999	19.995	100.759	20.005	5.703	0.498
359.000	248.969	79.999	19.995	100.759	20.004	5.790	0.497
359.500	249.224	79.999	19.996	100.756	20.004	5.767	0.505
360.000	249.469	79.999	19.996	100.751	20.003	5.877	0.502
360.500	249.720	79.999	19.996	100.748	20.002	5.909	0.498
361.000	249.984	79.999	19.996	100.751	20.004	5.805	0.506
361.500	250.227	79.999	19.995	100.747	19.998	6.213	0.511
362.000	250.465	79.999	19.996	100.745	19.999	6.147	0.493
362.500	250.704	79.999	19.995	100.744	20.000	6.039	0.479
363.000	250.962	79.999	19.995	100.745	19.998	6.171	0.487
363.500	251.172	80.000	19.996	100.742	19.999	6.099	0.483
364.000	251.433	79.999	19.996	100.743	20.000	6.073	0.470
364.500	251.682	80.001	19.997	100.743	20.001	6.017	0.490
365.000	251.932	79.999	19.996	100.741	19.999	6.106	0.504
365.500	252.167	79.999	19.996	100.738	19.998	6.219	0.492
366.000	252.417	80.000	19.996	100.736	19.999	6.131	0.485
366.500	252.662	79.999	19.996	100.734	19.999	6.147	0.490
367.000	252.925	79.999	19.995	100.735	19.996	6.303	0.502
367.500	253.151	79.999	19.994	100.735	19.994	6.480	0.499
368.000	253.414	79.998	19.994	100.737	19.993	6.564	0.489
368.500	253.644	79.999	19.995	100.738	19.994	6.447	0.490
369.000	253.902	79.998	19.994	100.736	19.992	6.583	0.490
369.500	254.136	79.999	19.994	100.735	19.996	6.328	0.490
370.000	254.350	79.999	19.995	100.735	19.994	6.478	0.470
370.500	254.603	79.999	19.994	100.733	19.994	6.449	0.457
371.000	254.848	79.999	19.996	100.734	19.994	6.465	0.482
371.500	255.113	80.000	19.994	100.735	19.991	6.694	0.504
372.000	255.379	79.999	19.995	100.740	19.990	6.745	0.520
372.501	255.614	79.999	19.995	100.748	19.993	6.552	0.516
373.000	255.870	79.999	19.995	100.755	19.986	6.996	0.496
373.500	256.099	80.000	19.994	100.761	19.987	6.916	0.488
374.000	256.346	79.999	19.994	100.766	19.989	6.819	0.481
374.500	256.609	80.000	19.995	100.765	19.986	7.024	0.493
375.000	256.856	80.000	19.996	100.763	19.982	7.257	0.510
375.500	257.057	79.999	19.995	100.760	19.983	7.171	0.479
376.000	257.324	79.999	19.995	100.759	19.981	7.306	0.458
376.500	257.549	79.999	19.996	100.761	19.981	7.361	0.480
377.000	257.822	79.999	19.996	100.765	19.978	7.532	0.495
377.500	258.077	79.998	19.994	100.765	19.977	7.588	0.513
378.000	258.343	79.999	19.996	100.765	19.975	7.747	0.524
378.500	258.591	79.999	19.997	100.765	19.974	7.789	0.517
379.000	258.820	80.000	19.995	100.765	19.974	7.832	0.496
379.500	259.065	79.999	19.996	100.763	19.973	7.854	0.476
380.000	259.329	79.999	19.996	100.764	19.971	8.011	0.491
380.500	259.558	79.999	19.996	100.766	19.972	7.926	0.501
381.000	259.828	79.998	19.997	100.765	19.971	7.975	0.496
381.500	260.059	80.000	19.996	100.764	19.968	8.175	0.500
382.000	260.293	79.998	19.996	100.763	19.971	7.989	0.483
382.500	260.582	79.999	19.995	100.762	19.969	8.123	0.494
383.000	260.807	79.998	19.995	100.762	19.968	8.180	0.518
383.500	261.059	79.998	19.995	100.763	19.970	8.106	0.495
384.000	261.311	79.998	19.995	100.760	19.967	8.292	0.491
384.500	261.564	79.999	19.994	100.757	19.964	8.459	0.505
385.000	261.802	80.000	19.994	100.756	19.965	8.430	0.498
385.500	262.044	80.001	19.995	100.753	19.965	8.415	0.485
386.000	262.326	79.999	19.995	100.753	19.964	8.453	0.502
386.500	262.580	80.000	19.997	100.756	19.961	8.691	0.530
387.000	262.811	80.000	19.995	100.762	19.963	8.514	0.511
387.500	263.027	80.000	19.995	100.765	19.961	8.709	0.466
388.000	263.305	80.000	19.996	100.768	19.963	8.536	0.471
388.500	263.551	80.000	19.995	100.768	19.962	8.581	0.509
389.000	263.750	79.999	19.995	100.768	19.960	8.753	0.485
389.500	264.045	80.000	19.996	100.768	19.960	8.758	0.470
390.000	264.265	80.001	19.995	100.768	19.958	8.859	0.504
390.500	264.547	79.999	19.995	100.768	19.959	8.821	0.508
391.000	264.750	80.001	19.994	100.768	19.959	8.809	0.493
391.500	265.009	80.000	19.995	100.768	19.957	8.970	0.473
392.000	265.237	80.000	19.995	100.768	19.955	9.089	0.475
392.500	265.522	80.001	19.996	100.767	19.952	9.271	0.500
393.000	265.741	80.002	19.995	100.767	19.951	9.331	0.508
393.500	265.987	80.000	19.996	100.766	19.951	9.338	0.484
394.000	266.258	80.002	19.995	100.766	19.948	9.526	0.491
394.500	266.510	80.001	19.996	100.766	19.949	9.497	0.520
395.000	266.776	80.001	19.996	100.766	19.948	9.522	0.521
395.500	267.038	80.001	19.995	100.767	19.948	9.535	0.523
396.000	267.263	80.002	19.995	100.767	19.948	9.576	0.507
396.500	267.485	80.001	19.995	100.766	19.946	9.703	0.466
397.000	267.771	80.002	19.995	100.765	19.943	9.883	0.477
397.500	268.020	80.002	19.995	100.765	19.942	9.937	0.522
398.000	268.230	80.001	19.995	100.765	19.938	10.201	0.497
398.500	268.513	80.001	19.995	100.765	19.940	10.067	0.477
399.000	268.756	80.002	19.995	100.766	19.938	10.230	0.510
399.500	269.021	80.000	19.994	100.767	19.937	10.282	0.517
400.000	269.263	80.002	19.995	100.767	19.935	10.414	0.507
400.500	269.490	80.002	19.995	100.767	19.932	10.652	0.488
401.000	269.788	80.001	19.994	100.767	19.931	10.717	0.497
401.500	270.064	80.001	19.994	100.767	19.929	10.815	0.549
402.000	270.319	80.000	19.994	100.767	19.927	10.963	0.552
402.500	270.577	80.001	19.995	100.767	19.928	10.878	0.522
403.000	270.804	80.001	19.994	100.767	19.930	10.741	0.499
403.500	271.025	80.000	19.995	100.767	19.928	10.889	0.466
404.000	271.341	80.001	19.994	100.768	19.924	11.155	0.492
404.501	271.594	80.000	19.994	100.768	19.922	11.259	0.553
405.001	271.832	80.002	19.995	100.769	19.924	11.178	0.530
405.500	272.054	80.001	19.995	100.768	19.921	11.368	0.476
406.000	272.325	80.000	19.995	100.769	19.918	11.561	0.477
406.500	272.604	80.001	19.995	100.768	19.915	11.742	0.521
407.000	272.822	80.000	19.995	100.769	19.915	11.764	0.523
407.500	273.053	80.000	19.995	100.769	19.915	11.739	0.473
408.000	273.269	80.001	19.994	100.769	19.913	11.902	0.448
408.500	273.550	80.000	19.995	100.769	19.911	12.049	0.472
409.000	273.826	80.001	19.995	100.769	19.913	11.911	0.527
409.500	274.044	80.000	19.994	100.769	19.909	12.168	0.526
410.000	274.300	80.001	19.994	100.769	19.906	12.359	0.484
410.500	274.551	80.001	19.994	100.770	19.909	12.135	0.491
411.000	274.787	80.000	19.994	100.769	19.907	12.308	0.497
411.500	275.004	80.001	19.995	100.769	19.905	12.456	0.470
412.000	275.276	80.001	19.994	100.769	19.903	12.554	0.471
412.500	275.500	80.001	19.995	100.769	19.898	12.912	0.493
413.000	275.773	80.001	19.993	100.769	19.899	12.859	0.496
413.500	276.023	80.001	19.995	100.770	19.899	12.866	0.510
414.000	276.220	80.001	19.995	100.771	19.899	12.853	0.485
414.500	276.498	80.002	19.994	100.771	19.893	13.207	0.461
415.000	276.697	80.001	19.994	100.771	19.891	13.356	0.476
415.500	276.941	80.002	19.995	100.770	19.890	13.411	0.460
416.000	277.141	80.001	19.994	100.771	19.889	13.517	0.444
416.500	277.388	80.001	19.995	100.770	19.889	13.504	0.445
417.001	277.667	80.002	19.995	100.771	19.887	13.640	0.486
417.501	277.930	80.003	19.995	100.774	19.885	13.787	0.534
418.000	278.147	80.002	19.994	100.777	19.886	13.737	0.511
418.500	278.373	80.001	19.995	100.784	19.884	13.876	0.462
419.000	278.669	80.003	19.994	100.788	19.882	13.998	0.482
419.500	278.907	80.003	19.994	100.791	19.879	14.207	0.528
420.000	279.131	80.002	19.994	100.790	19.877	14.293	0.498
420.500	279.358	80.000	19.993	100.792	19.878	14.259	0.456
421.000	279.595	80.001	19.994	100.786	19.874	14.534	0.457
421.500	279.852	80.001	19.995	100.782	19.870	14.776	0.479
422.000	280.120	80.002	19.995	100.781	19.869	14.847	0.510
422.500	280.331	80.004	19.995	100.784	19.867	14.971	0.502
423.000	280.613	80.000	19.995	100.785	19.869	14.879	0.486
423.500	280.832	80.002	19.995	100.791	19.869	14.823	0.497
424.000	281.051	80.000	19.995	100.796	19.863	15.245	0.470
424.501	281.308	80.001	19.995	100.796	19.862	15.320	0.458
425.000	281.557	80.002	19.995	100.797	19.862	15.331	0.491
425.500	281.776	80.001	19.995	100.794	19.861	15.356	0.486
426.000	281.999	80.000	19.995	100.787	19.854	15.828	0.455
426.500	282.246	79.999	19.994	100.783	19.856	15.701	0.456
427.000	282.502	80.001	19.994	100.788	19.854	15.880	0.486
427.500	282.752	80.001	19.994	100.788	19.850	16.093	0.505
428.000	283.025	79.999	19.994	100.791	19.849	16.173	0.515
428.500	283.273	79.999	19.995	100.796	19.848	16.274	0.522
429.000	283.473	80.000	19.996	100.799	19.845	16.458	0.484
429.500	283.749	79.999	19.994	100.798	19.845	16.491	0.461
430.000	284.042	79.999	19.996	100.797	19.846	16.419	0.522
430.500	284.273	80.000	19.995	100.794	19.840	16.825	0.546
431.000	284.502	79.999	19.995	100.796	19.842	16.679	0.492
431.500	284.764	80.000	19.995	100.800	19.839	16.879	0.475
432.000	284.975	79.998	19.995	100.802	19.836	17.032	0.482
432.500	285.220	79.999	19.994	100.805	19.836	17.069	0.465
433.000	285.490	79.999	19.994	100.806	19.833	17.240	0.486
433.500	285.705	79.998	19.996	100.804	19.833	17.238	0.500
434.000	285.979	79.999	19.995	100.803	19.830	17.468	0.486
434.500	286.208	79.999	19.995	100.803	19.831	17.422	0.496
435.000	286.490	79.999	19.996	100.804	19.827	17.658	0.507
435.500	286.702	79.999	19.994	100.805	19.826	17.704	0.503
436.000	286.960	79.999	19.995	100.806	19.826	17.767	0.482
436.500	287.176	79.999	19.994	100.808	19.823	17.968	0.472
437.000	287.450	79.998	19.994	100.807	19.822	18.005	0.482
437.500	287.699	79.999	19.995	100.807	19.817	18.349	0.506
438.000	287.939	80.000	19.995	100.806	19.815	18.451	0.506
438.500	288.182	79.999	19.995	100.808	19.816	18.383	0.487
439.000	288.419	79.999	19.995	100.808	19.813	18.599	0.482
439.500	288.663	80.000	19.995	100.809	19.809	18.902	0.480
440.000	288.926	79.999	19.995	100.809	19.807	19.004	0.494
440.500	289.156	79.999	19.995	100.809	19.806	19.046	0.500
441.000	289.390	79.999	19.996	100.809	19.808	18.954	0.479
441.500	289.623	79.999	19.996	100.809	19.804	19.232	0.465
442.000	289.905	79.999	19.996	100.809	19.802	19.346	0.490
442.500	290.142	79.999	19.995	100.809	19.801	19.405	0.517
443.000	290.374	80.000	19.995	100.808	19.798	19.643	0.494
443.500	290.627	79.999	19.996	100.808	19.796	19.717	0.477
444.000	290.907	79.999	19.996	100.809	19.793	19.922	0.509
444.500	291.120	80.001	19.995	100.807	19.793	19.941	0.513
445.000	291.334	79.998	19.995	100.807	19.791	20.116	0.461
445.500	291.640	80.001	19.995	100.807	19.790	20.171	0.474
446.000	291.872	80.000	19.996	100.812	19.785	20.493	0.528
446.500	292.131	79.999	19.996	100.815	19.785	20.493	0.514
447.000	292.383	79.999	19.996	100.816	19.781	20.768	0.501
447.500	292.628	79.999	19.996	100.817	19.778	20.948	0.504
448.000	292.851	80.000	19.995	100.821	19.778	20.988	0.483
448.500	293.130	79.999	19.994	100.817	19.775	21.125	0.485
449.000	293.342	80.001	19.995	100.813	19.772	21.373	0.497
449.500	293.617	79.999	19.996	100.813	19.772	21.333	0.490
450.000	293.859	79.998	19.996	100.813	19.769	21.581	0.502
450.500	294.091	80.000	19.996	100.811	19.770	21.497	0.495
451.000	294.341	79.999	19.997	100.812	19.769	21.563	0.478
451.500	294.540	79.997	19.997	100.815	19.763	21.963	0.465
452.000	294.844	80.000	19.996	100.818	19.761	22.098	0.476
452.500	295.070	79.999	19.996	100.824	19.760	22.179	0.516
453.000	295.334	79.999	19.995	100.826	19.757	22.374	0.510
453.500	295.571	79.999	19.997	100.830	19.755	22.469	0.496
454.000	295.819	79.999	19.997	100.832	19.754	22.582	0.493
454.500	296.053	79.999	19.996	100.829	19.753	22.638	0.484
455.000	296.316	79.999	19.996	100.824	19.748	23.001	0.490
455.500	296.583	79.999	19.997	100.822	19.747	23.070	0.514
456.000	296.806	79.998	19.996	100.817	19.748	22.998	0.510
456.500	297.029	79.999	19.997	100.816	19.743	23.317	0.468
457.000	297.284	79.998	19.996	100.815	19.737	23.697	0.462
457.500	297.537	80.000	19.996	100.816	19.738	23.638	0.493
458.000	297.791	79.998	19.996	100.821	19.736	23.808	0.507
458.501	298.046	79.999	19.997	100.822	19.737	23.707	0.508
459.000	298.302	79.998	19.995	100.823	19.732	24.020	0.510
459.500	298.516	79.998	19.996	100.824	19.731	24.112	0.491
460.001	298.758	79.999	19.995	100.826	19.727	24.368	0.463
460.501	298.972	79.999	19.996	100.824	19.723	24.642	0.456
461.000	299.245	79.998	19.996	100.829	19.725	24.495	0.471
461.500	299.491	79.999	19.996	100.832	19.722	24.748	0.503
462.000	299.726	80.000	19.997	100.838	19.720	24.828	0.500
462.500	299.946	80.000	19.996	100.840	19.719	24.918	0.468
463.000	300.231	79.999	19.995	100.843	19.714	25.268	0.480
463.500	300.507	79.999	19.995	100.843	19.711	25.475	0.533
464.000	300.754	79.999	19.995	100.841	19.711	25.485	0.542
464.500	301.012	79.999	19.995	100.842	19.709	25.600	0.514
465.000	301.254	79.999	19.995	100.844	19.707	25.759	0.503
465.501	301.512	79.999	19.995	100.844	19.703	25.986	0.500
466.001	301.722	79.999	19.995	100.845	19.701	26.144	0.484
466.500	301.951	80.000	19.995	100.846	19.697	26.381	0.453
467.000	302.225	79.999	19.995	100.846	19.696	26.444	0.471
467.500	302.463	80.000	19.995	100.852	19.693	26.637	0.507
468.000	302.740	80.000	19.994	100.859	19.691	26.828	0.513
468.500	303.005	80.000	19.995	100.861	19.688	26.980	0.529
469.000	303.223	80.000	19.995	100.862	19.689	26.942	0.513
469.500	303.515	80.001	19.994	100.865	19.685	27.216	0.497
470.000	303.747	80.000	19.995	100.857	19.683	27.338	0.517
470.500	303.980	80.002	19.994	100.852	19.677	27.768	0.495
471.000	304.249	79.999	19.994	100.854	19.677	27.736	0.484
471.500	304.499	80.000	19.994	100.859	19.675	27.854	0.510
472.000	304.754	80.001	19.995	100.863	19.673	28.042	0.511
472.500	305.011	80.001	19.995	100.871	19.670	28.225	0.508
473.000	305.272	80.001	19.994	100.876	19.667	28.420	0.515
473.500	305.530	80.000	19.995	100.873	19.665	28.540	0.519
474.000	305.804	80.002	19.995	100.871	19.663	28.709	0.525
474.500	306.078	80.000	19.995	100.866	19.660	28.874	0.539
475.000	306.325	80.001	19.995	100.865	19.654	29.276	0.534
475.500	306.605	80.002	19.994	100.861	19.651	29.485	0.524
476.000	306.862	80.001	19.995	100.861	19.651	29.468	0.532
476.500	307.071	80.000	19.994	100.860	19.648	29.662	0.501
477.000	307.336	80.002	19.995	100.860	19.646	29.853	0.470
477.500	307.589	80.002	19.994	100.855	19.645	29.859	0.496
478.000	307.904	80.002	19.995	100.856	19.641	30.127	0.543
478.500	308.152	80.001	19.995	100.860	19.639	30.285	0.566
479.000	308.409	80.001	19.995	100.866	19.639	30.310	0.534
479.500	308.687	80.001	19.996	100.865	19.633	30.673	0.520
480.000	308.885	80.001	19.995	100.866	19.636	30.478	0.506
480.500	309.154	80.001	19.995	100.870	19.633	30.705	0.472
481.000	309.437	80.001	19.996	100.871	19.632	30.760	0.509
481.500	309.681	80.000	19.995	100.872	19.625	31.219	0.539
482.000	309.916	80.000	19.995	100.879	19.626	31.139	0.503
482.500	310.186	80.000	19.994	100.883	19.620	31.546	0.493
483.000	310.456	80.000	19.995	100.881	19.618	31.687	0.523
483.500	310.709	79.999	19.995	100.883	19.618	31.733	0.531
484.000	310.983	79.999	19.995	100.884	19.614	31.996	0.525
484.500	311.205	80.000	19.994	100.884	19.613	32.067	0.511
485.000	311.475	79.999	19.994	100.883	19.610	32.221	0.494
485.500	311.743	80.000	19.995	100.886	19.608	32.399	0.515
486.000	312.030	80.000	19.993	100.886	19.604	32.620	0.547
486.500	312.264	80.001	19.994	100.885	19.602	32.810	0.538
487.000	312.497	80.000	19.994	100.883	19.596	33.206	0.494
487.500	312.758	80.001	19.995	100.877	19.595	33.257	0.480
488.000	312.999	79.999	19.995	100.874	19.593	33.404	0.498
488.500	313.274	79.999	19.996	100.873	19.589	33.646	0.510
489.000	313.511	80.000	19.994	100.874	19.590	33.559	0.514
489.500	313.783	79.999	19.995	100.875	19.587	33.821	0.510
490.000	314.053	80.000	19.996	100.881	19.583	34.045	0.526
490.500	314.310	79.999	19.995	100.884	19.578	34.379	0.534
491.000	314.525	80.000	19.995	100.885	19.579	34.312	0.499
491.500	314.816	80.000	19.994	100.885	19.575	34.618	0.489
492.000	315.029	79.999	19.994	100.885	19.572	34.806	0.505
492.500	315.303	80.001	19.994	100.885	19.568	35.063	0.495
493.000	315.588	80.000	19.995	100.885	19.567	35.105	0.524
493.500	315.825	80.000	19.995	100.885	19.565	35.262	0.541
494.000	316.081	80.001	19.995	100.886	19.559	35.652	0.507
494.500	316.317	80.001	19.995	100.887	19.558	35.734	0.493
495.000	316.599	80.001	19.994	100.887	19.555	35.929	0.505
495.500	316.857	80.001	19.995	100.887	19.552	36.134	0.529
496.000	317.105	80.001	19.994	100.886	19.550	36.256	0.523
496.500	317.400	80.001	19.994	100.886	19.550	36.313	0.524
497.000	317.625	80.002	19.993	100.886	19.551	36.189	0.531
497.500	317.895	80.001	19.995	100.886	19.543	36.735	0.508
498.000	318.146	80.003	19.996	100.887	19.542	36.824	0.508
498.500	318.340	80.002	19.994	100.888	19.539	37.003	0.484
499.000	318.609	80.001	19.994	100.889	19.536	37.235	0.454
499.500	318.880	80.001	19.995	100.889	19.533	37.394	0.501
500.000	319.106	80.002	19.994	100.889	19.532	37.506	0.518
500.500	319.371	80.002	19.994	100.888	19.531	37.533	0.494
501.000	319.582	80.002	19.994	100.888	19.524	38.036	0.484
501.500	319.860	80.002	19.994	100.887	19.523	38.109	0.482
502.000	320.064	80.001	19.993	100.887	19.519	38.340	0.485
502.500	320.360	80.000	19.994	100.887	19.519	38.392	0.491
503.000	320.589	80.002	19.994	100.887	19.515	38.620	0.512
503.500	320.854	80.001	19.993	100.890	19.514	38.692	0.510
504.000	321.124	80.002	19.995	100.900	19.512	38.813	0.515
504.500	321.346	80.002	19.993	100.890	19.510	38.941	0.513
505.000	321.591	80.002	19.994	100.874	19.506	39.258	0.479
505.500	321.793	80.001	19.994	100.865	19.505	39.293	0.457
506.000	322.084	80.001	19.995	100.858	19.499	39.689	0.470
506.500	322.343	80.000	19.994	100.847	19.498	39.789	0.522
507.000	322.575	80.000	19.994	100.864	19.493	40.097	0.521
507.500	322.817	80.001	19.994	100.913	19.490	40.280	0.482
508.000	323.048	80.001	19.995	100.938	19.491	40.220	0.473
508.500	323.285	80.001	19.995	100.948	19.488	40.424	0.470
509.000	323.547	79.998	19.994	100.948	19.486	40.603	0.484
509.500	323.814	79.999	19.995	100.945	19.483	40.775	0.514
510.000	324.034	79.998	19.994	100.911	19.482	40.869	0.508
510.500	324.324	80.000	19.995	100.896	19.480	40.959	0.499
511.000	324.548	79.999	19.996	100.892	19.476	41.276	0.512
511.501	324.799	79.999	19.995	100.897	19.475	41.302	0.494
512.001	325.016	79.999	19.995	100.901	19.472	41.522	0.471
512.500	325.286	79.999	19.994	100.908	19.470	41.652	0.478
513.000	325.535	79.999	19.995	100.917	19.465	42.017	0.503
513.500	325.813	79.999	19.995	100.920	19.461	42.266	0.523
514.000	326.041	80.000	19.995	100.920	19.456	42.578	0.516
514.500	326.262	79.999	19.996	100.920	19.452	42.859	0.478
515.000	326.562	80.000	19.994	100.920	19.452	42.875	0.485
515.500	326.758	80.000	19.994	100.919	19.453	42.784	0.508
516.000	326.983	79.999	19.995	100.920	19.449	43.062	0.459
516.500	327.295	80.000	19.995	100.922	19.444	43.436	0.479
517.000	327.522	79.998	19.996	100.922	19.441	43.608	0.538
517.500	327.787	79.999	19.996	100.924	19.436	43.946	0.515
518.000	328.024	80.000	19.996	100.925	19.432	44.245	0.497
518.500	328.266	79.998	19.996	100.926	19.434	44.108	0.490
519.000	328.530	79.999	19.995	100.925	19.429	44.452	0.493
519.500	328.786	79.998	19.996	100.925	19.428	44.504	0.513
520.000	329.022	80.001	19.997	100.924	19.423	44.848	0.506
520.500	329.285	79.999	19.996	100.924	19.420	45.062	0.495
521.000	329.500	80.000	19.995	100.923	19.419	45.113	0.489
521.500	329.759	79.999	19.995	100.924	19.416	45.313	0.476
522.000	330.016	79.999	19.995	100.925	19.410	45.723	0.495
522.500	330.268	80.001	19.995	100.926	19.408	45.808	0.513
523.000	330.553	79.998	19.995	100.929	19.404	46.116	0.523
523.500	330.796	80.000	19.997	100.932	19.397	46.598	0.532
524.000	331.045	79.999	19.996	100.940	19.400	46.392	0.510
524.500	331.284	80.000	19.997	100.944	19.396	46.649	0.490
525.000	331.545	79.999	19.995	100.943	19.388	47.160	0.494
525.500	331.774	79.999	19.996	100.943	19.386	47.347	0.496
526.000	332.018	79.999	19.995	100.948	19.380	47.729	0.482
526.500	332.291	80.000	19.995	100.946	19.378	47.859	0.495
527.000	332.518	80.000	19.996	100.949	19.369	48.452	0.509
527.500	332.766	79.999	19.995	100.956	19.371	48.343	0.487
528.000	333.048	80.000	19.994	100.962	19.367	48.575	0.502
528.500	333.325	80.000	19.994	100.961	19.362	48.928	0.544
529.000	333.557	80.000	19.995	100.961	19.361	49.028	0.534
529.500	333.836	79.998	19.996	100.961	19.357	49.248	0.510
530.000	334.080	80.001	19.995	100.963	19.352	49.632	0.517
530.500	334.355	79.999	19.995	100.962	19.353	49.524	0.521
531.000	334.580	80.000	19.995	100.964	19.347	49.985	0.509
531.500	334.836	79.999	19.995	100.964	19.344	50.132	0.491
532.000	335.109	80.000	19.995	100.964	19.340	50.400	0.505
532.500	335.348	80.001	19.996	100.962	19.337	50.628	0.520
533.000	335.642	80.001	19.996	100.962	19.333	50.923	0.523
533.500	335.864	80.001	19.996	100.962	19.327	51.271	0.525
534.000	336.121	80.001	19.995	100.963	19.327	51.289	0.497
534.500	336.413	79.999	19.995	100.965	19.321	51.668	0.514
535.000	336.609	80.000	19.995	100.966	19.318	51.929	0.518
535.500	336.910	80.000	19.996	100.968	19.314	52.197	0.493
536.001	337.170	80.000	19.996	100.970	19.311	52.408	0.529
536.501	337.403	80.001	19.995	100.972	19.307	52.646	0.527
537.000	337.664	79.999	19.996	100.973	19.303	52.919	0.493
537.500	337.896	79.999	19.995	100.976	19.297	53.290	0.493
538.000	338.200	80.001	19.996	100.979	19.294	53.532	0.515
538.500	338.415	79.998	19.996	100.985	19.286	54.052	0.528
539.000	338.647	79.999	19.997	100.990	19.285	54.126	0.483
539.500	338.942	79.999	19.995	100.995	19.283	54.256	0.487
540.000	339.171	79.999	19.997	100.999	19.277	54.634	0.526
540.500	339.411	79.999	19.996	101.002	19.274	54.870	0.496
541.000	339.623	79.999	19.996	101.002	19.266	55.371	0.460
541.500	339.922	79.999	19.998	101.002	19.262	55.686	0.481
542.000	340.195	79.998	19.996	101.002	19.257	55.979	0.541
542.500	340.441	79.998	19.996	101.002	19.253	56.264	0.545
543.000	340.745	79.998	19.996	101.003	19.246	56.764	0.535
543.500	340.972	79.999	19.996	101.003	19.243	56.966	0.540
544.000	341.233	79.998	19.997	101.003	19.241	57.110	0.510
544.500	341.495	79.999	19.997	101.002	19.232	57.705	0.506
545.000	341.774	79.999	19.997	101.001	19.227	58.006	0.532
545.500	342.040	79.998	19.996	101.002	19.224	58.244	0.543
546.000	342.266	79.998	19.995	101.006	19.218	58.635	0.519
546.500	342.520	79.997	19.997	101.010	19.216	58.732	0.486
547.000	342.773	79.998	19.996	101.013	19.212	59.026	0.493
547.500	343.029	79.998	19.996	101.013	19.206	59.407	0.508
548.000	343.267	79.998	19.996	101.016	19.205	59.523	0.502
548.500	343.548	79.999	19.995	101.012	19.199	59.899	0.507
549.000	343.804	79.999	19.996	101.008	19.194	60.267	0.528
549.500	344.066	80.000	19.997	101.010	19.189	60.568	0.528
550.000	344.302	79.999	19.997	101.014	19.181	61.153	0.509
550.500	344.543	79.998	19.996	101.012	19.179	61.286	0.487
551.000	344.801	79.999	19.996	101.012	19.174	61.597	0.488
551.500	345.092	79.999	19.996	101.014	19.169	61.899	0.524
552.000	345.361	80.000	19.995	101.016	19.166	62.108	0.555
552.500	345.605	80.000	19.996	101.016	19.163	62.360	0.537
553.000	345.840	80.000	19.996	101.018	19.155	62.899	0.496
553.500	346.114	80.000	19.995	101.021	19.152	63.078	0.494
554.000	346.372	80.000	19.995	101.022	19.149	63.255	0.521
554.500	346.634	80.001	19.995	101.020	19.145	63.534	0.526
555.000	346.873	80.000	19.994	101.021	19.139	63.975	0.510
555.500	347.119	80.001	19.994	101.024	19.133	64.362	0.493
556.000	347.367	80.002	19.995	101.026	19.130	64.586	0.490
556.500	347.625	80.000	19.994	101.027	19.123	65.022	0.500
557.000	347.835	80.001	19.994	101.023	19.120	65.232	0.487
557.500	348.117	80.001	19.994	101.021	19.112	65.768	0.479
558.000	348.327	80.000	19.994	101.021	19.109	65.990	0.492
558.500	348.611	80.002	19.994	101.025	19.108	66.048	0.493
559.000	348.860	80.001	19.995	101.029	19.101	66.532	0.513
559.500	349.114	80.000	19.995	101.037	19.097	66.798	0.518
560.000	349.361	80.001	19.993	101.041	19.087	67.432	0.502
560.500	349.604	80.001	19.994	101.041	19.088	67.413	0.496
561.000	349.884	80.000	19.994	101.039	19.081	67.840	0.507
561.500	350.154	80.001	19.994	101.037	19.079	67.958	0.537
562.000	350.428	80.000	19.995	101.034	19.074	68.301	0.547
562.500	350.674	80.000	19.994	101.032	19.074	68.350	0.531
563.000	350.924	80.001	19.995	101.034	19.067	68.793	0.507
563.500	351.134	79.999	19.995	101.035	19.063	69.048	0.478
564.001	351.390	80.000	19.995	101.037	19.058	69.418	0.463
564.501	351.660	79.999	19.994	101.040	19.057	69.469	0.496
565.000	351.869	80.000	19.995	101.042	19.053	69.754	0.503
565.500	352.130	80.000	19.994	101.043	19.047	70.113	0.475
566.000	352.383	79.999	19.994	101.044	19.045	70.242	0.492
566.500	352.622	79.999	19.995	101.044	19.038	70.729	0.503
567.000	352.887	80.000	19.995	101.042	19.035	70.948	0.498
567.500	353.161	80.000	19.995	101.042	19.033	71.071	0.521
568.000	353.391	80.001	19.994	101.040	19.026	71.529	0.522
568.500	353.619	80.000	19.995	101.039	19.023	71.772	0.482
569.000	353.876	80.000	19.995	101.039	19.024	71.644	0.472
569.500	354.130	80.001	19.993	101.041	19.020	71.940	0.498
570.000	354.348	80.001	19.995	101.039	19.016	72.204	0.492
570.500	354.600	80.001	19.996	101.041	19.013	72.398	0.471
571.000	354.848	80.000	19.994	101.042	19.012	72.483	0.485
571.500	355.075	80.001	19.994	101.042	19.009	72.678	0.487
572.000	355.331	79.999	19.994	101.040	19.008	72.721	0.479
572.500	355.578	80.000	19.994	101.042	19.003	73.085	0.493
573.000	355.849	80.001	19.994	101.042	19.003	73.048	0.510
573.500	356.066	80.000	19.994	101.043	19.001	73.165	0.503
574.000	356.356	80.001	19.995	101.047	19.002	73.140	0.498
574.500	356.597	80.001	19.994	101.048	18.997	73.445	0.519
575.000	356.826	80.000	19.994	101.047	18.998	73.418	0.500
575.500	357.086	80.001	19.994	101.046	18.993	73.745	0.479
576.000	357.324	80.001	19.994	101.044	18.995	73.608	0.493
576.500	357.585	80.000	19.995	101.040	18.995	73.598	0.498
577.000	357.857	80.001	19.994	101.040	18.991	73.868	0.516
577.500	358.083	80.002	19.995	101.040	18.988	74.076	0.516
578.000	358.374	80.001	19.995	101.041	18.988	74.037	0.508
578.500	358.600	80.001	19.995	101.041	18.989	73.945	0.516
579.000	358.853	80.001	19.993	101.040	18.988	74.038	0.498
579.500	359.096	80.002	19.995	101.039	18.990	73.886	0.488
580.000	359.332	80.002	19.995	101.034	18.988	74.056	0.487
580.500	359.621	80.001	19.995	101.029	18.991	73.821	0.502
581.000	359.864	80.002	19.995	101.025	18.991	73.842	0.529
581.500	360.098	80.001	19.995	101.020	18.991	73.847	0.504
582.000	360.370	80.003	19.994	101.015	18.990	73.903	0.491
582.500	360.592	80.002	19.995	101.011	18.995	73.570	0.500
583.000	360.871	80.001	19.994	101.008	18.998	73.367	0.498
583.500	361.157	80.001	19.994	101.004	18.998	73.346	0.533
584.000	361.383	80.002	19.993	101.001	19.005	72.878	0.538
584.500	361.625	80.002	19.994	100.995	18.998	73.362	0.490
585.000	361.884	80.002	19.994	100.993	19.009	72.630	0.484
585.500	362.119	80.002	19.994	100.989	19.006	72.784	0.498
586.000	362.388	80.002	19.995	100.982	19.016	72.124	0.499
586.500	362.622	80.002	19.995	100.978	19.010	72.552	0.503
587.000	362.894	80.000	19.995	100.980	19.022	71.756	0.505
587.500	363.136	80.002	19.994	100.975	19.027	71.410	0.510
588.000	363.384	80.001	19.994	100.971	19.025	71.538	0.502
588.501	363.631	80.001	19.993	100.971	19.034	70.897	0.492
589.001	363.918	80.002	19.994	100.967	19.029	71.250	0.514
589.500	364.148	80.001	19.994	100.963	19.042	70.331	0.525
590.000	364.351	80.000	19.994	100.961	19.042	70.355	0.475
590.500	364.577	80.001	19.995	100.961	19.051	69.772	0.431
591.000	364.865	80.001	19.995	100.959	19.053	69.612	0.472
591.500	365.087	80.000	19.994	100.954	19.064	68.876	0.512
592.000	365.362	80.000	19.995	100.947	19.068	68.591	0.504
592.501	365.631	79.999	19.995	100.945	19.076	68.042	0.521
593.001	365.849	80.000	19.995	100.937	19.080	67.762	0.515
593.500	366.085	80.000	19.994	100.931	19.084	67.508	0.471
594.000	366.412	80.000	19.996	100.928	19.094	66.858	0.508
594.500	366.611	79.999	19.994	100.927	19.097	66.624	0.544
595.000	366.841	80.000	19.994	100.922	19.109	65.823	0.477
595.500	367.150	80.000	19.995	100.922	19.115	65.448	0.484
596.000	367.271	79.999	19.993	100.922	19.121	65.010	0.484
596.500	367.737	80.000	19.994	100.923	19.132	64.298	0.509
597.000	367.860	80.000	19.996	100.922	19.141	63.653	0.589
597.500	368.036	80.000	19.994	100.917	19.149	63.160	0.444
598.000	368.428	80.001	19.993	100.911	19.157	62.607	0.433
598.500	368.594	80.000	19.994	100.903	19.166	62.006	0.563
599.000	369.172	80.000	19.995	100.894	19.175	61.377	0.651
599.500	368.982	79.999	19.994	100.885	19.183	60.871	0.566
600.000	369.538	80.001	19.994	100.884	19.191	60.330	0.377
600.500	369.577	80.001	19.994	100.882	19.201	59.625	0.480
601.000	370.214	79.999	19.994	100.881	19.212	58.881	0.635
601.500	370.162	80.000	19.995	100.879	19.221	58.319	0.630
602.000	370.130	79.998	19.995	100.873	19.232	57.555	0.251
602.500	370.791	80.000	19.995	100.866	19.246	56.613	0.273
603.000	370.937	80.000	19.994	100.859	19.254	56.089	0.718
603.500	371.035	80.000	19.994	100.853	19.265	55.313	0.525
604.000	371.608	79.999	19.995	100.847	19.277	54.515	0.457
604.500	371.701	80.000	19.995	100.845	19.288	53.803	0.668
605.000	371.774	79.998	19.995	100.841	19.296	53.247	0.416
605.500	372.282	80.000	19.994	100.836	19.312	52.189	0.373
606.000	372.424	79.999	19.995	100.829	19.321	51.556	0.616
606.500	372.740	79.998	19.994	100.823	19.335	50.608	0.555
607.000	373.058	79.998	19.995	100.816	19.346	49.869	0.546
607.500	373.204	79.998	19.995	100.812	19.358	49.111	0.549
608.000	373.539	79.998	19.995	100.809	19.369	48.351	0.473
608.500	373.776	79.999	19.995	100.807	19.383	47.373	0.527
609.000	374.033	79.999	19.994	100.806	19.393	46.704	0.533
609.500	374.301	79.998	19.995	100.802	19.407	45.767	0.509
610.000	374.587	80.000	19.995	100.798	19.420	44.896	0.539
610.500	374.766	79.999	19.994	100.796	19.434	43.999	0.509
611.000	375.092	79.999	19.995	100.794	19.442	43.440	0.485
611.500	375.386	79.999	19.994	100.791	19.455	42.590	0.563
612.000	375.679	80.000	19.995	100.791	19.468	41.691	0.603
612.500	375.890	80.000	19.995	100.787	19.485	40.585	0.545
613.000	376.165	79.999	19.994	100.780	19.498	39.674	0.495
613.500	376.392	79.999	19.994	100.769	19.510	38.855	0.494
614.000	376.621	79.999	19.994	100.762	19.520	38.227	0.479
614.500	376.949	79.999	19.996	100.758	19.530	37.550	0.507
615.000	377.168	80.000	19.995	100.755	19.543	36.702	0.552
615.500	377.499	79.999	19.994	100.750	19.556	35.831	0.548
616.000	377.726	79.999	19.995	100.748	19.565	35.202	0.553
616.500	377.996	79.999	19.995	100.743	19.578	34.316	0.527
617.000	378.267	79.999	19.996	100.736	19.589	33.591	0.520
617.500	378.515	80.000	19.996	100.732	19.602	32.734	0.531
618.000	378.789	79.999	19.996	100.731	19.614	31.922	0.520
618.500	379.075	80.000	19.996	100.731	19.624	31.247	0.541
619.000	379.282	79.998	19.995	100.730	19.636	30.437	0.526
619.500	379.577	80.000	19.995	100.726	19.648	29.657	0.498
620.001	379.818	80.001	19.996	100.720	19.659	28.912	0.519
620.500	380.100	80.000	19.995	100.720	19.672	28.021	0.529
621.000	380.365	79.997	19.995	100.718	19.682	27.375	0.535
621.500	380.642	80.001	19.994	100.712	19.691	26.768	0.545
622.000	380.885	79.998	19.996	100.710	19.701	26.086	0.531
622.500	381.155	80.000	19.995	100.710	19.713	25.259	0.516
623.000	381.404	79.999	19.994	100.703	19.723	24.617	0.516
623.500	381.679	79.998	19.996	100.699	19.736	23.752	0.521
624.000	381.946	79.998	19.995	100.700	19.743	23.301	0.533
624.500	382.204	79.999	19.994	100.701	19.753	22.627	0.534
625.000	382.464	79.998	19.994	100.700	19.761	22.084	0.522
625.500	382.742	79.998	19.995	100.699	19.772	21.354	0.528
626.000	382.984	79.999	19.994	100.699	19.781	20.714	0.529
626.500	383.291	80.000	19.994	100.696	19.788	20.234	0.534
627.000	383.507	79.998	19.995	100.693	19.797	19.659	0.536
627.500	383.817	79.998	19.996	100.692	19.807	18.996	0.525
628.000	384.063	80.000	19.995	100.692	19.815	18.435	0.541
628.500	384.282	79.998	19.995	100.692	19.818	18.253	0.511
629.000	384.581	79.999	19.995	100.691	19.831	17.378	0.491
629.500	384.838	80.000	19.995	100.691	19.837	17.005	0.536
630.000	385.059	79.997	19.996	100.691	19.843	16.559	0.517
630.500	385.349	79.997	19.996	100.690	19.850	16.108	0.495
631.000	385.576	79.998	19.996	100.689	19.855	15.738	0.514
631.500	385.850	79.999	19.996	100.684	19.860	15.428	0.509
632.000	386.126	80.000	19.997	100.683	19.869	14.837	0.525
632.500	386.337	79.998	19.995	100.681	19.877	14.292	0.519
633.000	386.618	79.999	19.994	100.678	19.881	13.993	0.490
633.500	386.861	80.000	19.996	100.676	19.888	13.589	0.508
634.000	387.103	79.999	19.995	100.675	19.890	13.452	0.504
634.500	387.393	80.000	19.996	100.671	19.897	12.938	0.509
635.000	387.630	79.999	19.996	100.672	19.899	12.801	0.530
635.500	387.886	80.001	19.997	100.675	19.901	12.701	0.510
636.000	388.098	80.000	19.996	100.674	19.909	12.128	0.480
636.500	388.401	79.999	19.995	100.677	19.913	11.893	0.491
637.000	388.646	80.000	19.996	100.678	19.918	11.576	0.531
637.500	388.882	80.001	19.997	100.678	19.918	11.521	0.515
638.000	389.147	80.000	19.995	100.673	19.922	11.267	0.491
638.500	389.398	80.001	19.995	100.668	19.926	10.984	0.509
639.001	389.600	80.001	19.996	100.665	19.931	10.647	0.484
639.501	389.914	80.002	19.997	100.667	19.934	10.498	0.484
640.000	390.144	80.001	19.995	100.666	19.939	10.137	0.530
640.500	390.419	80.000	19.996	100.670	19.940	10.103	0.524
641.000	390.637	80.002	19.996	100.673	19.943	9.890	0.499
641.500	390.900	80.002	19.996	100.675	19.944	9.816	0.487
642.000	391.141	80.000	19.996	100.674	19.945	9.720	0.492
642.500	391.374	80.000	19.996	100.672	19.949	9.498	0.489
643.000	391.645	80.000	19.996	100.668	19.949	9.450	0.490
643.500	391.899	80.001	19.995	100.668	19.952	9.265	0.515
644.000	392.131	79.999	19.995	100.668	19.952	9.272	0.505
644.500	392.367	80.000	19.996	100.669	19.954	9.150	0.477
645.000	392.620	80.000	19.996	100.670	19.958	8.837	0.478
645.500	392.853	80.001	19.995	100.670	19.959	8.828	0.487
646.000	393.099	80.001	19.995	100.666	19.961	8.688	0.483
646.500	393.377	79.999	19.996	100.666	19.959	8.776	0.502
647.000	393.652	80.000	19.995	100.664	19.964	8.446	0.539
647.500	393.842	80.000	19.995	100.664	19.966	8.349	0.509
648.000	394.166	80.001	19.995	100.669	19.967	8.259	0.490
648.500	394.362	80.000	19.994	100.676	19.967	8.257	0.517
649.000	394.602	80.000	19.995	100.680	19.967	8.291	0.478
649.500	394.845	79.999	19.995	100.684	19.967	8.280	0.459
650.000	395.098	80.001	19.995	100.686	19.972	7.930	0.489
650.500	395.341	79.999	19.996	100.687	19.971	7.988	0.496
651.000	395.589	80.000	19.995	100.687	19.969	8.154	0.494
651.500	395.829	79.999	19.995	100.687	19.970	8.076	0.490
652.000	396.035	79.999	19.994	100.688	19.966	8.323	0.467
652.500	396.332	80.001	19.995	100.689	19.971	7.981	0.474
653.000	396.588	80.000	19.995	100.688	19.971	8.022	0.528
653.500	396.821	80.001	19.995	100.689	19.974	7.787	0.521
654.000	397.094	80.000	19.994	100.689	19.975	7.721	0.497
654.500	397.332	80.001	19.995	100.685	19.973	7.870	0.508
655.000	397.545	80.000	19.995	100.683	19.971	7.996	0.481
655.500	397.829	80.000	19.995	100.683	19.974	7.819	0.474
656.000	398.047	80.001	19.995	100.681	19.976	7.693	0.500
656.500	398.285	80.000	19.996	100.681	19.975	7.744	0.479
657.000	398.557	80.001	19.994	100.683	19.977	7.621	0.483
657.500	398.798	80.002	19.996	100.684	19.979	7.490	0.512
658.000	399.032	80.001	19.996	100.685	19.976	7.689	0.494
658.500	399.298	80.001	19.995	100.685	19.976	7.633	0.488
659.000	399.544	80.001	19.995	100.683	19.976	7.665	0.506
659.501	399.777	80.001	19.995	100.682	19.979	7.469	0.495
660.000	400.056	80.002	19.995	100.681	19.978	7.535	0.495
660.500	400.292	80.000	19.994	100.681	19.979	7.458	0.513
661.000	400.519	80.002	19.994	100.682	19.978	7.523	0.489
661.500	400.786	80.001	19.995	100.683	19.977	7.597	0.479
662.000	401.040	80.003	19.995	100.685	19.977	7.631	0.507
662.500	401.273	80.002	19.995	100.683	19.978	7.556	0.504
663.000	401.563	80.003	19.994	100.683	19.975	7.738	0.505
663.500	401.770	80.003	19.994	100.683	19.975	7.706	0.510
664.000	402.001	80.003	19.996	100.680	19.980	7.369	0.467
664.500	402.275	80.003	19.995	100.677	19.977	7.623	0.471
665.000	402.525	80.003	19.994	100.678	19.980	7.422	0.515
665.500	402.735	80.002	19.994	100.674	19.980	7.384	0.492
666.000	402.981	80.002	19.995	100.669	19.979	7.467	0.458
666.500	403.230	80.003	19.994	100.670	19.978	7.503	0.475
667.000	403.460	80.003	19.994	100.673	19.980	7.372	0.486
667.500	403.736	80.002	19.994	100.675	19.979	7.457	0.492
668.000	404.002	80.003	19.994	100.678	19.980	7.410	0.524
668.500	404.214	80.001	19.994	100.683	19.982	7.240	0.511
669.000	404.426	80.001	19.994	100.685	19.980	7.409	0.451
669.500	404.687	80.002	19.995	100.684	19.978	7.503	0.448
670.000	404.927	80.001	19.995	100.685	19.981	7.314	0.487
670.500	405.176	79.999	19.995	100.687	19.986	7.018	0.495
671.000	405.428	80.000	19.994	100.687	19.982	7.265	0.495
671.500	405.693	79.999	19.994	100.688	19.986	7.023	0.509
672.000	405.904	80.000	19.995	100.689	19.982	7.240	0.496
672.500	406.163	79.999	19.994	100.689	19.985	7.041	0.473
673.000	406.431	79.999	19.994	100.690	19.985	7.056	0.499
673.500	406.648	79.999	19.995	100.693	19.982	7.233	0.506
674.000	406.905	80.000	19.996	100.695	19.984	7.106	0.479
674.500	407.146	79.999	19.995	100.697	19.985	7.052	0.486
675.000	407.404	79.999	19.994	100.699	19.984	7.115	0.499
675.500	407.639	80.001	19.996	100.698	19.984	7.162	0.496
676.000	407.893	79.999	19.994	100.696	19.983	7.195	0.491
676.500	408.152	80.000	19.994	100.694	19.982	7.251	0.501
677.000	408.446	80.001	19.995	100.693	19.984	7.141	0.533
677.500	408.659	79.999	19.994	100.693	19.983	7.171	0.530
678.000	408.947	79.999	19.996	100.693	19.984	7.150	0.504
678.500	409.196	79.999	19.996	100.693	19.984	7.126	0.519
679.000	409.436	79.999	19.996	100.693	19.987	6.908	0.513
679.500	409.656	79.999	19.996	100.693	19.987	6.901	0.474
680.000	409.957	79.998	19.995	100.691	19.986	6.986	0.490
680.500	410.173	79.998	19.995	100.691	19.988	6.849	0.519
681.000	410.495	79.999	19.995	100.691	19.991	6.632	0.528
681.500	410.691	79.998	19.995	100.691	19.986	7.020	0.528
682.000	410.959	80.000	19.995	100.691	19.990	6.760	0.491
682.500	411.256	79.999	19.994	100.691	19.985	7.047	0.515
683.000	411.552	79.999	19.994	100.691	19.984	7.161	0.579
683.500	411.792	79.999	19.995	100.691	19.984	7.141	0.564
684.000	412.064	79.999	19.993	100.690	19.984	7.141	0.524
684.500	412.347	79.999	19.994	100.691	19.986	6.998	0.533
685.000	412.579	79.999	19.995	100.690	19.990	6.726	0.535
685.500	412.831	79.998	19.996	100.690	19.986	6.966	0.500
686.000	413.121	79.999	19.995	100.690	19.987	6.948	0.513
686.500	413.387	79.999	19.994	100.691	19.986	7.022	0.549
687.000	413.631	79.999	19.995	100.691	19.984	7.121	0.533
687.500	413.890	80.000	19.995	100.691	19.988	6.881	0.507
688.000	414.137	79.998	19.996	100.690	19.986	6.998	0.504
688.500	414.382	79.998	19.994	100.690	19.986	6.975	0.499
689.000	414.661	80.001	19.994	100.690	19.986	7.027	0.508
689.500	414.905	79.999	19.993	100.692	19.982	7.267	0.524
690.000	415.143	79.999	19.994	100.692	19.983	7.182	0.503
690.500	415.456	79.999	19.994	100.693	19.981	7.312	0.516
691.000	415.734	79.999	19.995	100.694	19.987	6.949	0.571
691.500	415.952	79.999	19.996	100.694	19.985	7.088	0.544
692.000	416.225	79.999	19.994	100.693	19.984	7.124	0.493
692.500	416.464	80.000	19.994	100.693	19.981	7.325	0.501
693.000	416.723	80.000	19.995	100.693	19.984	7.142	0.505
693.500	417.002	79.999	19.994	100.693	19.986	7.012	0.518
694.000	417.271	80.000	19.994	100.692	19.984	7.135	0.543
694.500	417.540	79.999	19.995	100.693	19.984	7.112	0.543
695.000	417.841	80.000	19.995	100.693	19.986	6.991	0.554
695.500	418.072	80.000	19.993	100.693	19.986	6.984	0.551
696.000	418.361	79.999	19.995	100.694	19.986	6.982	0.527
696.500	418.619	79.999	19.995	100.694	19.987	6.911	0.533
697.000	418.836	79.999	19.995	100.693	19.990	6.760	0.510
697.500	419.110	79.999	19.995	100.693	19.986	6.965	0.483
698.000	419.370	79.999	19.995	100.692	19.990	6.724	0.513
698.500	419.611	79.999	19.995	100.692	19.989	6.821	0.518
699.000	419.935	80.000	19.996	100.692	19.986	6.991	0.533
699.500	420.162	79.999	19.995	100.691	19.986	7.002	0.558
700.000	420.475	80.000	19.996	100.691	19.987	6.958	0.546
700.500	420.722	80.000	19.995	100.691	19.987	6.935	0.550
701.000	420.966	79.999	19.996	100.691	19.986	7.025	0.525
701.500	421.232	79.999	19.996	100.690	19.985	7.041	0.500
702.000	421.480	79.999	19.995	100.690	19.985	7.072	0.512
702.500	421.769	79.997	19.995	100.690	19.987	6.929	0.526
703.000	422.039	79.999	19.996	100.690	19.985	7.032	0.548
703.500	422.278	79.999	19.995	100.689	19.986	7.000	0.534
704.000	422.548	79.999	19.997	100.689	19.985	7.095	0.509
704.500	422.802	79.999	19.996	100.689	19.984	7.124	0.516
705.000	423.053	79.998	19.995	100.689	19.987	6.960	0.514
705.500	423.360	79.998	19.995	100.689	19.988	6.882	0.532
706.000	423.622	79.999	19.996	100.689	19.986	7.009	0.564
706.500	423.853	79.999	19.995	100.689	19.986	7.000	0.531
707.000	424.147	79.998	19.995	100.689	19.988	6.839	0.509
707.500	424.442	79.997	19.996	100.689	19.988	6.866	0.557
708.000	424.693	79.999	19.996	100.689	19.986	7.007	0.567
708.500	424.978	79.999	19.996	100.689	19.986	6.991	0.541
709.000	425.263	79.999	19.996	100.689	19.988	6.832	0.554
709.500	425.552	80.000	19.996	100.690	19.991	6.650	0.572
710.000	425.803	79.999	19.996	100.690	19.989	6.823	0.557
710.500	426.057	79.998	19.995	100.689	19.989	6.762	0.522
711.000	426.333	79.999	19.996	100.689	19.989	6.762	0.517
711.500	426.606	79.998	19.996	100.689	19.988	6.830	0.540
712.000	426.908	79.999	19.995	100.689	19.988	6.832	0.562
712.500	427.162	80.000	19.995	100.689	19.989	6.823	0.565
713.000	427.433	79.999	19.995	100.689	19.991	6.644	0.541
713.500	427.705	79.999	19.995	100.690	19.991	6.650	0.534
714.000	427.992	79.999	19.995	100.690	19.995	6.401	0.551
714.500	428.250	80.001	19.995	100.690	19.992	6.570	0.552
715.000	428.498	80.000	19.996	100.689	19.994	6.435	0.526
715.500	428.786	79.999	19.995	100.689	19.996	6.337	0.521
716.000	429.073	80.000	19.994	100.689	19.994	6.437	0.555
716.500	429.341	79.999	19.995	100.688	19.991	6.673	0.565
717.000	429.618	80.000	19.996	100.687	19.994	6.482	0.550
717.500	429.915	80.000	19.995	100.687	19.993	6.543	0.559
718.000	430.171	80.000	19.995	100.687	19.995	6.408	0.564
718.500	430.413	80.001	19.996	100.687	19.991	6.657	0.526
719.000	430.719	80.000	19.996	100.687	19.993	6.503	0.523
719.500	431.019	80.000	19.996	100.688	19.993	6.505	0.577
720.000	431.290	80.001	19.995	100.688	19.990	6.723	0.588
720.500	431.566	80.000	19.996	100.688	19.988	6.844	0.559
721.000	431.823	80.001	19.995	100.688	19.993	6.543	0.540
721.500	432.083	80.001	19.996	100.688	19.993	6.500	0.525
722.000	432.356	80.000	19.997	100.687	19.996	6.327	0.525
722.500	432.660	80.002	19.996	100.687	19.995	6.399	0.555
723.000	432.929	80.001	19.996	100.687	19.995	6.383	0.575
723.500	433.205	80.001	19.996	100.687	19.996	6.298	0.559
724.000	433.494	80.001	19.995	100.686	19.998	6.208	0.555
724.500	433.754	80.001	19.995	100.686	19.995	6.368	0.557
725.000	434.080	80.001	19.997	100.686	19.996	6.303	0.568
725.500	434.345	80.000	19.995	100.685	19.997	6.265	0.588
726.000	434.609	80.000	19.996	100.685	19.997	6.235	0.559
726.500	434.892	80.000	19.995	100.684	19.997	6.289	0.537
727.000	435.147	80.000	19.996	100.683	19.996	6.346	0.542
727.500	435.438	80.000	19.996	100.684	19.992	6.566	0.542
728.000	435.713	80.000	19.995	100.684	19.997	6.269	0.556
728.500	435.995	79.999	19.996	100.682	19.995	6.397	0.562
729.000	436.254	80.000	19.996	100.683	19.999	6.151	0.549
729.500	436.547	79.999	19.996	100.684	19.998	6.203	0.547
730.000	436.816	80.001	19.996	100.683	19.998	6.166	0.557
730.500	437.082	79.999	19.995	100.682	19.999	6.111	0.548
731.000	437.346	79.999	19.996	100.685	20.000	6.063	0.532
731.500	437.615	80.000	19.996	100.685	19.998	6.180	0.532
732.000	437.854	80.000	19.995	100.684	20.000	6.074	0.520
732.500	438.113	80.000	19.996	100.686	19.998	6.222	0.503
733.000	438.401	80.000	19.994	100.686	19.997	6.229	0.522
733.500	438.661	80.000	19.997	100.686	19.996	6.334	0.548
734.000	438.919	79.999	19.995	100.686	20.000	6.085	0.533
734.500	439.207	79.999	19.997	100.687	19.996	6.297	0.532
735.000	439.463	79.999	19.998	100.687	20.002	5.900	0.545
735.500	439.783	80.000	19.996	100.687	19.999	6.104	0.561
736.000	440.040	79.999	19.996	100.687	20.002	5.907	0.577
736.500	440.301	80.000	19.995	100.687	20.002	5.913	0.547
737.000	440.604	80.000	19.994	100.688	20.001	5.980	0.541
737.500	440.812	80.000	19.995	100.685	20.004	5.819	0.537
738.000	441.102	80.000	19.994	100.683	20.003	5.881	0.504
738.500	441.343	80.001	19.995	100.684	20.003	5.841	0.515
739.000	441.645	80.001	19.996	100.683	20.005	5.743	0.537
739.500	441.913	80.001	19.995	100.681	20.007	5.599	0.557
740.000	442.193	80.002	19.995	100.679	20.004	5.770	0.559
740.500	442.457	80.003	19.995	100.676	20.004	5.757	0.546
741.000	442.698	80.002	19.996	100.676	20.004	5.774	0.524
741.500	442.945	80.001	19.995	100.675	20.006	5.633	0.497
742.000	443.200	80.001	19.995	100.677	20.006	5.666	0.495
742.500	443.482	80.000	19.995	100.681	20.005	5.721	0.519
743.000	443.764	80.002	19.995	100.686	20.008	5.543	0.551
743.500	444.022	80.001	19.995	100.683	20.009	5.483	0.553
744.000	444.283	80.003	19.995	100.683	20.008	5.547	0.530
744.500	444.550	80.003	19.995	100.683	20.005	5.702	0.524
745.000	444.815	80.003	19.996	100.679	20.009	5.468	0.530
745.500	445.090	80.003	19.994	100.674	20.009	5.437	0.535
746.000	445.321	80.003	19.995	100.673	20.010	5.405	0.523
746.500	445.571	80.002	19.994	100.669	20.011	5.311	0.494
747.000	445.812	80.003	19.995	100.667	20.011	5.305	0.486
747.500	446.086	80.001	19.994	100.671	20.010	5.383	0.503
748.000	446.372	80.002	19.994	100.675	20.010	5.390	0.537
748.500	446.599	80.002	19.993	100.676	20.014	5.150	0.536
749.000	446.882	80.003	19.994	100.680	20.010	5.397	0.512
749.500	447.126	80.002	19.994	100.680	20.011	5.350	0.519
750.000	447.388	80.002	19.994	100.674	20.012	5.254	0.517
750.500	447.656	80.003	19.994	100.671	20.013	5.218	0.518
751.000	447.894	80.002	19.993	100.669	20.008	5.501	0.518
751.500	448.190	80.001	19.993	100.668	20.009	5.451	0.520
752.000	448.457	80.001	19.994	100.668	20.009	5.482	0.549
752.500	448.669	80.000	19.993	100.671	20.007	5.608	0.521
753.000	448.967	80.001	19.995	100.671	20.013	5.206	0.494
753.500	449.197	80.001	19.995	100.669	20.010	5.376	0.519
754.000	449.466	80.001	19.994	100.672	20.009	5.461	0.513
754.500	449.743	80.000	19.994	100.673	20.008	5.495	0.523
755.000	449.954	80.000	19.993	100.676	20.011	5.321	0.517
755.500	450.202	80.000	19.993	100.681	20.011	5.343	0.474
756.000	450.441	79.999	19.994	100.686	20.010	5.399	0.473
756.500	450.749	79.999	19.995	100.682	20.011	5.331	0.517
757.000	450.982	80.000	19.995	100.681	20.013	5.212	0.544
757.500	451.252	79.998	19.995	100.680	20.014	5.127	0.521
758.000	451.525	79.999	19.994	100.680	20.014	5.109	0.523
758.500	451.735	79.998	19.994	100.675	20.014	5.111	0.513
759.000	451.991	79.999	19.995	100.673	20.015	5.079	0.475
759.500	452.289	79.999	19.996	100.671	20.012	5.252	0.510
760.001	452.524	80.000	19.995	100.670	20.013	5.174	0.544
760.501	452.774	79.999	19.995	100.669	20.017	4.895	0.509
761.000	452.995	79.999	19.995	100.670	20.014	5.088	0.478
761.500	453.257	80.000	19.994	100.670	20.013	5.185	0.477
762.000	453.542	79.998	19.995	100.669	20.018	4.850	0.516
762.500	453.752	79.999	19.995	100.668	20.016	4.992	0.521
763.000	453.991	79.999	19.996	100.671	20.017	4.942	0.472
763.500	454.299	79.998	19.996	100.675	20.015	5.061	0.498
764.000	454.507	79.999	19.995	100.679	20.016	5.008	0.531
764.500	454.774	79.999	19.994	100.682	20.017	4.896	0.495
765.000	455.017	80.000	19.996	100.683	20.017	4.903	0.493
765.500	455.256	79.999	19.995	100.682	20.020	4.748	0.496
766.000	455.504	80.000	19.994	100.680	20.015	5.044	0.485
766.500	455.721	80.000	19.996	100.676	20.017	4.938	0.477
767.000	456.011	80.000	19.995	100.671	20.019	4.788	0.486
767.500	456.235	79.999	19.995	100.664	20.021	4.673	0.510
768.000	456.475	80.000	19.995	100.658	20.019	4.779	0.489
768.500	456.741	80.000	19.994	100.652	20.023	4.549	0.485
769.000	457.017	79.999	19.996	100.650	20.023	4.547	0.524
769.500	457.265	80.000	19.995	100.651	20.020	4.717	0.533
770.000	457.508	79.999	19.996	100.655	20.023	4.498	0.508
770.500	457.745	80.000	19.995	100.659	20.021	4.652	0.486
771.000	457.966	79.999	19.996	100.662	20.020	4.708	0.469
771.500	458.227	80.001	19.994	100.667	20.022	4.607	0.470
772.000	458.485	80.001	19.995	100.666	20.021	4.644	0.501
772.500	458.751	80.000	19.995	100.664	20.023	4.543	0.522
773.000	458.997	80.000	19.994	100.663	20.020	4.699	0.518
773.500	459.256	80.000	19.995	100.664	20.023	4.535	0.509
774.000	459.465	79.999	19.994	100.659	20.023	4.484	0.487
774.500	459.744	80.000	19.995	100.661	20.022	4.585	0.478
775.000	460.006	80.001	19.994	100.659	20.019	4.756	0.514
775.500	460.216	80.000	19.995	100.654	20.020	4.749	0.506
776.000	460.468	80.000	19.995	100.650	20.021	4.637	0.467
776.500	460.716	79.999	19.995	100.650	20.024	4.437	0.481
777.000	460.996	79.999	19.995	100.649	20.024	4.477	0.514
777.500	461.175	80.000	19.994	100.655	20.025	4.410	0.493
778.000	461.431	80.000	19.995	100.655	20.023	4.522	0.447
778.500	461.656	80.000	19.995	100.656	20.027	4.262	0.458
779.000	461.915	80.000	19.994	100.656	20.023	4.527	0.482
779.500	462.161	80.000	19.994	100.660	20.025	4.379	0.495
780.000	462.407	79.999	19.996	100.663	20.022	4.565	0.499
780.500	462.676	80.001	19.995	100.667	20.026	4.300	0.503
781.000	462.923	79.999	19.995	100.670	20.024	4.435	0.516
781.500	463.162	80.000	19.993	100.673	20.024	4.421	0.501
782.000	463.395	80.000	19.994	100.669	20.024	4.431	0.479
782.500	463.650	79.998	19.995	100.667	20.025	4.374	0.480
783.000	463.923	80.000	19.994	100.667	20.022	4.565	0.508
783.500	464.136	79.999	19.994	100.667	20.024	4.444	0.507
784.000	464.394	79.999	19.995	100.668	20.025	4.350	0.479
784.500	464.642	80.001	19.995	100.669	20.024	4.443	0.489
785.000	464.886	80.000	19.995	100.663	20.019	4.753	0.499
785.500	465.116	80.001	19.996	100.659	20.024	4.443	0.483
786.000	465.380	80.000	19.995	100.661	20.026	4.343	0.484
786.500	465.615	80.000	19.996	100.664	20.024	4.437	0.496
787.000	465.844	80.001	19.994	100.668	20.024	4.453	0.482
787.500	466.096	80.000	19.996	100.672	20.027	4.255	0.473
788.000	466.373	80.001	19.995	100.672	20.026	4.347	0.505
788.500	466.634	80.000	19.996	100.667	20.027	4.250	0.533
789.000	466.862	79.999	19.996	100.660	20.027	4.230	0.514
789.500	467.120	80.000	19.996	100.657	20.025	4.385	0.488
790.000	467.386	79.999	19.996	100.659	20.026	4.282	0.504
790.500	467.624	80.000	19.994	100.664	20.027	4.217	0.514
791.000	467.867	80.000	19.996	100.667	20.024	4.461	0.493
791.500	468.136	79.999	19.996	100.667	20.027	4.219	0.497
792.001	468.409	79.999	19.996	100.666	20.026	4.343	0.528
792.501	468.612	79.999	19.995	100.662	20.026	4.284	0.509
793.000	468.879	79.999	19.995	100.659	20.024	4.473	0.473
793.500	469.171	79.999	19.996	100.659	20.026	4.297	0.515
794.000	469.392	80.000	19.996	100.661	20.028	4.207	0.536
794.500	469.665	79.999	19.996	100.664	20.026	4.333	0.504
795.000	469.913	79.999	19.995	100.665	20.029	4.144	0.507
795.500	470.150	79.999	19.996	100.669	20.027	4.241	0.503
796.000	470.434	79.999	19.995	100.668	20.025	4.409	0.503
796.500	470.670	79.998	19.997	100.669	20.026	4.342	0.521
797.000	470.923	79.998	19.997	100.670	20.026	4.309	0.505
797.500	471.189	79.998	19.995	100.672	20.027	4.268	0.504
798.000	471.410	79.999	19.996	100.670	20.029	4.136	0.503
798.500	471.728	79.999	19.998	100.671	20.027	4.216	0.513
799.000	471.937	80.000	19.996	100.670	20.027	4.215	0.533
799.500	472.208	80.000	19.996	100.669	20.028	4.177	0.503
800.000	472.435	80.001	19.997	100.667	20.031	4.004	0.489
800.500	472.707	80.001	19.997	100.666	20.032	3.930	0.499
801.000	472.987	80.001	19.996	100.667	20.034	3.804	0.526
801.500	473.253	80.000	19.996	100.670	20.032	3.885	0.549
802.000	473.547	80.001	19.995	100.670	20.034	3.755	0.553
802.500	473.777	80.001	19.997	100.669	20.030	4.025	0.542
803.000	474.057	80.001	19.996	100.669	20.031	3.979	0.517
803.500	474.269	80.001	19.996	100.672	20.032	3.916	0.501
804.000	474.567	80.000	19.996	100.674	20.032	3.899	0.501
804.500	474.844	80.002	19.995	100.679	20.031	3.964	0.543
805.000	475.091	80.001	19.995	100.683	20.031	4.006	0.550
805.500	475.347	80.000	19.996	100.685	20.031	3.950	0.514
806.000	475.635	80.001	19.996	100.681	20.033	3.871	0.524
806.500	475.863	80.001	19.995	100.680	20.033	3.867	0.530
807.000	476.105	80.000	19.995	100.679	20.030	4.057	0.493
807.500	476.393	80.000	19.994	100.677	20.030	4.046	0.500
808.000	476.636	80.000	19.996	100.679	20.033	3.844	0.530
808.500	476.934	80.001	19.994	100.682	20.029	4.100	0.536
809.000	477.200	80.000	19.995	100.681	20.030	4.040	0.553
809.500	477.473	80.001	19.995	100.676	20.031	4.000	0.551
810.000	477.724	80.001	19.996	100.673	20.030	4.027	0.531
810.500	477.973	80.000	19.994	100.670	20.029	4.087	0.512
811.000	478.228	80.000	19.995	100.666	20.030	4.049	0.502
811.500	478.498	80.000	19.995	100.663	20.031	3.964	0.514
812.000	478.752	80.000	19.995	100.663	20.031	3.995	0.524
812.500	479.068	80.002	19.996	100.662	20.031	3.954	0.547
813.000	479.307	79.999	19.996	100.660	20.028	4.154	0.563
813.500	479.577	79.999	19.997	100.660	20.033	3.869	0.532
814.000	479.860	80.000	19.995	100.665	20.030	4.071	0.531
814.500	480.106	80.001	19.996	100.666	20.027	4.249	0.541
815.000	480.387	80.001	19.995	100.665	20.030	4.062	0.528
815.500	480.627	79.999	19.995	100.662	20.030	4.019	0.524
816.000	480.929	80.000	19.996	100.665	20.030	4.074	0.532
816.500	481.195	80.000	19.995	100.664	20.029	4.100	0.555
817.000	481.447	80.000	19.996	100.667	20.032	3.934	0.543
817.500	481.690	80.000	19.994	100.673	20.027	4.273	0.506
818.000	481.962	80.000	19.995	100.676	20.029	4.103	0.505
818.500	482.202	80.000	19.996	100.674	20.031	3.966	0.514
819.000	482.489	80.000	19.995	100.670	20.034	3.800	0.519
819.500	482.754	79.999	19.994	100.667	20.032	3.925	0.540
820.000	483.004	80.000	19.995	100.662	20.034	3.789	0.534
820.500	483.265	79.999	19.996	100.659	20.033	3.876	0.513
821.000	483.502	79.999	19.996	100.659	20.032	3.914	0.504
821.500	483.744	80.001	19.997	100.660	20.032	3.937	0.489
822.000	484.028	79.999	19.995	100.659	20.033	3.815	0.502
822.500	484.301	80.000	19.996	100.663	20.030	4.029	0.541
823.000	484.543	79.999	19.996	100.665	20.032	3.899	0.536
823.500	484.803	80.002	19.995	100.664	20.032	3.903	0.509
824.000	485.082	80.001	19.996	100.665	20.031	3.957	0.520
824.500	485.351	80.001	19.995	100.669	20.033	3.872	0.543
825.000	485.587	80.002	19.997	100.666	20.031	3.953	0.527
825.500	485.827	80.001	19.996	100.666	20.034	3.757	0.491
826.000	486.112	80.001	19.997	100.672	20.031	3.950	0.500
826.500	486.329	80.002	19.996	100.671	20.029	4.094	0.513
827.000	486.618	80.002	19.995	100.666	20.032	3.895	0.504
827.500	486.917	80.002	19.995	100.664	20.030	4.078	0.547
828.000	487.144	80.001	19.997	100.661	20.034	3.767	0.557
828.500	487.386	80.003	19.996	100.658	20.034	3.769	0.498
829.000	487.659	80.001	19.996	100.658	20.034	3.805	0.492
829.500	487.932	80.002	19.996	100.660	20.034	3.771	0.531
830.000	488.174	80.003	19.995	100.660	20.030	4.058	0.531
830.500	488.442	80.004	19.996	100.662	20.030	4.074	0.512
831.000	488.693	80.002	19.996	100.659	20.032	3.935	0.514
831.500	488.926	80.003	19.995	100.662	20.031	3.962	0.501
832.000	489.229	80.002	19.997	100.664	20.032	3.879	0.510
832.500	489.514	80.002	19.996	100.665	20.029	4.125	0.562
833.000	489.769	80.002	19.996	100.663	20.033	3.861	0.565
833.500	490.048	80.001	19.996	100.664	20.030	4.018	0.537
834.000	490.264	80.001	19.995	100.659	20.033	3.818	0.514
834.500	490.554	80.001	19.996	100.656	20.034	3.785	0.500
835.000	490.792	80.000	19.996	100.656	20.034	3.795	0.516
835.500	491.031	80.001	19.994	100.659	20.032	3.914	0.502
836.000	491.297	80.002	19.997	100.658	20.034	3.766	0.491
836.500	491.549	80.001	19.995	100.660	20.037	3.571	0.512
837.000	491.817	80.000	19.996	100.658	20.034	3.789	0.519
837.500	492.073	80.000	19.997	100.657	20.036	3.642	0.522
838.000	492.329	80.001	19.997	100.653	20.035	3.734	0.517
838.500	492.598	80.000	19.995	100.653	20.033	3.876	0.518
839.000	492.879	80.001	19.995	100.654	20.035	3.692	0.538
839.500	493.144	80.000	19.996	100.659	20.034	3.788	0.548
840.000	493.392	80.000	19.994	100.661	20.032	3.907	0.529
840.500	493.611	80.000	19.996	100.661	20.035	3.694	0.490
841.000	493.927	80.001	19.995	100.660	20.033	3.813	0.501
841.500	494.196	80.001	19.994	100.659	20.035	3.681	0.560
842.000	494.425	80.001	19.995	100.655	20.036	3.667	0.541
842.500	494.689	80.000	19.996	100.655	20.036	3.642	0.496
843.000	494.972	80.001	19.995	100.656	20.036	3.629	0.520
843.500	495.212	80.001	19.995	100.655	20.033	3.826	0.535
844.000	495.440	80.000	19.995	100.652	20.033	3.835	0.495
844.500	495.742	80.001	19.994	100.652	20.033	3.834	0.499
845.000	495.968	80.002	19.995	100.653	20.034	3.800	0.529
845.500	496.220	80.000	19.993	100.655	20.032	3.924	0.503
846.000	496.484	80.000	19.994	100.660	20.035	3.742	0.497
846.500	496.740	79.999	19.994	100.661	20.033	3.856	0.518
847.000	497.021	79.999	19.995	100.663	20.033	3.813	0.528
847.500	497.250	80.000	19.995	100.666	20.032	3.926	0.523
848.000	497.494	80.000	19.995	100.666	20.039	3.474	0.491
848.500	497.775	79.999	19.994	100.666	20.037	3.586	0.499
849.000	498.048	80.000	19.995	100.667	20.034	3.753	0.540
849.500	498.256	80.001	19.995	100.666	20.037	3.584	0.518
850.000	498.520	79.999	19.997	100.666	20.035	3.708	0.477
850.500	498.806	80.000	19.997	100.664	20.035	3.696	0.511
851.000	499.025	80.000	19.995	100.662	20.035	3.714	0.527
851.500	499.281	80.000	19.996	100.662	20.038	3.504	0.490
852.000	499.532	80.001	19.996	100.662	20.031	3.955	0.491
852.500	499.800	80.000	19.995	100.661	20.038	3.542	0.513
853.000	500.045	80.000	19.995	100.665	20.033	3.843	0.516
853.500	500.286	80.000	19.997	100.665	20.033	3.876	0.499
854.000	500.569	80.002	19.995	100.667	20.031	3.973	0.505
854.500	500.795	80.001	19.994	100.668	20.033	3.826	0.517
855.000	501.061	80.001	19.994	100.667	20.036	3.674	0.501
855.500	501.296	80.002	19.995	100.662	20.037	3.611	0.496
856.000	501.565	80.002	19.996	100.663	20.034	3.789	0.502
856.500	501.861	80.000	19.996	100.659	20.039	3.449	0.534
857.000	502.050	79.999	19.996	100.656	20.036	3.623	0.525
857.500	502.323	79.999	19.995	100.660	20.034	3.760	0.474
858.000	502.589	80.000	19.996	100.662	20.036	3.614	0.500
858.500	502.804	80.001	19.997	100.663	20.038	3.512	0.510
859.000	503.042	80.000	19.998	100.668	20.036	3.663	0.467
859.500	503.330	79.999	19.996	100.669	20.034	3.754	0.490
860.000	503.556	79.999	19.997	100.665	20.035	3.690	0.521
860.500	503.831	80.001	19.996	100.665	20.037	3.582	0.508
861.000	504.093	80.000	19.995	100.665	20.038	3.528	0.519
861.500	504.331	80.001	19.995	100.663	20.038	3.481	0.518
862.000	504.603	80.000	19.995	100.665	20.038	3.481	0.505
862.500	504.851	80.000	19.995	100.665	20.038	3.516	0.515
863.000	505.130	80.000	19.995	100.663	20.040	3.400	0.524
863.500	505.373	80.001	19.995	100.661	20.041	3.286	0.525
864.000	505.630	80.000	19.996	100.661	20.041	3.283	0.511
864.500	505.858	80.000	19.995	100.663	20.040	3.366	0.493
865.000	506.118	80.001	19.995	100.663	20.043	3.201	0.486
865.500	506.356	80.000	19.994	100.667	20.042	3.219	0.493
866.000	506.618	80.000	19.994	100.667	20.042	3.239	0.499
866.500	506.844	80.000	19.995	100.666	20.042	3.263	0.494
867.000	507.131	80.001	19.995	100.663	20.041	3.295	0.500
867.500	507.367	79.999	19.994	100.665	20.039	3.443	0.518
868.000	507.635	80.000	19.994	100.661	20.040	3.389	0.514
868.500	507.862	79.999	19.996	100.660	20.039	3.423	0.499
869.000	508.118	80.000	19.994	100.664	20.039	3.420	0.489
869.500	508.385	79.999	19.995	100.668	20.039	3.447	0.503
870.000	508.629	79.999	19.995	100.669	20.040	3.411	0.517
870.500	508.875	79.999	19.993	100.673	20.040	3.355	0.500
871.000	509.114	80.000	19.996	100.671	20.039	3.427	0.488
871.500	509.368	79.999	19.994	100.666	20.035	3.718	0.489
872.000	509.625	80.000	19.995	100.664	20.036	3.665	0.502
872.500	509.907	80.000	19.993	100.666	20.038	3.532	0.525
873.000	510.145	80.000	19.994	100.668	20.038	3.508	0.529
873.500	510.385	79.999	19.995	100.673	20.038	3.481	0.499
874.000	510.634	79.999	19.994	100.674	20.038	3.508	0.484
874.500	510.904	80.000	19.996	100.672	20.039	3.447	0.504
875.000	511.164	80.000	19.994	100.668	20.038	3.506	0.524
875.500	511.414	80.000	19.994	100.663	20.034	3.751	0.520
876.000	511.677	79.999	19.995	100.660	20.034	3.803	0.512
876.501	511.924	79.999	19.995	100.661	20.035	3.703	0.511
877.001	512.152	80.000	19.993	100.663	20.036	3.649	0.493
877.500	512.405	80.000	19.996	100.667	20.042	3.210	0.478
878.000	512.697	80.001	19.995	100.668	20.039	3.412	0.512
878.500	512.933	79.999	19.995	100.670	20.038	3.505	0.536
879.000	513.176	80.000	19.994	100.669	20.038	3.543	0.504
879.500	513.411	80.001	19.995	100.667	20.039	3.447	0.479
880.001	513.697	80.000	19.995	100.665	20.039	3.432	0.499
880.500	513.964	80.001	19.995	100.668	20.040	3.391	0.536
881.000	514.202	80.000	19.994	100.667	20.039	3.477	0.529
881.500	514.443	80.000	19.995	100.672	20.039	3.448	0.492
882.000	514.705	80.001	19.996	100.673	20.039	3.434	0.491
882.500	514.942	80.001	19.994	100.671	20.043	3.167	0.501
883.000	515.205	80.001	19.995	100.668	20.042	3.236	0.500
883.500	515.449	80.002	19.995	100.670	20.045	3.070	0.504
884.000	515.680	80.000	19.995	100.669	20.041	3.285	0.491
884.500	515.931	80.001	19.995	100.666	20.043	3.198	0.478
885.000	516.171	80.001	19.995	100.665	20.041	3.285	0.487
885.500	516.436	80.002	19.995	100.663	20.043	3.178	0.498
886.000	516.708	80.001	19.996	100.658	20.045	3.014	0.521
886.500	516.928	80.003	19.993	100.654	20.043	3.153	0.515
887.000	517.201	80.000	19.994	100.654	20.045	3.032	0.492
887.500	517.474	80.002	19.995	100.656	20.045	3.062	0.519
888.000	517.734	80.002	19.995	100.659	20.041	3.326	0.540
888.500	517.967	80.000	19.996	100.662	20.041	3.293	0.513
889.000	518.231	80.000	19.995	100.665	20.043	3.143	0.495
889.500	518.435	80.001	19.996	100.668	20.042	3.248	0.482
890.000	518.697	80.002	19.995	100.672	20.041	3.307	0.467
890.500	518.963	80.001	19.995	100.669	20.043	3.170	0.497
891.000	519.232	79.999	19.995	100.666	20.043	3.187	0.531
891.500	519.479	80.001	19.994	100.664	20.040	3.389	0.525
892.000	519.743	80.000	19.995	100.662	20.040	3.371	0.514
892.500	519.986	79.999	19.995	100.659	20.042	3.212	0.509
893.000	520.242	80.000	19.995	100.662	20.043	3.154	0.502
893.500	520.531	80.000	19.995	100.663	20.042	3.264	0.522
894.000	520.800	80.000	19.995	100.664	20.040	3.351	0.552
894.500	521.032	80.000	19.997	100.665	20.040	3.380	0.529
895.000	521.259	80.001	19.995	100.668	20.044	3.111	0.480
895.500	521.537	80.001	19.995	100.669	20.045	3.039	0.482
896.000	521.750	80.001	19.996	100.668	20.042	3.212	0.498
896.500	522.029	80.001	19.996	100.666	20.042	3.275	0.492
897.000	522.304	80.001	19.995	100.664	20.042	3.252	0.523
897.500	522.564	80.000	19.996	100.660	20.041	3.284	0.545
898.000	522.834	80.001	19.995	100.657	20.043	3.196	0.532
898.500	523.109	80.000	19.995	100.656	20.044	3.133	0.537
899.000	523.347	80.000	19.995	100.656	20.046	2.992	0.529
899.500	523.570	80.000	19.996	100.655	20.042	3.255	0.487
900.000	523.851	80.000	19.995	100.654	20.045	3.071	0.482
900.500	524.088	80.000	19.996	100.653	20.044	3.133	0.511
901.000	524.341	80.001	19.994	100.653	20.043	3.170	0.505
901.500	524.636	80.001	19.995	100.653	20.042	3.244	0.519
902.000	524.847	80.002	19.994	100.654	20.043	3.160	0.527
902.500	525.074	80.001	19.995	100.653	20.041	3.288	0.472
903.000	525.350	80.001	19.996	100.652	20.043	3.160	0.471
903.500	525.609	80.002	19.995	100.652	20.043	3.189	0.519
904.000	525.863	80.001	19.995	100.652	20.046	2.998	0.524
904.500	526.104	80.000	19.994	100.652	20.043	3.169	0.504
905.000	526.366	80.001	19.995	100.652	20.042	3.270	0.499
905.500	526.619	80.002	19.994	100.651	20.044	3.118	0.509
906.000	526.861	80.002	19.995	100.654	20.042	3.230	0.505
906.500	527.128	80.001	19.994	100.656	20.044	3.095	0.502
907.000	527.375	80.002	19.994	100.657	20.042	3.223	0.511
907.500	527.624	80.001	19.994	100.660	20.043	3.167	0.505
908.000	527.883	80.003	19.996	100.660	20.042	3.253	0.502
908.500	528.128	80.002	19.994	100.657	20.044	3.125	0.506
909.000	528.414	80.003	19.995	100.655	20.040	3.400	0.517
909.500	528.651	80.002	19.995	100.655	20.040	3.346	0.527
910.000	528.892	80.001	19.995	100.653	20.038	3.535	0.501
910.500	529.134	80.002	19.995	100.653	20.045	3.035	0.481
911.000	529.397	80.002	19.995	100.653	20.044	3.088	0.494
911.500	529.679	80.002	19.995	100.653	20.044	3.084	0.525
912.000	529.905	80.002	19.996	100.652	20.040	3.398	0.527
912.500	530.151	80.001	19.996	100.653	20.041	3.277	0.490
913.000	530.406	80.003	19.994	100.654	20.043	3.180	0.486
913.500	530.692	80.002	19.997	100.656	20.041	3.288	0.521
914.000	530.881	80.002	19.995	100.660	20.041	3.306	0.508
914.500	531.148	80.001	19.995	100.661	20.042	3.273	0.466
915.000	531.414	80.001	19.996	100.662	20.042	3.230	0.495
915.500	531.659	80.002	19.996	100.660	20.042	3.259	0.521
916.000	531.912	80.002	19.996	100.660	20.036	3.641	0.504
916.500	532.141	80.001	19.996	100.658	20.042	3.243	0.490
917.000	532.392	80.001	19.996	100.658	20.038	3.515	0.482
917.500	532.675	80.000	19.996	100.656	20.042	3.261	0.507
918.000	532.910	80.002	19.996	100.659	20.040	3.371	0.526
918.500	533.147	79.998	19.995	100.658	20.041	3.326	0.496
919.000	533.392	80.000	19.996	100.657	20.044	3.142	0.477
919.500	533.656	79.999	19.996	100.659	20.040	3.389	0.495
920.000	533.912	80.000	19.998	100.662	20.041	3.302	0.514
920.500	534.177	79.999	19.997	100.659	20.039	3.436	0.521
921.000	534.401	80.000	19.996	100.657	20.039	3.470	0.505
921.500	534.659	80.000	19.996	100.657	20.038	3.540	0.485
922.000	534.920	79.999	19.995	100.655	20.037	3.564	0.500
922.500	535.172	79.999	19.996	100.656	20.039	3.454	0.516
923.000	535.404	80.000	19.996	100.658	20.041	3.288	0.499
923.500	535.658	79.999	19.996	100.661	20.038	3.495	0.485
924.000	535.905	80.001	19.998	100.666	20.040	3.392	0.493
924.500	536.127	80.001	19.996	100.666	20.039	3.412	0.485
925.000	536.386	80.000	19.997	100.661	20.037	3.611	0.475
925.500	536.677	80.001	19.996	100.660	20.039	3.470	0.515
926.000	536.901	79.998	19.994	100.659	20.037	3.580	0.532
926.500	537.143	80.001	19.996	100.653	20.044	3.142	0.490
927.000	537.373	79.999	19.994	100.652	20.040	3.362	0.469
927.500	537.608	80.000	19.995	100.653	20.041	3.326	0.469
928.000	537.890	80.000	19.994	100.653	20.044	3.142	0.491
928.500	538.115	80.000	19.994	100.654	20.041	3.337	0.512
929.000	538.341	79.999	19.995	100.657	20.042	3.263	0.479
929.500	538.617	80.000	19.994	100.658	20.040	3.409	0.476
930.000	538.837	79.998	19.995	100.658	20.042	3.264	0.499
930.500	539.063	80.001	19.994	100.659	20.041	3.297	0.471
931.000	539.346	80.000	19.995	100.659	20.043	3.163	0.477
931.500	539.574	80.001	19.995	100.658	20.040	3.383	0.510
932.000	539.859	80.001	19.995	100.658	20.042	3.219	0.513
932.500	540.059	80.000	19.995	100.660	20.045	3.064	0.499
933.000	540.336	80.001	19.995	100.660	20.044	3.098	0.481
933.500	540.569	80.000	19.995	100.657	20.042	3.228	0.494
934.000	540.806	80.001	19.994	100.656	20.045	3.052	0.490
934.500	541.078	80.000	19.994	100.657	20.043	3.201	0.489
935.000	541.276	79.999	19.996	100.657	20.044	3.111	0.490
935.500	541.557	80.001	19.993	100.658	20.044	3.122	0.475
936.000	541.776	80.000	19.995	100.660	20.040	3.346	0.489
936.500	542.041	80.000	19.994	100.661	20.042	3.214	0.491
937.000	542.283	80.000	19.994	100.658	20.041	3.295	0.495
937.500	542.512	80.000	19.994	100.657	20.040	3.351	0.489
938.000	542.777	80.000	19.995	100.657	20.044	3.135	0.483
938.500	542.998	79.999	19.995	100.656	20.044	3.088	0.490
939.000	543.225	80.000	19.995	100.659	20.044	3.107	0.467
939.500	543.479	80.000	19.994	100.659	20.041	3.284	0.465
940.000	543.740	79.999	19.994	100.659	20.047	2.916	0.498
940.500	543.980	80.000	19.996	100.658	20.044	3.136	0.508
941.000	544.226	80.001	19.995	100.658	20.042	3.221	0.493
941.500	544.480	80.000	19.996	100.653	20.044	3.111	0.493
942.000	544.727	80.001	19.995	100.654	20.045	3.024	0.500
942.500	544.955	79.999	19.994	100.653	20.043	3.160	0.488
943.000	545.203	80.000	19.995	100.654	20.045	3.055	0.476
943.500	545.406	79.999	19.994	100.654	20.043	3.187	0.464
944.000	545.692	79.999	19.995	100.656	20.046	2.974	0.470
944.500	545.960	80.000	19.996	100.657	20.047	2.913	0.522
945.000	546.163	80.000	19.996	100.659	20.046	2.952	0.513
945.500	546.429	79.999	19.995	100.660	20.045	3.050	0.470
946.000	546.655	80.000	19.994	100.661	20.045	3.032	0.480
946.500	546.903	80.000	19.996	100.663	20.044	3.135	0.483
947.000	547.168	79.999	19.995	100.664	20.043	3.180	0.494
947.500	547.453	80.000	19.995	100.667	20.042	3.243	0.532
948.000	547.681	80.000	19.994	100.669	20.044	3.086	0.531
948.500	547.898	79.998	19.994	100.667	20.042	3.257	0.479
949.000	548.168	79.998	19.994	100.664	20.044	3.108	0.466
949.500	548.395	80.000	19.995	100.662	20.042	3.228	0.492
950.000	548.625	80.000	19.994	100.657	20.040	3.351	0.477
950.500	548.893	79.998	19.995	100.654	20.041	3.320	0.478
951.000	549.114	79.999	19.994	100.656	20.040	3.369	0.494
951.500	549.405	79.999	19.994	100.656	20.042	3.248	0.501
952.000	549.634	80.000	19.995	100.656	20.044	3.117	0.516
952.500	549.900	80.000	19.995	100.656	20.037	3.568	0.508
953.000	550.164	80.000	19.996	100.657	20.039	3.416	0.513
953.500	550.381	79.998	19.994	100.661	20.040	3.357	0.506
954.000	550.633	79.999	19.997	100.661	20.040	3.356	0.475
954.500	550.897	79.999	19.995	100.663	20.041	3.326	0.492
955.000	551.139	79.998	19.994	100.662	20.041	3.297	0.510
955.500	551.385	80.000	19.994	100.661	20.040	3.394	0.497
956.000	551.610	80.000	19.994	100.659	20.041	3.301	0.480
956.500	551.873	80.000	19.995	100.660	20.042	3.268	0.480
957.000	552.144	80.002	19.995	100.659	20.039	3.458	0.511
957.500	552.382	79.999	19.995	100.661	20.039	3.468	0.521
958.000	552.630	80.000	19.995	100.661	20.042	3.220	0.497
958.500	552.828	80.000	19.994	100.658	20.043	3.182	0.466
959.000	553.154	80.000	19.995	100.660	20.041	3.317	0.485
959.500	553.377	80.000	19.995	100.660	20.037	3.571	0.537
960.000	553.633	80.000	19.994	100.661	20.039	3.421	0.514
960.500	553.899	80.001	19.993	100.661	20.040	3.409	0.500
961.000	554.128	80.000	19.994	100.660	20.037	3.600	0.509
961.500	554.391	80.001	19.995	100.656	20.039	3.475	0.494
962.000	554.686	80.000	19.996	100.656	20.038	3.499	0.525
962.500	554.914	80.001	19.995	100.659	20.043	3.147	0.540
963.000	555.158	80.000	19.994	100.662	20.040	3.378	0.497
963.500	555.399	80.001	19.994	100.663	20.041	3.313	0.479
964.000	555.704	80.002	19.995	100.666	20.040	3.356	0.516
964.500	555.925	80.000	19.993	100.666	20.040	3.365	0.536
965.000	556.186	80.002	19.995	100.662	20.039	3.426	0.504
965.500	556.418	80.003	19.994	100.662	20.037	3.574	0.487
966.000	556.688	80.003	19.995	100.665	20.037	3.587	0.497
966.500	556.902	80.002	19.993	100.664	20.035	3.694	0.493
967.000	557.185	80.001	19.994	100.665	20.035	3.699	0.491
967.500	557.445	80.002	19.995	100.666	20.036	3.641	0.520
968.000	557.676	80.003	19.995	100.669	20.035	3.720	0.517
968.500	557.954	80.001	19.995	100.668	20.034	3.753	0.500
969.000	558.222	80.002	19.994	100.669	20.036	3.614	0.527
969.500	558.477	80.003	19.993	100.669	20.038	3.497	0.534
970.000	558.730	80.002	19.994	100.665	20.037	3.585	0.516
970.500	558.989	80.002	19.994	100.659	20.039	3.461	0.510
971.000	559.241	80.002	19.995	100.656	20.036	3.629	0.511
971.500	559.513	80.003	19.996	100.655	20.038	3.493	0.518
972.000	559.762	80.001	19.995	100.657	20.039	3.419	0.523
972.500	560.018	80.003	19.995	100.657	20.039	3.463	0.512
973.000	560.265	80.002	19.995	100.660	20.039	3.472	0.504
973.500	560.524	80.002	19.995	100.661	20.040	3.356	0.505
974.000	560.794	80.001	19.996	100.658	20.039	3.463	0.517
974.500	561.049	80.003	19.994	100.654	20.042	3.255	0.527
975.000	561.262	80.002	19.996	100.653	20.042	3.217	0.497
975.500	561.558	80.000	19.995	100.651	20.041	3.297	0.488
976.000	561.813	79.999	19.994	100.652	20.040	3.403	0.529
976.500	562.052	80.001	19.994	100.656	20.042	3.264	0.522
977.000	562.359	80.001	19.995	100.657	20.037	3.558	0.520
977.500	562.566	80.000	19.995	100.659	20.037	3.553	0.530
978.000	562.840	80.002	19.996	100.659	20.039	3.461	0.498
978.500	563.079	80.001	19.998	100.656	20.037	3.553	0.497
979.000	563.316	80.001	19.996	100.653	20.041	3.329	0.494
979.500	563.541	80.002	19.997	100.652	20.038	3.529	0.469
980.000	563.806	80.001	19.996	100.651	20.039	3.414	0.476
980.500	564.045	80.003	19.997	100.650	20.041	3.317	0.497
981.000	564.288	80.002	19.997	100.651	20.039	3.454	0.493
981.500	564.547	80.002	19.997	100.651	20.038	3.486	0.492
982.000	564.796	80.001	19.996	100.654	20.041	3.338	0.505
982.500	565.018	80.001	19.998	100.653	20.039	3.464	0.490
983.000	565.306	80.002	19.997	100.655	20.039	3.461	0.491
983.500	565.566	80.001	19.997	100.656	20.039	3.448	0.529
984.000	565.832	80.002	19.996	100.655	20.040	3.401	0.537
984.500	566.060	80.002	19.996	100.652	20.040	3.372	0.510
985.000	566.320	80.002	19.997	100.653	20.038	3.482	0.491
985.500	566.584	80.002	19.997	100.651	20.037	3.589	0.506
986.000	566.861	80.000	19.995	100.652	20.035	3.684	0.532
986.500	567.090	80.001	19.996	100.652	20.033	3.847	0.523
987.000	567.332	80.001	19.995	100.654	20.033	3.872	0.489
987.500	567.598	80.001	19.995	100.656	20.038	3.517	0.489
988.000	567.858	80.003	19.995	100.660	20.033	3.869	0.517
988.500	568.141	80.001	19.995	100.661	20.035	3.717	0.535
989.000	568.355	80.002	19.996	100.660	20.032	3.939	0.520
989.500	568.630	80.001	19.996	100.658	20.032	3.919	0.493
990.000	568.898	80.003	19.995	100.656	20.031	3.986	0.516
990.500	569.120	80.002	19.995	100.653	20.036	3.675	0.516
991.000	569.357	80.001	19.995	100.658	20.036	3.648	0.474
991.500	569.611	80.002	19.995	100.658	20.035	3.701	0.475
992.000	569.859	80.003	19.995	100.658	20.035	3.721	0.496
992.500	570.055	80.002	19.994	100.658	20.036	3.676	0.473
993.000	570.375	80.002	19.995	100.657	20.036	3.663	0.481
993.500	570.631	80.002	19.996	100.650	20.039	3.477	0.546
994.000	570.849	80.002	19.995	100.652	20.040	3.387	0.525
994.500	571.146	80.001	19.994	100.652	20.036	3.648	0.494
995.000	571.387	80.003	19.995	100.651	20.035	3.704	0.526
995.500	571.624	80.002	19.995	100.653	20.036	3.668	0.507
996.000	571.874	80.001	19.995	100.653	20.036	3.639	0.482
996.500	572.111	80.001	19.995	100.653	20.034	3.766	0.487
997.000	572.356	80.001	19.996	100.655	20.035	3.695	0.485
997.500	572.633	80.002	19.994	100.660	20.037	3.564	0.502
998.000	572.867	80.002	19.995	100.664	20.035	3.735	0.517
998.500	573.149	80.001	19.996	100.664	20.034	3.808	0.513
999.000	573.410	80.001	19.995	100.665	20.035	3.739	0.529
999.500	573.640	80.000	19.996	100.664	20.035	3.714	0.516
1000.000	573.898	79.999	19.995	100.660	20.035	3.712	0.490
1000.500	574.109	79.998	19.995	100.655	20.036	3.665	0.479
1001.000	574.374	79.999	19.995	100.655	20.033	3.822	0.473
1001.500	574.655	79.999	19.996	100.654	20.035	3.694	0.511
1002.000	574.922	79.999	19.995	100.655	20.034	3.766	0.547
1002.500	575.159	79.999	19.995	100.656	20.033	3.838	0.526
1003.000	575.423	80.000	19.994	100.655	20.031	3.977	0.503
1003.500	575.659	80.000	19.995	100.658	20.033	3.851	0.501
1004.000	575.911	79.999	19.996	100.661	20.030	4.056	0.494
1004.500	576.185	79.999	19.995	100.658	20.031	3.989	0.507
1005.000	576.449	80.000	19.995	100.657	20.031	3.971	0.532
1005.500	576.707	79.998	19.997	100.657	20.031	3.991	0.530
1006.000	576.929	79.999	19.996	100.655	20.034	3.803	0.501
1006.500	577.201	79.999	19.997	100.651	20.036	3.629	0.488
1007.000	577.467	79.999	19.996	100.653	20.036	3.668	0.516
1007.500	577.750	79.998	19.995	100.654	20.037	3.582	0.543
1008.000	577.973	79.998	19.995	100.656	20.034	3.785	0.527
1008.500	578.235	79.998	19.997	100.659	20.034	3.805	0.496
1009.000	578.492	79.997	19.995	100.664	20.033	3.822	0.502
1009.500	578.733	80.000	19.998	100.667	20.033	3.851	0.508
1010.000	578.980	79.999	19.997	100.669	20.031	3.991	0.493
1010.500	579.224	79.998	19.997	100.668	20.033	3.870	0.490
1011.000	579.482	79.998	19.996	100.669	20.037	3.547	0.497
1011.500	579.744	79.998	19.998	100.666	20.034	3.793	0.511
1012.000	579.978	79.999	19.998	100.664	20.036	3.647	0.508
1012.500	580.221	79.999	19.997	100.662	20.033	3.874	0.487
1013.000	580.465	79.998	19.996	100.661	20.035	3.714	0.482
1013.500	580.747	80.000	19.997	100.663	20.035	3.733	0.507
1014.000	580.981	79.998	19.996	100.662	20.037	3.546	0.521
1014.500	581.257	79.998	19.995	100.659	20.035	3.705	0.513
1015.000	581.486	79.998	19.995	100.659	20.030	4.042	0.507
1015.500	581.725	79.998	19.997	100.658	20.031	3.989	0.486
1016.000	581.960	80.000	19.994	100.654	20.034	3.780	0.471
1016.500	582.224	79.998	19.996	100.653	20.032	3.890	0.487
1017.000	582.499	80.001	19.996	100.654	20.037	3.610	0.519
1017.500	582.716	79.998	19.995	100.655	20.036	3.661	0.516
1018.000	582.962	80.000	19.995	100.655	20.038	3.542	0.477
1018.500	583.191	80.000	19.997	100.653	20.036	3.677	0.469
1019.001	583.459	79.999	19.995	100.654	20.035	3.730	0.486
1019.501	583.729	80.001	19.994	100.655	20.037	3.567	0.517
1020.000	583.965	80.000	19.996	100.658	20.033	3.847	0.522
1020.500	584.220	80.001	19.995	100.659	20.034	3.762	0.499
1021.000	584.468	80.000	19.993	100.660	20.031	3.971	0.497
1021.500	584.758	80.000	19.995	100.659	20.035	3.733	0.521
1022.000	585.026	80.000	19.994	100.658	20.032	3.919	0.548
1022.501	585.264	79.999	19.995	100.654	20.034	3.807	0.532
1023.001	585.508	80.000	19.994	100.655	20.036	3.648	0.494
1023.500	585.728	80.000	19.995	100.657	20.034	3.805	0.473
1024.000	586.001	80.000	19.995	100.661	20.034	3.764	0.478
1024.500	586.237	80.000	19.995	100.662	20.034	3.746	0.501
1025.000	586.510	80.002	19.996	100.662	20.036	3.670	0.509
1025.500	586.768	80.000	19.996	100.661	20.036	3.621	0.520
1026.001	587.024	80.001	19.995	100.658	20.038	3.542	0.522
1026.501	587.255	80.000	19.995	100.654	20.034	3.755	0.500
1027.000	587.504	79.999	19.995	100.654	20.036	3.632	0.484
1027.500	587.702	79.998	19.994	100.652	20.039	3.457	0.463
1028.000	587.993	80.000	19.995	100.652	20.039	3.472	0.468
1028.500	588.260	79.999	19.995	100.652	20.041	3.335	0.524
1029.001	588.501	80.001	19.995	100.657	20.039	3.454	0.533
1029.501	588.713	80.000	19.996	100.661	20.037	3.607	0.481
1030.000	588.995	80.000	19.995	100.661	20.039	3.456	0.474
1030.500	589.249	79.999	19.995	100.660	20.041	3.299	0.515
1031.000	589.500	80.000	19.995	100.660	20.038	3.544	0.521
1031.500	589.767	79.999	19.995	100.654	20.037	3.602	0.511
1032.000	590.001	80.000	19.997	100.649	20.033	3.820	0.509
1032.500	590.278	80.000	19.995	100.649	20.035	3.717	0.506
1033.000	590.502	80.001	19.996	100.649	20.040	3.344	0.506
1033.500	590.787	80.000	19.996	100.650	20.037	3.552	0.505
1034.000	591.005	79.999	19.997	100.654	20.036	3.656	0.506
1034.500	591.261	79.999	19.995	100.656	20.038	3.517	0.488
1035.000	591.494	79.999	19.997	100.656	20.036	3.643	0.481
1035.500	591.741	79.999	19.996	100.656	20.038	3.508	0.485
1036.000	591.979	79.999	19.993	100.655	20.035	3.733	0.482
1036.500	592.274	79.999	19.996	100.652	20.036	3.652	0.509
1037.000	592.516	80.000	19.997	100.651	20.036	3.640	0.535
1037.500	592.731	79.999	19.994	100.651	20.035	3.725	0.497
1038.000	593.017	80.000	19.996	100.653	20.036	3.665	0.479
1038.500	593.286	80.001	19.996	100.654	20.035	3.681	0.528
1039.000	593.508	80.000	19.996	100.657	20.034	3.770	0.522
1039.500	593.763	80.000	19.995	100.662	20.033	3.847	0.484
1040.000	594.070	80.001	19.997	100.666	20.030	4.018	0.520
1040.500	594.268	80.000	19.995	100.667	20.031	3.980	0.534
1041.000	594.567	80.000	19.996	100.665	20.036	3.667	0.501
1041.500	594.858	80.000	19.996	100.664	20.032	3.930	0.543
1042.000	595.091	80.000	19.996	100.659	20.034	3.770	0.557
1042.500	595.348	79.999	19.995	100.658	20.033	3.869	0.508
1043.000	595.609	80.002	19.995	100.659	20.033	3.815	0.504
1043.501	595.846	80.000	19.996	100.664	20.034	3.766	0.508
1044.001	596.112	80.001	19.995	100.668	20.033	3.824	0.500
1044.500	596.381	80.001	19.996	100.671	20.037	3.605	0.519
1045.000	596.639	80.001	19.996	100.671	20.034	3.762	0.531
1045.500	596.887	80.001	19.995	100.669	20.034	3.804	0.517
1046.000	597.103	80.002	19.996	100.664	20.033	3.845	0.486
1046.500	597.374	80.003	19.994	100.658	20.030	4.080	0.476
1047.000	597.700	80.002	19.995	100.659	20.033	3.878	0.542
1047.500	597.927	80.002	19.995	100.656	20.031	3.972	0.575
1048.000	598.181	80.001	19.994	100.661	20.034	3.781	0.517
1048.500	598.465	80.002	19.995	100.667	20.030	4.049	0.509
1049.000	598.698	80.001	19.995	100.671	20.033	3.826	0.528
1049.500	599.001	80.002	19.995	100.670	20.034	3.795	0.527
1050.000	599.222	80.003	19.994	100.669	20.030	4.015	0.530
1050.500	599.504	80.003	19.995	100.665	20.034	3.798	0.513
1051.000	599.777	80.003	19.994	100.660	20.032	3.945	0.529
1051.500	600.038	80.002	19.995	100.658	20.034	3.811	0.544
1052.000	600.297	80.003	19.994	100.661	20.032	3.903	0.527
1052.500	600.550	80.003	19.995	100.666	20.033	3.849	0.516
1053.000	600.843	80.002	19.994	100.669	20.030	4.040	0.529
1053.500	601.080	80.003	19.995	100.667	20.033	3.865	0.538
1054.000	601.347	80.001	19.994	100.670	20.033	3.842	0.517
1054.500	601.628	80.002	19.995	100.668	20.034	3.808	0.526
1055.000	601.926	80.002	19.995	100.664	20.033	3.815	0.563
1055.500	602.172	80.002	19.994	100.662	20.037	3.610	0.561
1056.000	602.462	80.002	19.994	100.665	20.036	3.677	0.540
1056.500	602.723	80.002	19.993	100.659	20.033	3.826	0.544
1057.000	602.991	80.002	19.996	100.661	20.035	3.707	0.540
1057.500	603.247	80.001	19.993	100.659	20.033	3.831	0.527
1058.000	603.524	80.001	19.994	100.660	20.035	3.698	0.529
1058.500	603.824	80.001	19.993	100.666	20.032	3.898	0.555
1059.000	604.084	80.001	19.995	100.669	20.036	3.635	0.568
1059.500	604.349	80.002	19.994	100.666	20.032	3.947	0.543
1060.000	604.623	80.000	19.994	100.668	20.036	3.658	0.532
1060.500	604.882	80.001	19.993	100.667	20.034	3.797	0.536
1061.000	605.174	80.001	19.993	100.665	20.034	3.762	0.542
1061.500	605.417	80.001	19.994	100.666	20.035	3.696	0.542
1062.000	605.707	80.002	19.994	100.669	20.034	3.750	0.534
1062.500	605.971	80.001	19.994	100.669	20.037	3.553	0.544
1063.000	606.230	80.002	19.995	100.669	20.036	3.642	0.538
1063.500	606.496	80.001	19.995	100.666	20.035	3.716	0.524
1064.000	606.783	80.001	19.995	100.666	20.036	3.620	0.539
1064.500	607.088	80.001	19.995	100.665	20.034	3.804	0.573
1065.000	607.330	80.000	19.994	100.670	20.033	3.873	0.570
1065.500	607.590	80.001	19.993	100.676	20.035	3.742	0.525
1066.000	607.886	80.001	19.994	100.681	20.034	3.759	0.529
1066.500	608.147	80.002	19.995	100.683	20.033	3.861	0.557
1067.000	608.412	80.002	19.995	100.685	20.038	3.486	0.542
1067.500	608.735	80.001	19.995	100.682	20.035	3.681	0.557
1068.000	609.012	79.999	19.996	100.676	20.034	3.791	0.594
1068.500	609.271	80.001	19.994	100.675	20.034	3.794	0.568
1069.000	609.572	80.002	19.995	100.673	20.029	4.116	0.548
1069.500	609.842	80.001	19.995	100.671	20.034	3.795	0.565
1070.000	610.099	80.002	19.995	100.673	20.034	3.777	0.549
1070.500	610.379	80.002	19.994	100.673	20.035	3.687	0.532
1071.000	610.622	80.002	19.996	100.671	20.033	3.822	0.530
1071.500	610.889	80.000	19.995	100.670	20.036	3.667	0.517
1072.001	611.235	80.002	19.996	100.668	20.034	3.791	0.562
1072.501	611.466	80.001	19.994	100.667	20.033	3.818	0.595
1073.000	611.747	80.002	19.995	100.668	20.031	3.997	0.545
1073.500	612.021	80.002	19.994	100.667	20.030	4.040	0.533
1074.000	612.275	80.003	19.995	100.671	20.036	3.620	0.542
1074.501	612.584	80.003	19.995	100.672	20.032	3.926	0.546
1075.001	612.833	80.002	19.995	100.672	20.032	3.892	0.561
1075.501	613.133	80.001	19.995	100.670	20.035	3.744	0.554
1076.001	613.395	80.002	19.996	100.669	20.035	3.740	0.555
1076.501	613.683	80.002	19.995	100.663	20.035	3.697	0.555
1077.000	613.941	80.003	19.994	100.661	20.037	3.566	0.548
1077.500	614.217	80.002	19.994	100.657	20.039	3.472	0.540
1078.000	614.519	80.003	19.995	100.657	20.039	3.420	0.556
1078.500	614.797	80.001	19.996	100.656	20.041	3.331	0.579
1079.000	615.052	80.003	19.996	100.655	20.037	3.605	0.557
1079.500	615.313	80.002	19.996	100.655	20.038	3.540	0.524
1080.000	615.607	80.001	19.996	100.656	20.035	3.688	0.535
1080.500	615.919	80.001	19.994	100.658	20.035	3.685	0.580
1081.000	616.154	80.001	19.994	100.661	20.037	3.569	0.577
1081.500	616.455	80.001	19.996	100.664	20.037	3.553	0.542
1082.000	616.731	80.002	19.993	100.669	20.034	3.809	0.556
1082.500	616.982	80.002	19.996	100.672	20.037	3.602	0.552
1083.001	617.223	80.002	19.994	100.670	20.034	3.771	0.510
1083.501	617.529	80.002	19.996	100.667	20.036	3.634	0.520
1084.000	617.772	80.000	19.995	100.665	20.033	3.823	0.548
1084.500	618.071	80.000	19.994	100.659	20.036	3.647	0.545
1085.000	618.360	80.000	19.994	100.655	20.032	3.919	0.565
1085.500	618.643	80.000	19.995	100.654	20.033	3.858	0.581
1086.000	618.930	79.999	19.995	100.653	20.034	3.777	0.572
1086.500	619.182	80.000	19.995	100.653	20.031	3.993	0.555
1087.000	619.443	80.000	19.994	100.657	20.032	3.910	0.526
1087.500	619.727	80.000	19.995	100.664	20.034	3.779	0.529
1088.000	619.973	80.002	19.994	100.667	20.034	3.809	0.537
1088.500	620.250	80.000	19.996	100.668	20.032	3.923	0.527
1089.000	620.512	80.000	19.995	100.668	20.032	3.894	0.531
1089.500	620.787	80.001	19.994	100.663	20.033	3.858	0.538
1090.000	621.074	79.999	19.995	100.657	20.034	3.811	0.549
1090.500	621.373	79.999	19.994	100.658	20.032	3.881	0.574
1091.000	621.621	79.999	19.994	100.658	20.036	3.670	0.567
1091.500	621.928	80.000	19.995	100.660	20.033	3.851	0.550
1092.000	622.196	80.000	19.996	100.666	20.035	3.715	0.565
1092.500	622.450	79.999	19.995	100.667	20.034	3.748	0.548
1093.000	622.751	80.000	19.995	100.663	20.034	3.811	0.539
1093.500	622.981	80.001	19.996	100.661	20.036	3.618	0.543
1094.000	623.231	80.000	19.995	100.660	20.034	3.764	0.506
1094.501	623.543	79.999	19.996	100.656	20.034	3.771	0.521
1095.001	623.800	80.001	19.995	100.659	20.032	3.892	0.566
1095.500	624.013	80.000	19.996	100.662	20.032	3.912	0.520
1096.000	624.334	80.000	19.996	100.662	20.033	3.862	0.502
1096.500	624.573	80.000	19.995	100.663	20.031	3.964	0.547
1097.000	624.859	79.999	19.996	100.664	20.032	3.944	0.542
1097.500	625.149	79.999	19.994	100.663	20.031	3.973	0.550
1098.000	625.398	80.000	19.996	100.663	20.032	3.910	0.557
1098.500	625.681	79.998	19.995	100.666	20.032	3.947	0.535
1099.000	625.945	79.999	19.996	100.666	20.031	3.977	0.540
1099.500	626.223	80.000	19.996	100.663	20.030	4.017	0.545
1100.000	626.443	79.999	19.997	100.661	20.033	3.856	0.520
1100.501	626.722	80.000	19.997	100.663	20.032	3.905	0.499
1101.001	626.975	80.001	19.996	100.662	20.032	3.944	0.515
1101.500	627.287	79.998	19.998	100.662	20.032	3.906	0.548
1102.000	627.536	79.999	19.997	100.665	20.033	3.822	0.563
1102.500	627.783	80.000	19.997	100.667	20.031	4.005	0.528
1103.000	628.079	80.000	19.995	100.665	20.032	3.885	0.520
1103.500	628.344	80.000	19.997	100.663	20.034	3.803	0.552
1104.000	628.631	79.999	19.997	100.663	20.030	4.036	0.557
1104.500	628.888	80.000	19.996	100.660	20.032	3.939	0.548
1105.000	629.162	79.999	19.996	100.659	20.029	4.121	0.537
1105.500	629.448	79.999	19.996	100.659	20.032	3.937	0.545
1106.000	629.665	80.000	19.995	100.661	20.032	3.940	0.532
1106.500	629.941	79.998	19.996	100.663	20.034	3.805	0.498
1107.000	630.236	80.000	19.996	100.663	20.030	4.016	0.532
1107.500	630.497	79.999	19.996	100.661	20.029	4.117	0.563
1108.000	630.762	80.001	19.996	100.660	20.033	3.856	0.541
1108.500	631.060	80.001	19.997	100.663	20.033	3.861	0.544
1109.000	631.297	80.001	19.996	100.664	20.036	3.675	0.549
1109.500	631.537	80.000	19.995	100.671	20.032	3.897	0.506
1110.000	631.807	80.001	19.995	100.673	20.032	3.931	0.494
1110.500	632.063	80.000	19.995	100.675	20.034	3.775	0.518
1111.000	632.366	80.000	19.996	100.672	20.037	3.605	0.542
1111.501	632.619	80.000	19.995	100.667	20.033	3.821	0.557
1112.001	632.879	80.000	19.995	100.659	20.034	3.751	0.535
1112.500	633.135	79.998	19.996	100.655	20.036	3.634	0.515
1113.000	633.400	79.999	19.996	100.655	20.033	3.849	0.519
1113.501	633.707	79.999	19.995	100.652	20.035	3.704	0.546
1114.001	633.949	80.000	19.995	100.653	20.036	3.650	0.560
1114.500	634.220	80.000	19.994	100.653	20.033	3.829	0.531
1115.000	634.504	80.000	19.995	100.654	20.036	3.625	0.534
1115.500	634.756	80.000	19.996	100.651	20.034	3.807	0.546
1116.000	635.024	79.999	19.994	100.651	20.035	3.701	0.528
1116.501	635.291	80.002	19.995	100.651	20.033	3.838	0.528
1117.001	635.588	80.001	19.994	100.651	20.033	3.867	0.549
1117.500	635.782	80.001	19.995	100.650	20.032	3.892	0.527
1118.000	636.061	80.000	19.995	100.650	20.030	4.060	0.483
1118.500	636.359	80.001	19.995	100.650	20.029	4.112	0.525
1119.000	636.585	80.001	19.995	100.649	20.029	4.141	0.550
1119.500	636.880	79.999	19.995	100.650	20.031	3.966	0.522
1120.000	637.133	80.000	19.994	100.650	20.030	4.018	0.535
1120.500	637.370	80.001	19.994	100.651	20.028	4.199	0.519
1121.000	637.643	79.999	19.994	100.651	20.029	4.098	0.499
1121.500	637.898	80.001	19.993	100.652	20.026	4.287	0.519
1122.000	638.179	80.000	19.995	100.651	20.033	3.856	0.532
1122.500	638.457	80.001	19.994	100.652	20.030	4.076	0.548
1123.000	638.738	79.999	19.995	100.651	20.029	4.128	0.559
1123.500	639.008	80.000	19.994	100.653	20.032	3.933	0.555
1124.000	639.259	80.000	19.995	100.655	20.029	4.099	0.535
1124.500	639.534	80.001	19.994	100.656	20.028	4.190	0.523
1125.000	639.777	80.000	19.995	100.657	20.024	4.467	0.522
1125.500	640.020	80.000	19.995	100.659	20.026	4.336	0.502
1126.000	640.329	80.000	19.994	100.663	20.026	4.319	0.519
1126.500	640.562	79.999	19.995	100.664	20.028	4.204	0.547
1127.000	640.791	80.000	19.996	100.664	20.025	4.373	0.503
1127.500	641.075	80.001	19.996	100.663	20.028	4.191	0.488
1128.000	641.303	80.001	19.995	100.662	20.028	4.162	0.512
1128.500	641.586	80.001	19.994	100.657	20.028	4.188	0.511
1129.000	641.860	80.000	19.995	100.653	20.027	4.280	0.534
1129.500	642.099	80.000	19.995	100.653	20.026	4.335	0.536
1130.000	642.389	80.001	19.995	100.653	20.026	4.299	0.521
1130.500	642.630	80.000	19.995	100.657	20.026	4.310	0.529
1131.001	642.877	80.000	19.994	100.658	20.026	4.326	0.509
1131.501	643.116	80.002	19.996	100.660	20.023	4.514	0.487
1132.000	643.350	80.002	19.994	100.659	20.024	4.445	0.480
1132.500	643.622	80.002	19.995	100.660	20.026	4.344	0.489
1133.000	643.897	80.001	19.995	100.658	20.024	4.440	0.526
1133.500	644.158	80.002	19.995	100.658	20.028	4.150	0.542
1134.001	644.412	80.001	19.995	100.657	20.026	4.299	0.526
1134.501	644.662	80.001	19.995	100.658	20.028	4.195	0.510
1135.000	644.923	80.000	19.995	100.658	20.027	4.260	0.508
1135.500	645.179	80.002	19.995	100.658	20.027	4.254	0.514
1136.001	645.453	80.001	19.995	100.657	20.024	4.438	0.523
1136.501	645.679	80.002	19.993	100.657	20.025	4.400	0.515
1137.000	645.939	80.001	19.995	100.656	20.025	4.366	0.494
1137.501	646.186	80.001	19.994	100.656	20.026	4.301	0.497
1138.001	646.477	80.001	19.994	100.654	20.026	4.334	0.522
1138.500	646.721	80.002	19.995	100.652	20.026	4.327	0.536
1139.000	646.915	80.000	19.994	100.651	20.028	4.200	0.486
1139.500	647.178	80.000	19.995	100.652	20.026	4.303	0.448
1140.000	647.441	80.000	19.995	100.653	20.027	4.218	0.492
1140.500	647.681	80.001	19.995	100.654	20.030	4.061	0.515
1141.000	647.942	80.000	19.995	100.654	20.031	3.986	0.502
1141.500	648.234	80.001	19.994	100.655	20.028	4.152	0.527
1142.001	648.497	80.001	19.995	100.654	20.027	4.238	0.554
1142.501	648.739	80.001	19.995	100.655	20.028	4.211	0.530
1143.000	648.987	80.000	19.995	100.654	20.027	4.233	0.497
1143.500	649.263	80.001	19.995	100.654	20.027	4.242	0.507
1144.000	649.483	79.999	19.994	100.653	20.028	4.211	0.510
1144.500	649.732	79.999	19.994	100.654	20.025	4.377	0.482
1145.000	650.000	80.000	19.995	100.653	20.032	3.921	0.493
1145.500	650.249	80.000	19.995	100.654	20.030	4.027	0.517
1146.000	650.514	80.001	19.994	100.654	20.029	4.132	0.516
1146.500	650.795	80.002	19.994	100.654	20.027	4.240	0.530
1147.000	651.008	79.999	19.993	100.654	20.026	4.343	0.520
1147.500	651.271	80.001	19.994	100.655	20.026	4.300	0.485
1148.000	651.553	80.001	19.994	100.655	20.025	4.401	0.511
1148.500	651.824	80.000	19.994	100.655	20.026	4.296	0.549
1149.000	652.068	80.002	19.994	100.655	20.029	4.117	0.534
1149.500	652.311	79.999	19.994	100.657	20.028	4.191	0.501
1150.000	652.566	80.001	19.994	100.658	20.025	4.388	0.493
1150.500	652.865	80.002	19.993	100.658	20.028	4.170	0.526
1151.000	653.057	80.001	19.995	100.658	20.029	4.101	0.522
1151.500	653.323	80.003	19.995	100.657	20.033	3.836	0.474
1152.000	653.595	80.001	19.995	100.655	20.029	4.090	0.498
1152.500	653.851	80.003	19.995	100.655	20.030	4.027	0.533
1153.000	654.098	80.002	19.994	100.656	20.029	4.143	0.516
1153.500	654.350	80.003	19.993	100.655	20.027	4.249	0.501
1154.000	654.625	80.002	19.994	100.655	20.027	4.270	0.513
1154.500	654.917	80.002	19.995	100.654	20.028	4.175	0.547
1155.000	655.188	80.003	19.994	100.652	20.027	4.231	0.565
1155.500	655.396	80.004	19.995	100.651	20.030	4.072	0.521
1156.000	655.658	80.004	19.993	100.650	20.027	4.227	0.474
1156.500	655.921	80.003	19.995	100.650	20.029	4.106	0.498
1157.000	656.166	80.003	19.995	100.650	20.024	4.481	0.517
1157.500	656.423	80.002	19.994	100.654	20.031	4.011	0.505
1158.000	656.671	80.003	19.993	100.655	20.028	4.164	0.504
1158.500	656.932	80.003	19.994	100.658	20.032	3.893	0.507
1159.001	657.179	80.003	19.995	100.660	20.034	3.805	0.509
1159.501	657.441	80.002	19.995	100.660	20.030	4.039	0.509
1160.000	657.691	80.003	19.995	100.656	20.029	4.112	0.510
1160.500	657.923	80.002	19.996	100.655	20.026	4.342	0.497
1161.000	658.167	80.003	19.995	100.653	20.030	4.021	0.479
1161.500	658.429	80.002	19.994	100.654	20.028	4.207	0.491
1162.000	658.681	80.003	19.995	100.657	20.025	4.370	0.510
1162.500	658.938	80.003	19.996	100.657	20.027	4.251	0.511
1163.000	659.224	80.003	19.995	100.658	20.030	4.031	0.526
1163.500	659.445	80.002	19.996	100.656	20.026	4.283	0.525
1164.000	659.680	80.001	19.995	100.654	20.027	4.262	0.481
1164.500	659.950	80.001	19.996	100.651	20.024	4.433	0.481
1165.000	660.208	80.000	19.997	100.650	20.026	4.299	0.517
1165.500	660.481	80.000	19.994	100.650	20.029	4.114	0.530
1166.000	660.751	80.001	19.995	100.650	20.027	4.260	0.537
1166.500	660.982	80.001	19.996	100.649	20.025	4.364	0.522
1167.000	661.210	80.000	19.994	100.650	20.027	4.243	0.480
1167.500	661.495	80.000	19.997	100.650	20.025	4.404	0.486
1168.000	661.731	80.002	19.996	100.650	20.030	4.054	0.517
1168.500	661.972	80.000	19.996	100.649	20.029	4.128	0.499
1169.000	662.208	80.001	19.997	100.649	20.027	4.252	0.477
1169.500	662.483	80.001	19.996	100.649	20.026	4.301	0.494
1170.001	662.705	80.000	19.996	100.649	20.029	4.110	0.504
1170.501	662.959	80.000	19.996	100.648	20.031	3.994	0.487
1171.000	663.202	80.000	19.994	100.649	20.028	4.205	0.486
1171.500	663.476	80.000	19.996	100.649	20.031	3.980	0.507
1172.000	663.703	80.002	19.995	100.649	20.025	4.389	0.509
1172.500	663.991	80.000	19.995	100.649	20.028	4.178	0.508
1173.000	664.269	79.999	19.995	100.650	20.026	4.325	0.540
1173.500	664.518	80.000	19.995	100.652	20.027	4.214	0.546
1174.000	664.748	80.000	19.995	100.656	20.027	4.276	0.503
1174.500	665.004	80.000	19.994	100.657	20.030	4.059	0.483
1175.000	665.215	79.999	19.995	100.656	20.028	4.175	0.477
1175.500	665.497	80.001	19.995	100.656	20.031	3.996	0.480
1176.000	665.715	79.999	19.994	100.653	20.027	4.249	0.496
1176.500	665.986	80.001	19.996	100.651	20.027	4.247	0.494
1177.000	666.273	80.000	19.995	100.649	20.028	4.184	0.523
1177.500	666.468	79.999	19.995	100.649	20.027	4.216	0.520
1178.000	666.718	80.000	19.996	100.649	20.031	3.989	0.463
1178.501	666.972	79.999	19.994	100.649	20.030	4.077	0.475
1179.001	667.246	80.001	19.996	100.650	20.028	4.180	0.516
1179.501	667.484	80.000	19.996	100.650	20.029	4.105	0.520
1180.001	667.697	80.001	19.995	100.650	20.027	4.251	0.482
1180.500	667.955	80.001	19.995	100.650	20.026	4.337	0.461
1181.000	668.253	80.000	19.995	100.650	20.031	3.973	0.513
1181.500	668.460	80.001	19.996	100.649	20.027	4.231	0.530
1182.000	668.747	80.002	19.995	100.650	20.027	4.244	0.500
1182.500	668.979	80.000	19.995	100.650	20.027	4.265	0.507
1183.000	669.233	80.001	19.996	100.651	20.026	4.327	0.502
1183.500	669.494	80.001	19.994	100.651	20.026	4.325	0.500
1184.000	669.769	80.001	19.995	100.651	20.027	4.267	0.526
1184.500	669.975	80.000	19.995	100.651	20.024	4.437	0.508
1185.000	670.260	80.000	19.995	100.651	20.027	4.253	0.485
1185.500	670.502	80.000	19.996	100.653	20.026	4.298	0.509
1186.000	670.707	80.003	19.995	100.653	20.025	4.375	0.487
1186.500	670.975	80.001	19.995	100.653	20.028	4.213	0.460
1187.000	671.252	80.000	19.995	100.654	20.028	4.150	0.509
1187.500	671.516	80.002	19.995	100.655	20.027	4.242	0.543
1188.000	671.764	80.001	19.996	100.654	20.024	4.447	0.527
1188.500	671.975	80.003	19.995	100.653	20.026	4.294	0.486
1189.000	672.267	80.001	19.996	100.653	20.025	4.384	0.481
1189.500	672.493	80.000	19.995	100.651	20.027	4.263	0.510
1190.000	672.744	80.001	19.994	100.651	20.027	4.229	0.497
1190.500	672.988	80.001	19.995	100.652	20.024	4.442	0.486
1191.000	673.272	80.002	19.996	100.655	20.025	4.407	0.512
1191.500	673.504	80.001	19.995	100.655	20.031	3.989	0.523
1192.000	673.786	80.001	19.996	100.656	20.024	4.442	0.515
1192.500	674.019	80.001	19.996	100.656	20.028	4.148	0.514
1193.000	674.291	79.999	19.996	100.657	20.027	4.247	0.510
1193.500	674.531	80.001	19.997	100.657	20.024	4.471	0.508
1194.000	674.785	79.999	19.996	100.663	20.026	4.344	0.503
1194.500	675.026	80.000	19.996	100.664	20.026	4.285	0.495
1195.000	675.299	79.999	19.996	100.664	20.027	4.252	0.505
1195.500	675.550	80.000	19.996	100.663	20.024	4.445	0.519
1196.000	675.761	79.999	19.995	100.661	20.025	4.391	0.493
1196.500	676.005	80.000	19.997	100.655	20.026	4.339	0.458
1197.000	676.274	80.000	19.996	100.653	20.021	4.646	0.484
1197.500	676.555	80.000	19.996	100.652	20.024	4.420	0.532
1198.000	676.792	79.999	19.996	100.651	20.024	4.451	0.534
1198.501	677.042	79.998	19.996	100.650	20.026	4.332	0.502
1199.001	677.297	79.999	19.996	100.649	20.024	4.472	0.496
1199.500	677.513	80.000	19.996	100.648	20.027	4.215	0.488
1200.000	677.753	79.998	19.997	100.649	20.027	4.263	0.464
1200.500	678.080	80.000	19.996	100.648	20.027	4.280	0.512
1201.000	678.305	79.999	19.997	100.649	20.029	4.117	0.560
1201.500	678.553	79.997	19.997	100.649	20.031	4.000	0.512
1202.000	678.801	79.997	19.996	100.650	20.029	4.108	0.485
1202.500	679.092	80.000	19.995	100.650	20.027	4.242	0.518
1203.000	679.320	79.998	19.996	100.650	20.028	4.166	0.529
1203.500	679.592	79.999	19.995	100.650	20.029	4.119	0.509
1204.000	679.840	79.999	19.996	100.650	20.030	4.056	0.510
1204.500	680.075	79.998	19.995	100.650	20.030	4.058	0.502
1205.001	680.323	79.999	19.995	100.650	20.026	4.299	0.483
1205.501	680.593	79.999	19.995	100.650	20.025	4.393	0.500
1206.001	680.825	79.999	19.994	100.652	20.027	4.249	0.510
1206.501	681.130	80.000	19.995	100.653	20.028	4.179	0.520
1207.000	681.357	80.000	19.994	100.654	20.029	4.130	0.534
1207.500	681.580	80.000	19.994	100.655	20.025	4.404	0.491
1208.000	681.854	80.000	19.995	100.655	20.029	4.088	0.474
1208.500	682.121	79.999	19.996	100.655	20.024	4.454	0.519
1209.000	682.370	80.000	19.994	100.655	20.026	4.339	0.528
1209.500	682.574	80.000	19.994	100.654	20.026	4.339	0.485
1210.000	682.817	79.999	19.995	100.653	20.024	4.467	0.450
1210.500	683.132	80.001	19.995	100.653	20.026	4.290	0.502
1211.001	683.367	80.000	19.995	100.653	20.027	4.249	0.554
1211.501	683.610	80.001	19.995	100.653	20.024	4.416	0.514
1212.000	683.886	80.001	19.994	100.654	20.023	4.485	0.498
1212.500	684.133	80.001	19.994	100.654	20.026	4.328	0.521
1213.000	684.359	80.001	19.993	100.653	20.025	4.353	0.498
1213.500	684.645	80.001	19.995	100.654	20.026	4.323	0.493
1214.000	684.920	80.002	19.994	100.653	20.028	4.193	0.537
1214.500	685.142	80.001	19.995	100.653	20.025	4.359	0.529
1215.001	685.415	80.002	19.995	100.653	20.025	4.364	0.496
1215.501	685.644	80.002	19.995	100.653	20.028	4.149	0.498
1216.000	685.953	80.002	19.995	100.652	20.028	4.213	0.520
1216.500	686.174	80.003	19.995	100.652	20.026	4.333	0.534
1217.000	686.439	80.003	19.995	100.652	20.025	4.359	0.508
1217.500	686.717	80.004	19.993	100.652	20.027	4.276	0.515
1218.000	686.965	80.002	19.997	100.652	20.027	4.263	0.534
1218.500	687.248	80.001	19.996	100.652	20.025	4.404	0.528
1219.000	687.442	80.002	19.996	100.652	20.026	4.330	0.504
1219.500	687.715	80.002	19.994	100.651	20.027	4.241	0.472
1220.000	687.967	80.002	19.993	100.651	20.024	4.422	0.496
1220.500	688.234	80.002	19.995	100.652	20.026	4.297	0.522
1221.000	688.468	80.001	19.995	100.652	20.027	4.250	0.510
1221.500	688.719	80.001	19.995	100.651	20.031	3.993	0.493
1222.000	688.988	80.002	19.994	100.650	20.025	4.348	0.503
1222.500	689.222	80.003	19.994	100.650	20.027	4.231	0.512
1223.000	689.458	80.001	19.995	100.649	20.025	4.404	0.486
1223.500	689.713	80.002	19.997	100.649	20.025	4.352	0.480
1224.000	689.970	80.002	19.995	100.648	20.024	4.476	0.502
1224.500	690.283	80.001	19.994	100.646	20.024	4.445	0.541
1225.001	690.530	80.002	19.995	100.645	20.020	4.691	0.565
1225.501	690.769	80.003	19.995	100.646	20.022	4.577	0.523
1226.000	691.035	80.002	19.995	100.645	20.022	4.557	0.496
1226.500	691.264	80.001	19.996	100.646	20.025	4.398	0.500
1227.000	691.484	80.002	19.996	100.648	20.020	4.689	0.472
1227.500	691.766	80.002	19.995	100.648	20.021	4.626	0.475
1228.000	691.996	80.001	19.993	100.648	20.019	4.755	0.507
1228.500	692.297	80.002	19.995	100.648	20.022	4.584	0.521
1229.000	692.530	80.001	19.994	100.646	20.023	4.541	0.532
1229.500	692.818	80.002	19.995	100.646	20.017	4.889	0.527
1230.000	693.045	80.001	19.995	100.646	20.020	4.732	0.519
1230.500	693.331	80.001	19.995	100.646	20.022	4.553	0.515
1231.001	693.575	80.002	19.995	100.646	20.020	4.696	0.522
1231.501	693.790	80.002	19.995	100.648	20.015	5.082	0.494
1232.000	694.078	80.001	19.995	100.648	20.019	4.802	0.481
1232.500	694.293	80.002	19.994	100.649	20.019	4.815	0.503
1233.000	694.581	80.003	19.994	100.648	20.022	4.580	0.503
1233.500	694.842	80.001	19.996	100.649	20.020	4.716	0.526
1234.000	695.096	80.002	19.995	100.653	20.024	4.470	0.532
1234.500	695.355	80.002	19.994	100.652	20.025	4.387	0.514
1235.000	695.596	80.004	19.995	100.652	20.023	4.539	0.507
1235.500	695.848	80.003	19.995	100.651	20.024	4.454	0.497
1236.000	696.130	80.003	19.995	100.650	20.022	4.555	0.514
1236.500	696.343	80.003	19.995	100.646	20.026	4.330	0.514
1237.001	696.601	80.004	19.994	100.646	20.026	4.337	0.483
1237.501	696.826	80.003	19.995	100.646	20.026	4.283	0.477
1238.001	697.097	80.004	19.994	100.647	20.027	4.270	0.490
1238.500	697.345	80.003	19.994	100.648	20.022	4.577	0.508
1239.000	697.619	80.002	19.995	100.649	20.025	4.411	0.520
1239.500	697.832	80.004	19.995	100.649	20.029	4.083	0.504
1240.000	698.116	80.004	19.995	100.648	20.026	4.308	0.492
1240.500	698.369	80.005	19.995	100.649	20.031	3.969	0.517
1241.000	698.616	80.005	19.994	100.649	20.029	4.094	0.519
1241.500	698.824	80.004	19.994	100.648	20.029	4.115	0.477
1242.000	699.068	80.004	19.994	100.648	20.029	4.128	0.454
1242.500	699.322	80.003	19.994	100.648	20.029	4.126	0.475
1243.000	699.564	80.004	19.995	100.648	20.030	4.077	0.497
1243.500	699.809	80.004	19.994	100.647	20.030	4.014	0.491
1244.000	700.051	80.004	19.994	100.647	20.026	4.335	0.487
1244.500	700.325	80.004	19.994	100.647	20.027	4.276	0.502
1245.000	700.608	80.005	19.994	100.647	20.027	4.249	0.537
1245.501	700.814	80.004	19.994	100.646	20.028	4.157	0.522
1246.001	701.042	80.003	19.994	100.647	20.025	4.350	0.462
1246.500	701.314	80.004	19.994	100.646	20.023	4.496	0.467
1247.000	701.584	80.003	19.995	100.646	20.025	4.373	0.521
1247.500	701.821	80.003	19.994	100.647	20.024	4.431	0.525
1248.000	702.085	80.002	19.995	100.648	20.026	4.283	0.505
1248.500	702.369	80.002	19.994	100.649	20.022	4.564	0.524
1249.001	702.610	80.002	19.994	100.650	20.023	4.487	0.536
1249.501	702.873	80.002	19.994	100.650	20.023	4.539	0.514
1250.000	703.108	80.002	19.994	100.650	20.021	4.622	0.501
1250.500	703.353	80.000	19.994	100.649	20.022	4.593	0.489
1251.000	703.668	80.001	19.995	100.649	20.024	4.444	0.520
1251.500	703.884	80.002	19.994	100.649	20.023	4.494	0.545
1252.000	704.155	80.002	19.995	100.649	20.022	4.609	0.509
1252.500	704.396	80.001	19.995	100.649	20.022	4.554	0.499
1253.000	704.670	80.002	19.996	100.650	20.027	4.270	0.513
1253.500	704.898	80.000	19.995	100.650	20.019	4.754	0.509
1254.000	705.166	80.001	19.994	100.650	20.025	4.404	0.499
1254.500	705.456	80.001	19.996	100.650	20.025	4.386	0.527
1255.000	705.682	80.002	19.994	100.652	20.025	4.411	0.537
1255.500	705.923	80.001	19.996	100.651	20.026	4.290	0.492
1256.000	706.178	80.001	19.995	100.649	20.023	4.523	0.482
1256.500	706.423	80.001	19.994	100.649	20.025	4.413	0.498
1257.000	706.666	80.001	19.995	100.649	20.025	4.382	0.494
1257.500	706.939	80.000	19.996	100.649	20.024	4.447	0.502
1258.000	707.150	80.001	19.995	100.650	20.024	4.451	0.500
1258.500	707.407	80.000	19.994	100.652	20.021	4.625	0.476
1259.000	707.674	80.000	19.995	100.652	20.023	4.535	0.496
1259.500	707.921	80.000	19.995	100.652	20.022	4.598	0.519
1260.000	708.147	80.001	19.995	100.653	20.021	4.638	0.494
1260.500	708.400	80.001	19.994	100.653	20.024	4.474	0.476
1261.000	708.646	80.000	19.994	100.653	20.022	4.586	0.489
1261.500	708.865	80.000	19.994	100.653	20.024	4.478	0.482
1262.000	709.126	80.001	19.995	100.653	20.024	4.462	0.472
1262.500	709.410	80.000	19.995	100.652	20.023	4.539	0.513
1263.000	709.623	80.001	19.996	100.652	20.022	4.573	0.521
1263.500	709.880	80.001	19.995	100.652	20.023	4.543	0.483
1264.000	710.100	80.000	19.995	100.652	20.022	4.595	0.474
1264.500	710.339	80.000	19.995	100.652	20.025	4.386	0.469
1265.000	710.605	80.001	19.995	100.651	20.027	4.247	0.482
1265.500	710.829	80.001	19.995	100.651	20.022	4.565	0.497
1266.000	711.117	80.001	19.996	100.651	20.025	4.364	0.501
1266.500	711.337	80.000	19.995	100.651	20.025	4.395	0.510
1267.000	711.596	80.000	19.996	100.651	20.022	4.564	0.494
1267.500	711.842	79.999	19.994	100.652	20.024	4.454	0.492
1268.000	712.080	80.001	19.995	100.652	20.021	4.635	0.495
1268.500	712.356	80.000	19.995	100.648	20.021	4.669	0.499
1269.000	712.589	80.001	19.996	100.646	20.023	4.538	0.511
1269.500	712.852	80.001	19.994	100.646	20.025	4.356	0.503
1270.000	713.104	79.999	19.994	100.644	20.021	4.666	0.506
1270.500	713.324	80.001	19.995	100.644	20.026	4.323	0.493
1271.001	713.579	80.000	19.996	100.648	20.023	4.505	0.473
1271.501	713.856	80.000	19.994	100.648	20.022	4.559	0.504
1272.001	714.084	80.001	19.994	100.648	20.024	4.444	0.519
1272.500	714.305	79.999	19.995	100.649	20.020	4.725	0.477
1273.000	714.553	80.000	19.994	100.650	20.022	4.582	0.459
1273.500	714.806	79.999	19.995	100.650	20.018	4.847	0.485
1274.001	715.062	80.001	19.994	100.650	20.022	4.582	0.505
1274.502	715.317	80.001	19.995	100.650	20.022	4.579	0.510
1275.001	715.593	80.000	19.995	100.651	20.020	4.683	0.521
1275.500	715.836	80.000	19.995	100.651	20.024	4.447	0.525
1276.000	716.080	80.001	19.995	100.654	20.024	4.471	0.503
1276.500	716.316	80.001	19.995	100.655	20.026	4.346	0.484
1277.000	716.582	80.000	19.994	100.655	20.023	4.489	0.491
1277.500	716.848	80.000	19.994	100.654	20.026	4.296	0.517
1278.000	717.099	80.000	19.995	100.652	20.020	4.692	0.524
1278.501	717.332	79.999	19.996	100.650	20.021	4.642	0.501
1279.002	717.587	80.000	19.995	100.651	20.023	4.517	0.486
1279.501	717.826	79.999	19.995	100.653	20.026	4.344	0.491
1280.000	718.080	80.001	19.995	100.659	20.020	4.716	0.493
1280.500	718.306	80.001	19.996	100.663	20.021	4.678	0.487
1281.000	718.540	80.000	19.996	100.663	20.024	4.449	0.470
1281.500	718.799	80.001	19.995	100.662	20.018	4.864	0.476
1282.000	719.071	80.001	19.995	100.659	20.020	4.737	0.512
1282.500	719.282	80.000	19.996	100.654	20.023	4.483	0.507
1283.000	719.575	79.999	19.995	100.651	20.023	4.505	0.494
1283.500	719.824	80.000	19.996	100.651	20.023	4.505	0.523
1284.000	720.073	80.001	19.996	100.650	20.022	4.570	0.520
1284.500	720.349	80.001	19.997	100.650	20.021	4.640	0.512
1285.000	720.581	80.000	19.997	100.650	20.018	4.831	0.517
1285.500	720.837	80.000	19.996	100.650	20.019	4.799	0.498
1286.000	721.077	79.998	19.996	100.649	20.020	4.728	0.492
1286.500	721.344	80.000	19.995	100.649	20.021	4.680	0.501
1287.000	721.571	79.999	19.996	100.649	20.023	4.523	0.501
1287.500	721.800	80.000	19.996	100.649	20.024	4.476	0.475
1288.000	722.109	79.999	19.997	100.649	20.027	4.225	0.496
1288.500	722.292	80.000	19.996	100.649	20.024	4.474	0.515
1289.000	722.584	80.000	19.996	100.649	20.020	4.683	0.484
1289.500	722.825	79.999	19.996	100.648	20.024	4.463	0.504
1290.001	723.108	80.002	19.997	100.648	20.022	4.568	0.528
1290.501	723.360	80.002	19.996	100.648	20.024	4.479	0.529
1291.000	723.623	80.001	19.996	100.648	20.021	4.665	0.525
1291.500	723.903	80.001	19.997	100.647	20.021	4.649	0.529
1292.001	724.116	80.001	19.997	100.647	20.022	4.566	0.518
1292.501	724.351	80.000	19.997	100.647	20.022	4.550	0.471
1293.000	724.603	80.001	19.996	100.647	20.026	4.324	0.467
1293.500	724.883	80.002	19.997	100.647	20.024	4.431	0.509
1294.000	725.101	80.001	19.997	100.648	20.020	4.732	0.516
1294.500	725.348	80.001	19.996	100.648	20.022	4.582	0.482
1295.000	725.621	80.002	19.995	100.648	20.021	4.651	0.492
1295.500	725.883	80.002	19.996	100.647	20.021	4.633	0.527
1296.000	726.122	80.003	19.995	100.646	20.023	4.501	0.518
1296.501	726.383	80.002	19.996	100.645	20.022	4.573	0.500
1297.001	726.629	80.001	19.995	100.645	20.024	4.436	0.503
1297.500	726.898	80.003	19.996	100.645	20.023	4.494	0.511
1298.000	727.108	80.003	19.996	100.645	20.023	4.487	0.498
1298.500	727.398	80.003	19.995	100.646	20.021	4.640	0.490
1299.000	727.623	80.003	19.995	100.648	20.022	4.613	0.507
1299.500	727.881	80.002	19.995	100.647	20.021	4.674	0.499
1300.000	728.132	80.003	19.995	100.646	20.016	5.011	0.496
1300.500	728.392	80.002	19.995	100.646	20.019	4.782	0.509
1301.001	728.647	80.003	19.995	100.646	20.014	5.089	0.513
1301.501	728.929	80.002	19.994	100.645	20.018	4.856	0.526
1302.000	729.181	80.002	19.994	100.646	20.016	4.973	0.536
1302.501	729.419	80.003	19.994	100.647	20.018	4.827	0.512
1303.001	729.700	80.002	19.994	100.647	20.017	4.942	0.504
1303.500	729.954	80.003	19.994	100.646	20.019	4.776	0.527
1304.000	730.174	80.003	19.995	100.647	20.018	4.816	0.505
1304.501	730.432	80.001	19.995	100.647	20.018	4.880	0.477
1305.001	730.681	80.003	19.994	100.648	20.020	4.739	0.493
1305.500	730.945	80.001	19.996	100.648	20.020	4.737	0.509
1306.001	731.138	80.002	19.994	100.648	20.019	4.755	0.485
1306.501	731.443	80.003	19.995	100.648	20.018	4.881	0.477
1307.000	731.660	80.001	19.994	100.647	20.019	4.780	0.510
1307.500	731.924	80.003	19.995	100.646	20.019	4.809	0.502
1308.000	732.186	80.002	19.994	100.645	20.019	4.755	0.504
1308.500	732.414	80.002	19.994	100.645	20.017	4.932	0.508
1309.000	732.651	80.001	19.994	100.645	20.019	4.808	0.478
1309.500	732.929	80.001	19.995	100.645	20.020	4.716	0.491
1310.000	733.138	80.003	19.996	100.646	20.018	4.844	0.501
1310.500	733.412	80.002	19.994	100.646	20.019	4.755	0.485
1311.000	733.672	80.002	19.994	100.647	20.020	4.721	0.509
1311.501	733.890	80.003	19.994	100.647	20.019	4.759	0.506
1312.001	734.128	80.002	19.994	100.646	20.021	4.647	0.467
1312.500	734.351	80.003	19.995	100.640	20.022	4.604	0.458
1313.000	734.596	80.002	19.995	100.638	20.019	4.797	0.464
1313.500	734.829	80.002	19.995	100.634	20.017	4.923	0.473
1314.000	735.048	80.001	19.994	100.634	20.021	4.631	0.466
1314.500	735.269	80.002	19.995	100.636	20.018	4.822	0.446
1315.000	735.484	80.001	19.994	100.642	20.018	4.819	0.438
1315.500	735.776	80.002	19.995	100.642	20.018	4.862	0.472
1316.000	735.977	80.003	19.995	100.644	20.019	4.808	0.500
1316.500	736.190	80.002	19.994	100.638	20.018	4.817	0.453
1317.000	736.463	80.002	19.995	100.632	20.017	4.903	0.450
1317.500	736.687	80.002	19.995	100.628	20.013	5.190	0.492
1318.000	736.912	80.004	19.995	100.628	20.018	4.827	0.473
1318.500	737.162	80.003	19.995	100.630	20.016	5.007	0.461
1319.000	737.405	80.003	19.994	100.636	20.019	4.784	0.484
1319.500	737.662	80.003	19.994	100.642	20.011	5.336	0.497
1320.000	737.852	80.001	19.993	100.644	20.015	5.027	0.474
1320.500	738.070	80.002	19.993	100.644	20.014	5.089	0.428
1321.000	738.325	80.003	19.995	100.646	20.018	4.831	0.441
1321.500	738.554	80.003	19.994	100.646	20.019	4.797	0.478
1322.001	738.783	80.004	19.993	100.646	20.015	5.058	0.471
1322.501	739.015	80.004	19.994	100.648	20.017	4.900	0.459
1323.000	739.212	80.003	19.994	100.649	20.013	5.186	0.445
1323.500	739.455	80.004	19.994	100.649	20.017	4.939	0.435
1324.000	739.684	80.003	19.994	100.649	20.015	5.022	0.456
1324.500	739.909	80.003	19.994	100.649	20.015	5.046	0.462
1325.000	740.177	80.003	19.994	100.649	20.016	4.955	0.473
1325.500	740.391	80.004	19.994	100.649	20.017	4.923	0.488
1326.001	740.572	80.003	19.993	100.649	20.017	4.943	0.439
1326.501	740.860	80.003	19.995	100.650	20.016	4.950	0.432
1327.001	741.077	80.003	19.994	100.650	20.016	5.017	0.487
1327.501	741.284	80.003	19.994	100.646	20.022	4.609	0.464
1328.000	741.517	80.002	19.994	100.643	20.018	4.819	0.432
1328.500	741.729	80.002	19.993	100.641	20.014	5.102	0.443
1329.001	741.946	80.002	19.995	100.640	20.020	4.698	0.437
1329.501	742.190	80.003	19.994	100.636	20.016	4.959	0.445
1330.000	742.395	80.002	19.994	100.638	20.010	5.378	0.455
1330.500	742.598	80.002	19.994	100.639	20.019	4.791	0.428
1331.000	742.838	80.001	19.995	100.641	20.017	4.901	0.425
1331.500	743.066	80.001	19.994	100.643	20.017	4.939	0.456
1332.000	743.299	80.002	19.994	100.647	20.020	4.737	0.465
1332.500	743.526	80.002	19.994	100.649	20.014	5.130	0.461
1333.000	743.768	80.002	19.995	100.650	20.016	4.985	0.465
1333.500	743.984	80.000	19.994	100.650	20.016	4.953	0.464
1334.000	744.186	80.002	19.994	100.648	20.013	5.204	0.438
