Sample ID:	C:\MCC\MCC Cal\Test\Gypsum_Wallboard_Paper_211001_R2.txt
Sample Weight (mg):	4.81
Heating Rate (C/s):	0.5
Combustor Temp (C):	900
N2 Flow Rate (cc/min):	80
O2 Flow Rate (cc/min):	20
Calibration File:	C:\MCC\MCC Cal\Coeff1 JN10440_30_210304.txt.txt
T Correction Coefficients:	0	1.024463	0
Time Shift (s):	14
*
Time (s)	Temperature (C)	N2 flow rate (cc/min)	O2 flow rate (cc/min)	Flow Rate (cc/min)	Oxygen (%)	HRR (W/g)	Heating rate (C/s)
0.000	108.918	80.002	19.993	100.581	19.936	0.248	-0.009
0.500	108.880	80.003	19.994	100.582	19.938	0.165	0.009
1.000	108.928	80.004	19.993	100.578	19.936	0.306	0.002
1.500	108.928	80.004	19.993	100.576	19.938	0.141	0.029
2.000	108.908	80.002	19.993	100.577	19.937	0.230	0.013
2.500	108.883	80.004	19.993	100.575	19.939	0.098	-0.032
3.000	108.882	80.003	19.994	100.576	19.942	-0.086	-0.035
3.500	108.895	80.003	19.994	100.582	19.939	0.104	-0.007
4.000	108.885	80.003	19.993	100.584	19.938	0.178	0.008
4.500	108.898	80.004	19.993	100.587	19.941	-0.019	0.003
5.000	108.892	80.004	19.994	100.592	19.937	0.241	0.005
5.500	108.863	80.004	19.994	100.590	19.938	0.142	-0.014
6.000	108.888	80.004	19.993	100.586	19.937	0.185	-0.020
6.500	108.889	80.003	19.996	100.583	19.941	-0.049	0.011
7.000	108.854	80.004	19.994	100.582	19.937	0.220	-0.004
7.500	108.915	80.003	19.994	100.581	19.936	0.292	-0.004
8.000	108.861	80.003	19.995	100.585	19.938	0.165	0.016
8.500	108.897	80.002	19.995	100.590	19.938	0.134	-0.005
9.000	108.865	80.002	19.994	100.595	19.941	-0.019	-0.007
9.500	108.896	80.003	19.995	100.595	19.937	0.190	0.002
10.000	108.914	80.001	19.994	100.592	19.935	0.357	0.024
10.500	108.851	80.002	19.994	100.589	19.935	0.367	0.002
11.000	108.835	80.002	19.994	100.586	19.935	0.327	-0.062
11.500	108.884	80.003	19.995	100.582	19.937	0.218	-0.023
12.000	108.841	80.001	19.994	100.579	19.935	0.371	0.019
12.500	108.865	80.001	19.994	100.583	19.936	0.281	-0.006
13.000	108.855	80.001	19.994	100.590	19.937	0.204	-0.002
13.500	108.856	80.001	19.994	100.595	19.932	0.515	0.002
14.000	108.861	80.002	19.994	100.599	19.931	0.584	-0.002
14.500	108.882	80.000	19.995	100.606	19.932	0.538	0.016
15.000	108.846	80.000	19.996	100.608	19.933	0.480	0.005
15.500	108.870	80.001	19.994	100.611	19.931	0.602	-0.014
16.000	108.858	80.002	19.995	100.614	19.933	0.456	0.000
16.500	108.830	80.000	19.995	100.618	19.932	0.523	-0.013
17.000	108.864	80.000	19.995	100.620	19.929	0.755	-0.016
17.500	108.833	80.002	19.995	100.621	19.930	0.686	0.004
18.000	108.837	80.001	19.994	100.620	19.928	0.808	-0.012
18.500	108.857	80.001	19.994	100.619	19.930	0.676	-0.001
19.000	108.844	80.001	19.994	100.621	19.928	0.811	0.016
19.500	108.880	80.001	19.995	100.626	19.926	0.959	0.015
20.000	108.893	80.001	19.993	100.633	19.924	1.033	0.036
20.500	108.884	80.000	19.995	100.640	19.926	0.919	0.026
21.000	108.906	80.001	19.995	100.645	19.925	1.001	0.008
21.500	108.901	80.002	19.994	100.648	19.924	1.051	0.015
22.000	108.896	80.000	19.993	100.651	19.924	1.045	0.004
22.500	108.907	80.001	19.994	100.658	19.926	0.935	-0.002
23.000	108.943	79.999	19.994	100.664	19.925	0.973	0.027
23.500	108.966	80.002	19.993	100.671	19.924	1.047	0.053
24.000	108.937	80.001	19.993	100.678	19.922	1.213	0.026
24.500	108.947	80.002	19.994	100.684	19.920	1.313	-0.013
25.000	108.967	80.001	19.995	100.684	19.919	1.396	0.005
25.500	109.018	80.002	19.995	100.686	19.920	1.338	0.051
26.000	109.018	80.001	19.994	100.692	19.918	1.465	0.061
26.500	109.048	80.001	19.994	100.699	19.916	1.593	0.040
27.000	109.085	80.000	19.994	100.704	19.917	1.535	0.048
27.500	109.089	80.002	19.995	100.712	19.914	1.699	0.054
28.001	109.134	80.003	19.994	100.721	19.915	1.646	0.045
28.500	109.168	80.001	19.995	100.725	19.913	1.785	0.064
29.000	109.182	80.001	19.994	100.733	19.914	1.685	0.063
29.500	109.187	80.001	19.994	100.742	19.912	1.873	0.034
30.000	109.249	80.002	19.995	100.747	19.908	2.090	0.043
30.500	109.313	80.001	19.994	100.751	19.906	2.220	0.096
31.000	109.299	80.001	19.995	100.750	19.908	2.104	0.088
31.500	109.322	80.002	19.994	100.744	19.906	2.215	0.029
32.000	109.397	80.002	19.995	100.736	19.904	2.340	0.054
32.500	109.411	80.002	19.995	100.732	19.904	2.368	0.094
33.000	109.464	80.002	19.993	100.733	19.902	2.477	0.078
33.500	109.506	80.002	19.993	100.738	19.904	2.347	0.081
34.000	109.538	80.003	19.993	100.743	19.901	2.542	0.084
34.500	109.597	80.002	19.995	100.748	19.900	2.630	0.083
35.000	109.659	80.002	19.994	100.753	19.899	2.671	0.106
35.500	109.710	80.001	19.994	100.754	19.898	2.731	0.117
36.000	109.783	80.003	19.994	100.756	19.898	2.734	0.118
36.500	109.835	80.001	19.994	100.758	19.895	2.925	0.124
37.000	109.927	80.001	19.994	100.761	19.900	2.647	0.135
37.500	109.963	80.001	19.995	100.762	19.897	2.798	0.136
38.000	110.034	80.002	19.994	100.763	19.901	2.539	0.117
38.500	110.091	80.001	19.994	100.765	19.900	2.610	0.118
39.000	110.190	80.000	19.994	100.766	19.896	2.868	0.142
39.500	110.217	80.001	19.994	100.769	19.896	2.923	0.141
40.000	110.294	80.003	19.994	100.775	19.897	2.838	0.115
40.500	110.317	80.002	19.995	100.779	19.901	2.574	0.102
41.000	110.411	80.002	19.994	100.776	19.895	2.978	0.109
41.500	110.518	80.001	19.995	100.776	19.898	2.756	0.159
42.001	110.566	80.001	19.994	100.772	19.897	2.835	0.178
42.501	110.635	80.001	19.995	100.766	19.898	2.756	0.136
43.000	110.734	80.002	19.994	100.763	19.894	3.031	0.143
43.500	110.816	80.001	19.994	100.765	19.894	3.038	0.174
44.000	110.828	80.001	19.994	100.772	19.894	3.029	0.137
44.500	110.913	80.001	19.995	100.772	19.892	3.182	0.095
45.000	111.034	80.000	19.994	100.773	19.894	2.992	0.152
45.500	111.088	80.002	19.996	100.777	19.892	3.168	0.191
46.000	111.189	80.001	19.994	100.780	19.893	3.084	0.165
46.501	111.226	80.000	19.996	100.776	19.890	3.312	0.146
47.001	111.346	80.000	19.995	100.783	19.890	3.311	0.147
47.501	111.424	80.000	19.995	100.789	19.891	3.210	0.178
48.001	111.509	80.001	19.995	100.791	19.892	3.179	0.181
48.500	111.613	80.001	19.995	100.794	19.889	3.348	0.176
49.001	111.691	80.000	19.995	100.795	19.889	3.367	0.185
49.501	111.799	80.000	19.994	100.793	19.891	3.224	0.185
50.000	111.918	80.002	19.995	100.792	19.888	3.425	0.207
50.500	112.005	80.000	19.995	100.793	19.889	3.353	0.216
51.000	112.111	80.002	19.995	100.791	19.887	3.467	0.199
51.500	112.232	80.001	19.995	100.790	19.889	3.351	0.210
52.000	112.330	80.000	19.995	100.792	19.887	3.508	0.223
52.500	112.463	80.001	19.996	100.792	19.887	3.504	0.225
53.000	112.536	80.002	19.995	100.793	19.889	3.348	0.219
53.500	112.616	80.001	19.995	100.792	19.890	3.254	0.180
54.000	112.764	80.001	19.994	100.798	19.885	3.584	0.190
54.500	112.878	80.002	19.995	100.799	19.886	3.513	0.245
55.000	113.007	80.000	19.995	100.799	19.885	3.580	0.253
55.500	113.142	80.002	19.995	100.799	19.887	3.492	0.254
56.000	113.199	80.001	19.994	100.802	19.887	3.492	0.228
56.500	113.309	80.003	19.995	100.802	19.888	3.413	0.179
57.000	113.458	80.002	19.994	100.801	19.886	3.540	0.213
57.500	113.544	80.002	19.994	100.800	19.888	3.402	0.247
58.000	113.677	80.003	19.995	100.798	19.889	3.360	0.227
58.500	113.816	80.002	19.993	100.798	19.891	3.207	0.246
59.000	113.961	80.002	19.994	100.797	19.885	3.631	0.278
59.500	114.042	80.002	19.995	100.798	19.890	3.272	0.255
60.000	114.192	80.002	19.995	100.799	19.886	3.552	0.228
60.501	114.301	80.002	19.995	100.802	19.889	3.343	0.245
61.001	114.430	80.003	19.994	100.803	19.892	3.177	0.249
61.501	114.577	80.002	19.995	100.802	19.887	3.471	0.257
62.000	114.687	80.003	19.995	100.801	19.888	3.427	0.266
62.500	114.791	80.003	19.994	100.801	19.890	3.290	0.236
63.000	114.934	80.002	19.994	100.801	19.889	3.367	0.231
63.500	115.067	80.002	19.994	100.801	19.889	3.332	0.262
64.000	115.186	80.002	19.995	100.802	19.890	3.255	0.263
64.500	115.311	80.003	19.995	100.803	19.888	3.387	0.248
65.000	115.427	80.003	19.995	100.802	19.890	3.307	0.243
65.500	115.611	80.002	19.995	100.802	19.891	3.226	0.271
66.000	115.771	80.002	19.994	100.802	19.891	3.202	0.322
66.500	115.876	80.002	19.995	100.801	19.889	3.346	0.304
67.000	116.009	80.002	19.996	100.802	19.888	3.411	0.252
67.500	116.167	80.002	19.995	100.803	19.890	3.298	0.265
68.000	116.278	80.002	19.996	100.803	19.889	3.323	0.280
68.500	116.436	80.002	19.995	100.804	19.891	3.203	0.269
69.000	116.577	80.001	19.996	100.805	19.888	3.395	0.284
69.500	116.730	80.002	19.995	100.805	19.892	3.177	0.296
70.000	116.819	80.002	19.996	100.806	19.889	3.351	0.268
70.500	116.976	80.001	19.996	100.806	19.889	3.334	0.244
71.000	117.109	80.001	19.995	100.806	19.890	3.302	0.268
71.500	117.313	80.002	19.995	100.805	19.892	3.170	0.313
72.000	117.425	80.001	19.996	100.805	19.888	3.404	0.327
72.500	117.608	80.003	19.995	100.805	19.889	3.381	0.306
73.000	117.762	80.001	19.995	100.806	19.887	3.468	0.316
73.500	117.897	80.002	19.995	100.810	19.887	3.461	0.313
74.000	118.080	80.002	19.994	100.812	19.891	3.232	0.303
74.500	118.209	80.001	19.996	100.812	19.889	3.353	0.315
75.000	118.366	80.001	19.995	100.812	19.886	3.517	0.299
75.500	118.532	80.002	19.997	100.811	19.891	3.240	0.305
76.000	118.662	80.001	19.997	100.808	19.892	3.135	0.310
76.500	118.819	80.002	19.997	100.806	19.888	3.389	0.291
77.000	118.957	80.002	19.996	100.807	19.888	3.447	0.291
77.500	119.138	80.001	19.995	100.806	19.886	3.523	0.307
78.000	119.298	80.002	19.996	100.806	19.886	3.540	0.330
78.500	119.430	80.002	19.996	100.805	19.888	3.388	0.316
79.000	119.609	80.002	19.995	100.803	19.889	3.343	0.301
79.500	119.789	80.001	19.996	100.803	19.888	3.387	0.335
80.001	119.940	80.003	19.996	100.803	19.888	3.415	0.346
80.501	120.077	80.001	19.996	100.803	19.888	3.388	0.309
81.001	120.204	80.003	19.995	100.805	19.889	3.341	0.276
81.501	120.413	80.001	19.994	100.806	19.887	3.464	0.300
82.001	120.570	80.002	19.995	100.806	19.883	3.769	0.351
82.501	120.707	80.001	19.995	100.807	19.886	3.572	0.330
83.001	120.918	80.003	19.995	100.807	19.885	3.589	0.321
83.501	121.030	80.002	19.995	100.806	19.883	3.718	0.336
84.001	121.231	80.003	19.995	100.806	19.888	3.413	0.318
84.500	121.408	80.003	19.993	100.807	19.887	3.454	0.345
85.000	121.587	80.002	19.995	100.807	19.885	3.605	0.367
85.500	121.719	80.004	19.994	100.807	19.887	3.486	0.333
86.000	121.947	80.002	19.995	100.806	19.883	3.711	0.336
86.500	122.086	80.003	19.994	100.808	19.879	3.988	0.364
87.001	122.275	80.004	19.995	100.811	19.885	3.600	0.347
87.502	122.417	80.004	19.994	100.812	19.886	3.523	0.329
88.001	122.578	80.005	19.994	100.813	19.886	3.544	0.318
88.500	122.796	80.004	19.994	100.816	19.885	3.579	0.341
89.000	122.976	80.005	19.994	100.813	19.885	3.616	0.388
89.500	123.122	80.004	19.994	100.809	19.887	3.491	0.361
90.000	123.255	80.004	19.995	100.809	19.890	3.304	0.302
90.500	123.464	80.004	19.994	100.807	19.888	3.443	0.311
91.000	123.621	80.004	19.993	100.805	19.890	3.306	0.354
91.500	123.794	80.005	19.996	100.806	19.891	3.232	0.348
92.000	123.981	80.002	19.994	100.806	19.887	3.484	0.345
92.500	124.137	80.004	19.995	100.809	19.887	3.486	0.352
93.000	124.344	80.005	19.994	100.809	19.885	3.595	0.353
93.500	124.539	80.002	19.993	100.808	19.888	3.419	0.383
94.000	124.665	80.002	19.994	100.807	19.887	3.458	0.361
94.500	124.877	80.003	19.992	100.807	19.887	3.477	0.329
95.000	125.052	80.003	19.994	100.804	19.887	3.489	0.362
95.500	125.224	80.003	19.993	100.806	19.885	3.630	0.367
96.000	125.413	80.004	19.995	100.810	19.886	3.567	0.354
96.500	125.583	80.003	19.993	100.814	19.885	3.579	0.360
97.000	125.766	80.001	19.995	100.821	19.889	3.373	0.356
97.500	125.973	80.002	19.993	100.826	19.889	3.338	0.371
98.000	126.154	80.002	19.994	100.826	19.889	3.373	0.389
98.500	126.320	80.001	19.994	100.827	19.884	3.701	0.368
99.000	126.540	80.001	19.994	100.830	19.887	3.491	0.366
99.500	126.701	80.001	19.994	100.829	19.885	3.581	0.383
100.000	126.884	80.000	19.995	100.830	19.888	3.407	0.362
100.500	127.031	80.000	19.994	100.828	19.887	3.471	0.337
101.000	127.234	80.000	19.993	100.825	19.887	3.481	0.340
101.500	127.487	80.001	19.995	100.821	19.886	3.541	0.403
102.000	127.675	80.002	19.994	100.818	19.888	3.428	0.449
102.500	127.874	80.001	19.994	100.815	19.891	3.206	0.414
103.000	128.067	80.002	19.995	100.821	19.890	3.293	0.389
103.500	128.216	80.002	19.995	100.824	19.891	3.226	0.367
104.000	128.459	80.001	19.994	100.826	19.888	3.386	0.367
104.500	128.648	80.003	19.994	100.826	19.887	3.476	0.412
105.000	128.847	80.001	19.995	100.830	19.886	3.546	0.410
105.500	129.069	80.002	19.995	100.830	19.885	3.599	0.404
106.000	129.248	80.001	19.995	100.827	19.886	3.520	0.411
106.500	129.424	80.002	19.994	100.830	19.886	3.518	0.378
107.000	129.612	80.001	19.994	100.831	19.886	3.573	0.360
107.500	129.813	80.001	19.994	100.831	19.887	3.499	0.377
108.000	130.040	80.001	19.994	100.827	19.884	3.650	0.408
108.500	130.254	80.001	19.994	100.831	19.889	3.372	0.435
109.000	130.429	80.002	19.995	100.830	19.887	3.499	0.415
109.500	130.618	80.001	19.993	100.833	19.887	3.460	0.377
110.000	130.859	80.002	19.995	100.834	19.886	3.530	0.397
110.500	131.070	80.001	19.994	100.838	19.889	3.368	0.441
111.000	131.236	80.001	19.994	100.839	19.885	3.593	0.415
111.500	131.453	80.001	19.994	100.839	19.883	3.711	0.380
112.000	131.661	80.000	19.994	100.840	19.885	3.616	0.404
112.500	131.887	80.002	19.994	100.840	19.888	3.410	0.429
113.000	132.064	80.002	19.995	100.841	19.887	3.495	0.419
113.500	132.259	80.003	19.994	100.841	19.886	3.530	0.387
114.001	132.484	80.003	19.995	100.840	19.889	3.380	0.396
114.501	132.682	80.002	19.995	100.840	19.888	3.384	0.422
115.000	132.913	80.000	19.994	100.840	19.886	3.536	0.426
115.501	133.100	80.003	19.995	100.837	19.889	3.354	0.423
116.001	133.310	80.002	19.994	100.832	19.892	3.150	0.407
116.500	133.555	80.002	19.995	100.833	19.888	3.419	0.426
117.000	133.772	80.002	19.994	100.832	19.888	3.384	0.459
117.500	133.926	80.002	19.994	100.832	19.888	3.391	0.417
118.000	134.153	80.003	19.994	100.835	19.886	3.521	0.376
118.500	134.359	80.001	19.994	100.839	19.884	3.646	0.407
119.000	134.576	80.002	19.994	100.837	19.885	3.627	0.428
119.500	134.768	80.002	19.995	100.836	19.884	3.703	0.416
120.000	135.005	80.002	19.994	100.836	19.883	3.750	0.419
120.500	135.194	80.002	19.994	100.835	19.887	3.511	0.427
121.000	135.455	80.001	19.994	100.831	19.884	3.678	0.438
121.500	135.583	80.002	19.994	100.828	19.883	3.743	0.420
122.000	135.835	80.003	19.994	100.827	19.886	3.549	0.385
122.500	136.088	80.002	19.995	100.828	19.884	3.648	0.442
123.000	136.268	80.002	19.995	100.828	19.884	3.675	0.469
123.500	136.501	80.001	19.995	100.833	19.884	3.652	0.423
124.000	136.745	80.001	19.995	100.837	19.884	3.661	0.445
124.500	136.922	80.001	19.994	100.835	19.884	3.706	0.449
125.000	137.152	80.002	19.994	100.834	19.886	3.569	0.414
125.500	137.354	80.002	19.995	100.834	19.881	3.842	0.420
126.000	137.584	80.001	19.994	100.834	19.882	3.830	0.432
126.500	137.799	80.001	19.996	100.834	19.881	3.860	0.438
127.000	138.007	80.000	19.996	100.837	19.882	3.791	0.434
127.500	138.249	80.001	19.995	100.839	19.885	3.625	0.437
128.000	138.496	80.001	19.995	100.838	19.882	3.835	0.470
128.500	138.707	80.000	19.995	100.835	19.884	3.703	0.474
129.000	138.938	80.002	19.995	100.831	19.881	3.863	0.450
129.500	139.141	80.001	19.995	100.831	19.880	3.957	0.438
130.000	139.340	80.002	19.995	100.831	19.886	3.560	0.418
130.500	139.577	80.001	19.994	100.831	19.884	3.645	0.419
131.000	139.839	80.002	19.994	100.831	19.884	3.648	0.467
131.500	140.018	80.001	19.994	100.831	19.885	3.607	0.470
132.000	140.228	80.001	19.994	100.832	19.883	3.757	0.415
132.500	140.432	80.001	19.993	100.832	19.884	3.662	0.401
133.000	140.664	80.001	19.996	100.831	19.877	4.162	0.425
133.500	140.879	80.001	19.994	100.830	19.882	3.808	0.442
134.000	141.122	80.001	19.994	100.835	19.879	4.023	0.453
134.500	141.364	80.001	19.994	100.833	19.882	3.818	0.471
135.000	141.544	80.000	19.995	100.834	19.880	3.967	0.453
135.500	141.770	79.999	19.994	100.835	19.880	3.967	0.414
136.000	141.980	80.001	19.995	100.838	19.883	3.752	0.421
136.500	142.253	80.001	19.995	100.835	19.881	3.891	0.459
137.000	142.484	80.001	19.994	100.837	19.880	3.946	0.493
137.500	142.736	80.002	19.995	100.835	19.883	3.756	0.493
138.001	142.922	79.999	19.994	100.835	19.882	3.817	0.461
138.500	143.176	80.001	19.993	100.836	19.881	3.868	0.439
139.000	143.346	80.001	19.995	100.834	19.880	3.944	0.432
139.500	143.580	80.002	19.994	100.834	19.880	3.915	0.414
140.000	143.783	80.002	19.994	100.833	19.881	3.847	0.420
140.500	144.022	80.001	19.995	100.834	19.883	3.743	0.440
141.000	144.284	80.001	19.995	100.834	19.882	3.804	0.471
141.500	144.466	80.002	19.994	100.832	19.883	3.750	0.472
142.000	144.739	80.001	19.995	100.828	19.881	3.882	0.450
142.500	144.977	80.001	19.995	100.826	19.883	3.762	0.483
143.001	145.169	80.002	19.995	100.820	19.880	3.944	0.470
143.501	145.411	80.002	19.995	100.821	19.883	3.722	0.432
144.001	145.662	80.002	19.996	100.828	19.881	3.901	0.464
144.501	145.884	80.003	19.994	100.830	19.882	3.787	0.483
145.001	146.058	80.002	19.995	100.831	19.881	3.893	0.434
145.500	146.339	80.003	19.994	100.838	19.878	4.087	0.425
146.000	146.569	80.002	19.994	100.836	19.876	4.230	0.483
146.500	146.742	80.002	19.994	100.835	19.885	3.609	0.457
147.000	146.964	80.003	19.995	100.834	19.882	3.778	0.399
147.500	147.204	80.002	19.995	100.836	19.882	3.820	0.429
148.000	147.466	80.003	19.994	100.836	19.879	3.993	0.482
148.500	147.691	80.002	19.994	100.833	19.878	4.093	0.494
149.000	147.917	80.003	19.994	100.830	19.880	3.926	0.469
149.501	148.102	80.002	19.994	100.826	19.875	4.252	0.431
150.001	148.385	80.002	19.994	100.822	19.879	4.017	0.440
150.500	148.643	80.003	19.994	100.817	19.879	4.000	0.505
151.000	148.851	80.003	19.994	100.816	19.878	4.066	0.503
151.500	149.066	80.003	19.995	100.811	19.878	4.067	0.444
152.000	149.324	80.001	19.994	100.810	19.877	4.137	0.448
152.500	149.603	80.002	19.994	100.811	19.879	3.994	0.505
153.000	149.804	80.002	19.994	100.814	19.876	4.170	0.509
153.500	150.026	80.003	19.993	100.815	19.877	4.160	0.452
154.000	150.271	80.002	19.994	100.817	19.880	3.915	0.445
154.500	150.517	80.002	19.994	100.819	19.877	4.154	0.479
155.000	150.733	80.001	19.993	100.823	19.877	4.128	0.477
155.500	151.015	80.002	19.994	100.825	19.877	4.114	0.480
156.000	151.235	80.003	19.994	100.829	19.880	3.962	0.500
156.500	151.449	80.003	19.994	100.833	19.878	4.037	0.468
157.000	151.690	80.003	19.995	100.837	19.878	4.058	0.445
157.500	151.924	80.003	19.995	100.833	19.878	4.042	0.465
158.000	152.158	80.002	19.994	100.827	19.879	3.987	0.471
158.500	152.366	80.002	19.994	100.820	19.877	4.107	0.455
159.000	152.618	80.004	19.994	100.817	19.880	3.970	0.451
159.500	152.825	80.003	19.995	100.817	19.879	4.031	0.460
160.000	153.099	80.002	19.994	100.815	19.877	4.119	0.470
160.501	153.364	80.001	19.994	100.812	19.878	4.075	0.510
161.001	153.565	80.003	19.995	100.813	19.884	3.649	0.503
161.500	153.791	80.002	19.995	100.812	19.883	3.774	0.446
162.000	154.043	80.002	19.994	100.808	19.877	4.109	0.453
162.500	154.286	80.000	19.995	100.811	19.879	4.003	0.487
163.000	154.487	80.003	19.996	100.813	19.881	3.853	0.469
163.500	154.693	80.002	19.995	100.813	19.880	3.932	0.425
164.000	154.922	80.002	19.995	100.811	19.882	3.793	0.421
164.500	155.186	80.002	19.993	100.808	19.883	3.751	0.464
165.000	155.432	80.002	19.994	100.803	19.882	3.799	0.501
165.500	155.660	80.002	19.995	100.803	19.885	3.601	0.492
166.000	155.876	80.003	19.995	100.803	19.879	4.029	0.458
166.500	156.139	80.002	19.995	100.803	19.878	4.061	0.461
167.000	156.349	80.003	19.995	100.806	19.881	3.869	0.476
167.500	156.628	80.002	19.994	100.810	19.880	3.915	0.481
168.000	156.807	80.002	19.994	100.811	19.881	3.869	0.473
168.500	157.082	80.003	19.994	100.811	19.881	3.862	0.457
169.000	157.322	80.003	19.994	100.811	19.882	3.790	0.484
169.501	157.600	80.004	19.995	100.810	19.883	3.739	0.516
170.001	157.836	80.004	19.995	100.806	19.883	3.719	0.516
170.500	158.070	80.004	19.994	100.803	19.881	3.899	0.492
171.001	158.310	80.003	19.995	100.804	19.880	3.964	0.472
171.501	158.562	80.004	19.996	100.804	19.881	3.874	0.483
172.000	158.787	80.004	19.995	100.801	19.881	3.848	0.484
172.500	159.017	80.004	19.995	100.802	19.882	3.809	0.466
173.000	159.258	80.004	19.995	100.804	19.884	3.652	0.464
173.500	159.521	80.004	19.995	100.805	19.885	3.631	0.488
174.000	159.739	80.003	19.994	100.805	19.883	3.765	0.493
174.500	159.985	80.003	19.995	100.804	19.881	3.864	0.472
175.000	160.251	80.002	19.996	100.803	19.880	3.927	0.487
175.500	160.478	80.004	19.995	100.802	19.882	3.820	0.502
176.000	160.740	80.004	19.995	100.803	19.881	3.864	0.491
176.500	160.963	80.003	19.994	100.802	19.881	3.896	0.487
177.000	161.212	80.005	19.995	100.803	19.886	3.538	0.479
177.500	161.484	80.003	19.995	100.803	19.885	3.628	0.497
178.000	161.742	80.004	19.994	100.802	19.886	3.552	0.525
178.500	161.970	80.004	19.996	100.804	19.885	3.626	0.508
179.001	162.215	80.004	19.995	100.806	19.882	3.779	0.479
179.501	162.467	80.004	19.996	100.806	19.883	3.728	0.485
180.000	162.715	80.003	19.996	100.806	19.882	3.799	0.499
180.500	162.948	80.004	19.995	100.807	19.881	3.897	0.490
181.000	163.202	80.003	19.994	100.803	19.883	3.732	0.483
181.500	163.417	80.002	19.995	100.800	19.882	3.778	0.478
182.000	163.646	80.002	19.995	100.800	19.882	3.802	0.457
182.500	163.924	80.003	19.996	100.802	19.882	3.836	0.476
183.000	164.198	80.001	19.996	100.802	19.879	3.985	0.530
183.501	164.521	80.003	19.995	100.802	19.881	3.860	0.574
184.001	164.713	80.001	19.995	100.803	19.880	3.959	0.556
184.500	164.987	80.002	19.996	100.802	19.882	3.814	0.490
185.000	165.177	80.002	19.993	100.800	19.882	3.834	0.465
185.500	165.442	80.002	19.994	100.801	19.883	3.731	0.460
186.000	165.652	80.002	19.995	100.801	19.882	3.819	0.465
186.500	165.942	80.001	19.994	100.804	19.881	3.867	0.487
187.000	166.219	80.002	19.995	100.808	19.881	3.899	0.534
187.500	166.429	80.001	19.995	100.808	19.885	3.598	0.527
188.000	166.687	80.003	19.995	100.807	19.881	3.841	0.477
188.500	166.917	80.001	19.994	100.807	19.881	3.885	0.478
189.001	167.162	80.002	19.994	100.804	19.883	3.774	0.482
189.501	167.419	80.002	19.993	100.801	19.883	3.723	0.489
190.000	167.674	80.003	19.995	100.801	19.884	3.668	0.507
190.500	167.964	80.001	19.995	100.802	19.885	3.635	0.529
191.000	168.189	80.002	19.994	100.802	19.885	3.608	0.530
191.500	168.437	80.002	19.995	100.803	19.883	3.761	0.494
192.000	168.688	80.002	19.995	100.804	19.885	3.638	0.486
192.500	168.935	80.002	19.995	100.805	19.886	3.534	0.498
193.000	169.147	80.001	19.994	100.807	19.886	3.526	0.479
193.500	169.405	80.001	19.995	100.807	19.881	3.842	0.465
194.000	169.661	80.002	19.994	100.807	19.883	3.744	0.492
194.500	169.893	80.001	19.995	100.805	19.886	3.538	0.501
195.000	170.153	80.002	19.995	100.804	19.885	3.640	0.490
195.500	170.347	80.002	19.995	100.800	19.883	3.751	0.473
196.000	170.609	80.002	19.994	100.798	19.880	3.945	0.455
196.500	170.880	80.002	19.994	100.796	19.882	3.791	0.495
197.000	171.144	80.001	19.994	100.796	19.882	3.811	0.534
197.500	171.366	80.001	19.994	100.795	19.882	3.791	0.510
198.000	171.594	80.001	19.994	100.796	19.884	3.654	0.468
198.500	171.891	80.001	19.994	100.798	19.880	3.906	0.488
199.000	172.088	80.001	19.994	100.799	19.878	4.054	0.510
199.500	172.370	80.003	19.994	100.799	19.878	4.052	0.486
200.000	172.626	80.002	19.993	100.800	19.881	3.886	0.508
200.500	172.890	80.002	19.994	100.798	19.881	3.872	0.529
201.000	173.094	80.000	19.994	100.798	19.876	4.193	0.494
201.500	173.350	80.001	19.994	100.800	19.879	3.997	0.464
202.000	173.589	80.000	19.995	100.800	19.877	4.140	0.477
202.500	173.856	80.000	19.994	100.800	19.879	4.014	0.500
203.000	174.104	80.002	19.993	100.803	19.876	4.181	0.511
203.500	174.383	80.003	19.994	100.803	19.878	4.055	0.521
204.000	174.617	80.001	19.994	100.800	19.879	4.016	0.520
204.500	174.868	80.001	19.994	100.799	19.879	4.006	0.499
205.000	175.120	80.001	19.994	100.799	19.876	4.182	0.494
205.500	175.390	80.001	19.995	100.799	19.879	4.008	0.512
206.000	175.618	80.002	19.995	100.798	19.879	4.017	0.510
206.500	175.883	80.001	19.995	100.801	19.881	3.886	0.495
207.000	176.119	80.001	19.994	100.801	19.879	4.027	0.497
207.500	176.355	80.002	19.994	100.800	19.879	3.997	0.487
208.000	176.596	80.001	19.994	100.799	19.878	4.067	0.475
208.500	176.855	80.002	19.995	100.799	19.879	4.030	0.489
209.000	177.112	80.001	19.994	100.798	19.880	3.937	0.508
209.500	177.366	80.002	19.995	100.800	19.879	4.011	0.513
210.000	177.627	80.002	19.994	100.797	19.880	3.967	0.513
210.500	177.868	79.999	19.994	100.796	19.877	4.121	0.509
211.000	178.110	80.001	19.993	100.796	19.877	4.126	0.493
211.500	178.364	80.001	19.994	100.797	19.878	4.071	0.490
212.000	178.599	80.002	19.995	100.795	19.883	3.745	0.493
212.500	178.846	80.001	19.994	100.793	19.883	3.752	0.485
213.000	179.076	80.000	19.995	100.788	19.882	3.775	0.479
213.501	179.321	80.001	19.995	100.781	19.877	4.153	0.476
214.001	179.569	80.002	19.994	100.777	19.881	3.866	0.484
214.500	179.820	80.000	19.994	100.777	19.881	3.889	0.496
215.000	180.062	80.001	19.994	100.784	19.882	3.831	0.496
215.500	180.267	80.001	19.995	100.791	19.881	3.886	0.470
216.000	180.557	80.001	19.996	100.798	19.882	3.828	0.471
216.500	180.818	80.000	19.994	100.798	19.883	3.773	0.522
217.000	181.059	80.002	19.995	100.793	19.885	3.636	0.526
217.500	181.289	80.001	19.995	100.786	19.884	3.666	0.487
218.000	181.576	80.001	19.995	100.780	19.882	3.819	0.494
218.500	181.804	80.001	19.995	100.777	19.885	3.627	0.516
219.001	182.080	80.002	19.994	100.775	19.882	3.831	0.509
219.501	182.307	80.000	19.993	100.778	19.883	3.759	0.504
220.000	182.552	80.002	19.993	100.784	19.883	3.730	0.488
220.500	182.815	80.001	19.995	100.788	19.883	3.746	0.490
221.000	183.059	80.001	19.995	100.792	19.885	3.597	0.507
221.500	183.284	80.001	19.994	100.797	19.884	3.653	0.488
222.000	183.555	80.001	19.993	100.794	19.884	3.685	0.483
222.500	183.749	80.001	19.995	100.788	19.883	3.762	0.480
223.000	184.030	80.002	19.994	100.784	19.883	3.736	0.470
223.500	184.258	80.001	19.995	100.781	19.880	3.912	0.492
224.000	184.555	80.002	19.994	100.780	19.877	4.133	0.517
224.500	184.785	80.002	19.994	100.781	19.879	4.019	0.526
225.000	185.007	80.002	19.994	100.780	19.881	3.892	0.489
225.500	185.265	80.004	19.994	100.781	19.883	3.711	0.466
226.000	185.553	80.002	19.995	100.777	19.883	3.725	0.513
226.500	185.840	80.003	19.995	100.775	19.883	3.723	0.561
227.000	186.082	80.002	19.995	100.779	19.883	3.737	0.552
227.501	186.343	80.001	19.994	100.783	19.883	3.736	0.516
228.001	186.606	80.002	19.994	100.781	19.880	3.917	0.513
228.500	186.819	80.003	19.994	100.783	19.882	3.795	0.500
229.000	187.096	80.002	19.995	100.780	19.883	3.767	0.483
229.500	187.338	80.003	19.993	100.775	19.885	3.610	0.505
230.000	187.601	80.002	19.995	100.771	19.887	3.494	0.512
230.500	187.825	80.003	19.994	100.771	19.885	3.623	0.496
231.000	188.120	80.003	19.993	100.769	19.885	3.632	0.503
231.500	188.316	80.002	19.995	100.766	19.882	3.815	0.505
232.000	188.609	80.003	19.995	100.766	19.883	3.734	0.490
232.500	188.831	80.005	19.994	100.769	19.882	3.822	0.502
233.000	189.092	80.002	19.993	100.767	19.884	3.690	0.499
233.500	189.322	80.003	19.994	100.768	19.882	3.794	0.487
234.000	189.592	80.002	19.994	100.769	19.884	3.672	0.495
234.500	189.825	80.003	19.994	100.770	19.882	3.831	0.502
235.000	190.089	80.003	19.994	100.767	19.883	3.762	0.501
235.500	190.355	80.003	19.995	100.767	19.885	3.621	0.514
236.000	190.595	80.002	19.994	100.767	19.884	3.683	0.518
236.500	190.819	80.002	19.995	100.767	19.885	3.579	0.484
237.000	191.082	80.002	19.995	100.765	19.884	3.684	0.475
237.500	191.305	80.002	19.995	100.766	19.886	3.552	0.487
238.000	191.533	80.003	19.994	100.766	19.886	3.521	0.469
238.500	191.767	80.003	19.994	100.765	19.887	3.507	0.457
239.000	192.038	80.004	19.996	100.764	19.888	3.405	0.484
239.500	192.313	80.001	19.995	100.764	19.886	3.553	0.525
240.001	192.545	80.002	19.995	100.763	19.885	3.637	0.526
240.501	192.785	80.003	19.995	100.764	19.884	3.692	0.489
241.000	193.025	80.001	19.994	100.763	19.882	3.820	0.476
241.500	193.291	80.000	19.995	100.764	19.884	3.677	0.493
242.000	193.532	80.001	19.994	100.764	19.885	3.633	0.507
242.500	193.785	80.002	19.994	100.764	19.883	3.757	0.501
243.000	194.051	80.001	19.994	100.763	19.881	3.843	0.507
243.501	194.309	80.001	19.994	100.763	19.883	3.769	0.522
244.001	194.557	80.002	19.995	100.762	19.883	3.765	0.515
244.501	194.815	80.001	19.994	100.762	19.883	3.713	0.506
245.001	195.041	80.002	19.994	100.763	19.883	3.755	0.495
245.500	195.270	80.002	19.995	100.764	19.886	3.531	0.469
246.000	195.515	80.001	19.995	100.765	19.885	3.582	0.464
246.500	195.770	80.002	19.994	100.765	19.886	3.551	0.487
247.001	196.020	80.002	19.996	100.765	19.885	3.637	0.503
247.501	196.257	80.001	19.995	100.764	19.887	3.487	0.496
248.001	196.511	80.003	19.995	100.763	19.884	3.665	0.489
248.501	196.738	80.002	19.996	100.763	19.882	3.820	0.486
249.000	196.963	80.002	19.995	100.762	19.884	3.704	0.466
249.500	197.230	80.003	19.996	100.764	19.884	3.665	0.472
250.000	197.489	80.003	19.995	100.769	19.885	3.579	0.509
250.500	197.706	80.004	19.994	100.770	19.884	3.648	0.502
251.000	197.966	80.004	19.995	100.770	19.882	3.804	0.477
251.501	198.244	80.004	19.994	100.770	19.886	3.528	0.507
252.000	198.502	80.003	19.995	100.768	19.885	3.623	0.537
252.500	198.737	80.004	19.995	100.763	19.882	3.799	0.514
253.000	198.970	80.002	19.995	100.762	19.881	3.862	0.481
253.501	199.194	80.003	19.993	100.763	19.883	3.720	0.462
254.001	199.444	80.003	19.993	100.763	19.884	3.658	0.465
254.500	199.717	80.004	19.993	100.762	19.880	3.921	0.499
255.000	199.957	80.005	19.993	100.763	19.882	3.824	0.518
255.500	200.198	80.006	19.994	100.762	19.880	3.927	0.496
256.000	200.473	80.004	19.995	100.762	19.881	3.869	0.498
256.500	200.672	80.004	19.995	100.762	19.881	3.848	0.495
257.000	200.917	80.005	19.994	100.763	19.883	3.771	0.459
257.500	201.172	80.005	19.996	100.763	19.884	3.693	0.472
258.000	201.367	80.005	19.993	100.763	19.881	3.873	0.475
258.500	201.639	80.005	19.996	100.762	19.879	3.980	0.459
259.000	201.866	80.004	19.995	100.762	19.880	3.917	0.483
259.500	202.132	80.002	19.995	100.761	19.881	3.901	0.496
260.000	202.394	80.005	19.995	100.762	19.881	3.846	0.510
260.500	202.642	80.006	19.995	100.762	19.882	3.783	0.519
261.000	202.866	80.004	19.994	100.764	19.880	3.941	0.491
261.500	203.128	80.003	19.994	100.765	19.882	3.799	0.479
262.000	203.384	80.003	19.994	100.765	19.880	3.943	0.502
262.500	203.594	80.003	19.995	100.765	19.881	3.892	0.492
263.000	203.864	80.003	19.996	100.764	19.878	4.061	0.473
263.500	204.096	80.002	19.996	100.763	19.882	3.815	0.491
264.000	204.326	80.003	19.994	100.765	19.879	3.970	0.482
264.500	204.547	80.001	19.994	100.768	19.879	3.975	0.457
265.000	204.795	80.002	19.994	100.768	19.882	3.808	0.460
265.500	205.076	80.003	19.996	100.769	19.879	3.998	0.499
266.000	205.326	80.003	19.996	100.769	19.881	3.882	0.530
266.500	205.556	80.002	19.994	100.766	19.882	3.822	0.505
267.000	205.806	80.002	19.995	100.763	19.881	3.846	0.480
267.500	206.046	80.001	19.994	100.764	19.881	3.882	0.485
268.000	206.322	80.001	19.996	100.764	19.884	3.649	0.503
268.500	206.524	80.000	19.995	100.764	19.879	4.001	0.497
269.000	206.792	80.003	19.995	100.764	19.878	4.066	0.474
269.500	207.004	80.000	19.994	100.764	19.874	4.339	0.474
270.000	207.276	80.002	19.996	100.763	19.881	3.878	0.482
270.500	207.475	80.000	19.995	100.763	19.878	4.040	0.478
271.000	207.723	80.001	19.996	100.763	19.881	3.890	0.459
271.500	208.016	80.002	19.995	100.763	19.881	3.855	0.494
272.000	208.254	80.000	19.996	100.763	19.881	3.897	0.535
272.500	208.494	80.002	19.998	100.763	19.880	3.905	0.504
273.000	208.698	79.997	19.995	100.763	19.883	3.716	0.461
273.500	208.966	80.000	19.996	100.763	19.879	3.977	0.458
274.000	209.208	80.001	19.995	100.763	19.879	3.987	0.491
274.500	209.465	80.001	19.995	100.763	19.881	3.899	0.504
275.000	209.697	80.001	19.995	100.763	19.881	3.847	0.494
275.500	209.952	80.001	19.996	100.763	19.880	3.922	0.488
276.000	210.210	80.001	19.995	100.763	19.879	3.972	0.500
276.500	210.414	80.003	19.995	100.764	19.881	3.887	0.488
277.000	210.658	80.000	19.994	100.764	19.882	3.803	0.455
277.500	210.927	80.002	19.994	100.761	19.879	4.016	0.480
278.000	211.197	80.000	19.994	100.761	19.886	3.544	0.526
278.500	211.411	80.000	19.994	100.761	19.881	3.848	0.512
279.000	211.656	79.998	19.994	100.761	19.884	3.707	0.472
279.500	211.895	79.999	19.994	100.761	19.882	3.796	0.472
280.000	212.120	79.999	19.994	100.765	19.882	3.815	0.473
280.500	212.397	80.000	19.995	100.765	19.883	3.762	0.483
281.000	212.624	80.002	19.993	100.765	19.883	3.718	0.503
281.500	212.880	80.001	19.994	100.765	19.880	3.963	0.494
282.000	213.106	80.002	19.994	100.765	19.881	3.891	0.483
282.500	213.349	80.000	19.994	100.765	19.881	3.866	0.476
283.000	213.541	80.002	19.994	100.765	19.883	3.739	0.452
283.500	213.829	79.999	19.994	100.765	19.882	3.832	0.457
284.000	214.086	80.003	19.995	100.766	19.883	3.771	0.512
284.500	214.319	80.001	19.995	100.767	19.884	3.699	0.517
285.000	214.583	80.002	19.994	100.768	19.881	3.853	0.494
285.500	214.802	80.002	19.995	100.768	19.883	3.765	0.490
286.000	215.052	80.002	19.996	100.769	19.879	4.019	0.476
286.500	215.328	80.000	19.993	100.770	19.876	4.179	0.497
287.000	215.549	80.003	19.995	100.770	19.876	4.216	0.511
287.500	215.781	80.002	19.994	100.770	19.877	4.140	0.475
288.000	216.002	80.001	19.993	100.769	19.879	3.977	0.453
288.500	216.282	80.001	19.994	100.769	19.881	3.876	0.477
289.000	216.541	80.001	19.995	100.769	19.879	3.998	0.520
289.500	216.767	80.004	19.994	100.768	19.880	3.943	0.512
290.000	216.993	80.003	19.994	100.768	19.876	4.200	0.468
290.500	217.216	80.003	19.992	100.768	19.873	4.368	0.451
291.000	217.512	80.002	19.994	100.768	19.876	4.216	0.484
291.500	217.755	80.004	19.995	100.768	19.874	4.317	0.529
292.000	217.982	80.002	19.994	100.770	19.875	4.241	0.504
292.500	218.241	80.003	19.994	100.769	19.875	4.279	0.478
293.000	218.480	80.002	19.994	100.768	19.875	4.237	0.492
293.500	218.693	80.004	19.994	100.768	19.876	4.214	0.475
294.000	218.969	80.002	19.994	100.767	19.876	4.177	0.471
294.500	219.184	80.001	19.995	100.765	19.874	4.315	0.490
295.000	219.427	80.002	19.994	100.764	19.877	4.121	0.474
295.500	219.705	80.001	19.995	100.764	19.874	4.316	0.490
296.000	219.940	80.001	19.994	100.764	19.874	4.352	0.517
296.500	220.187	80.002	19.994	100.764	19.875	4.232	0.497
297.000	220.442	80.004	19.994	100.763	19.874	4.345	0.492
297.500	220.687	80.001	19.996	100.764	19.874	4.327	0.501
298.000	220.910	80.001	19.994	100.764	19.873	4.375	0.485
298.500	221.182	80.001	19.994	100.763	19.872	4.471	0.481
299.000	221.444	80.003	19.996	100.763	19.872	4.485	0.514
299.500	221.630	80.002	19.996	100.764	19.878	4.096	0.491
300.000	221.880	80.001	19.994	100.764	19.876	4.183	0.442
300.500	222.121	80.002	19.993	100.765	19.875	4.233	0.463
301.001	222.366	80.002	19.993	100.767	19.874	4.344	0.488
301.501	222.588	80.000	19.994	100.768	19.873	4.372	0.477
302.000	222.808	80.002	19.995	100.767	19.874	4.339	0.455
302.500	223.093	80.001	19.993	100.767	19.874	4.321	0.474
303.000	223.316	80.001	19.995	100.766	19.872	4.445	0.506
303.500	223.574	80.003	19.995	100.765	19.874	4.311	0.495
304.000	223.793	80.000	19.994	100.763	19.871	4.528	0.479
304.500	224.068	80.001	19.993	100.763	19.874	4.359	0.485
305.000	224.280	80.001	19.996	100.762	19.875	4.278	0.490
305.500	224.507	80.000	19.995	100.761	19.872	4.480	0.463
306.000	224.787	79.998	19.994	100.762	19.873	4.390	0.473
306.500	225.035	80.002	19.995	100.762	19.874	4.332	0.518
307.000	225.313	80.000	19.996	100.763	19.872	4.445	0.526
307.500	225.545	80.003	19.994	100.763	19.871	4.492	0.518
308.000	225.774	80.001	19.994	100.764	19.873	4.415	0.486
308.500	226.034	80.002	19.995	100.764	19.871	4.498	0.475
309.000	226.265	80.001	19.994	100.764	19.873	4.389	0.490
309.500	226.485	80.002	19.994	100.764	19.875	4.283	0.471
310.000	226.782	80.002	19.994	100.764	19.872	4.454	0.484
310.500	227.015	80.005	19.995	100.763	19.870	4.602	0.523
311.000	227.272	80.004	19.995	100.761	19.870	4.565	0.510
311.500	227.523	80.004	19.994	100.756	19.871	4.549	0.499
312.000	227.754	80.003	19.994	100.754	19.871	4.536	0.495
312.500	228.013	80.001	19.994	100.753	19.869	4.679	0.486
313.000	228.266	80.005	19.994	100.753	19.870	4.619	0.501
313.500	228.536	80.002	19.994	100.753	19.873	4.376	0.517
314.000	228.756	80.003	19.994	100.758	19.873	4.387	0.507
314.500	229.035	80.002	19.994	100.760	19.874	4.311	0.495
315.000	229.286	80.006	19.995	100.761	19.870	4.568	0.515
315.500	229.489	80.003	19.994	100.762	19.871	4.544	0.491
316.000	229.771	80.003	19.995	100.762	19.869	4.640	0.469
316.500	229.982	80.002	19.996	100.762	19.865	4.901	0.490
317.000	230.238	80.004	19.994	100.762	19.865	4.892	0.480
317.500	230.502	80.004	19.996	100.761	19.864	5.003	0.493
318.000	230.692	80.004	19.996	100.760	19.866	4.846	0.487
318.500	230.975	80.003	19.995	100.761	19.869	4.681	0.464
319.000	231.219	80.004	19.995	100.761	19.861	5.199	0.500
319.500	231.441	80.004	19.995	100.761	19.865	4.947	0.497
320.000	231.735	80.003	19.994	100.762	19.865	4.938	0.491
320.500	231.922	80.004	19.994	100.763	19.860	5.241	0.498
321.000	232.188	80.004	19.994	100.763	19.862	5.097	0.466
321.500	232.450	80.003	19.994	100.763	19.860	5.222	0.490
322.000	232.679	80.003	19.994	100.763	19.862	5.112	0.510
322.500	232.940	80.003	19.996	100.763	19.860	5.237	0.491
323.000	233.148	80.004	19.995	100.763	19.858	5.385	0.479
323.500	233.429	80.004	19.994	100.761	19.861	5.206	0.479
324.000	233.660	80.005	19.995	100.758	19.860	5.220	0.500
324.500	233.905	80.003	19.995	100.758	19.855	5.553	0.494
325.000	234.139	80.003	19.994	100.759	19.856	5.486	0.478
325.500	234.380	80.005	19.994	100.759	19.856	5.510	0.477
326.000	234.575	80.003	19.994	100.761	19.855	5.547	0.455
326.500	234.873	80.003	19.994	100.764	19.857	5.412	0.464
327.000	235.125	80.003	19.994	100.763	19.854	5.620	0.522
327.500	235.400	80.002	19.994	100.763	19.854	5.668	0.539
328.000	235.636	80.003	19.995	100.764	19.853	5.722	0.519
328.500	235.865	80.003	19.995	100.764	19.855	5.546	0.488
329.000	236.056	80.002	19.995	100.766	19.853	5.685	0.442
329.500	236.316	80.002	19.994	100.769	19.852	5.792	0.436
330.000	236.557	80.001	19.996	100.770	19.856	5.495	0.476
330.500	236.774	80.001	19.994	100.773	19.855	5.588	0.479
331.000	237.080	80.003	19.994	100.773	19.855	5.595	0.490
331.500	237.105	80.003	19.994	100.772	19.857	5.435	0.427
332.000	237.658	80.001	19.994	100.771	19.854	5.661	0.455
332.500	238.006	80.004	19.995	100.770	19.854	5.662	0.740
333.000	237.959	80.004	19.994	100.767	19.854	5.641	0.601
333.500	238.076	80.002	19.995	100.767	19.855	5.592	0.185
334.000	238.528	80.002	19.996	100.767	19.852	5.757	0.320
334.500	238.820	80.003	19.995	100.769	19.849	5.938	0.657
335.000	238.908	80.003	19.994	100.771	19.850	5.891	0.562
335.500	239.236	80.004	19.994	100.771	19.845	6.230	0.398
336.000	239.521	80.003	19.995	100.769	19.848	6.026	0.514
336.500	239.799	80.003	19.995	100.772	19.845	6.227	0.588
337.000	239.937	80.004	19.994	100.773	19.846	6.126	0.490
337.500	240.242	80.003	19.994	100.775	19.847	6.112	0.429
338.000	240.419	80.003	19.995	100.779	19.847	6.077	0.462
338.500	240.648	80.004	19.996	100.783	19.846	6.133	0.444
339.000	240.976	80.007	19.995	100.786	19.844	6.290	0.482
339.500	241.186	80.003	19.994	100.783	19.845	6.192	0.548
340.000	241.431	80.003	19.995	100.781	19.843	6.345	0.497
340.500	241.718	80.005	19.995	100.777	19.842	6.436	0.493
341.000	241.947	80.002	19.994	100.775	19.841	6.491	0.524
341.501	242.195	80.004	19.994	100.771	19.843	6.334	0.497
342.000	242.458	80.003	19.995	100.774	19.845	6.216	0.494
342.500	242.695	80.006	19.995	100.778	19.845	6.246	0.505
343.000	243.027	80.005	19.994	100.781	19.844	6.287	0.534
343.500	243.266	80.004	19.995	100.780	19.844	6.299	0.570
344.000	243.523	80.004	19.994	100.779	19.840	6.523	0.533
344.500	243.757	80.006	19.994	100.775	19.844	6.308	0.494
345.000	244.021	80.004	19.994	100.774	19.845	6.209	0.495
345.500	244.270	80.004	19.994	100.771	19.843	6.368	0.505
346.000	244.529	80.005	19.993	100.771	19.843	6.338	0.510
346.500	244.811	80.004	19.995	100.770	19.844	6.320	0.524
347.000	245.055	80.005	19.995	100.770	19.846	6.183	0.533
347.500	245.315	80.004	19.995	100.766	19.842	6.419	0.515
348.000	245.509	80.006	19.994	100.767	19.843	6.341	0.479
348.500	245.824	80.004	19.994	100.766	19.839	6.616	0.482
349.000	246.073	80.005	19.994	100.767	19.842	6.426	0.537
349.500	246.335	80.003	19.993	100.768	19.840	6.581	0.538
350.000	246.613	80.002	19.994	100.769	19.842	6.444	0.525
350.500	246.823	80.003	19.995	100.769	19.838	6.711	0.514
351.000	247.074	80.004	19.995	100.770	19.837	6.759	0.475
351.500	247.381	80.002	19.994	100.770	19.836	6.804	0.509
352.000	247.631	80.001	19.994	100.772	19.833	7.029	0.557
352.500	247.880	80.002	19.994	100.772	19.834	6.948	0.528
353.000	248.123	80.001	19.995	100.771	19.833	6.981	0.496
353.500	248.363	80.002	19.996	100.771	19.836	6.830	0.488
354.000	248.631	80.000	19.995	100.773	19.832	7.100	0.496
354.500	248.892	80.001	19.995	100.773	19.831	7.139	0.518
355.000	249.188	79.999	19.996	100.776	19.829	7.243	0.543
355.500	249.420	80.000	19.995	100.775	19.831	7.128	0.542
356.000	249.722	80.001	19.996	100.775	19.831	7.119	0.531
356.500	249.999	80.000	19.993	100.776	19.830	7.206	0.557
357.000	250.283	79.999	19.995	100.774	19.829	7.248	0.570
357.500	250.523	80.000	19.995	100.772	19.831	7.132	0.542
358.000	250.773	80.001	19.996	100.772	19.833	7.037	0.507
358.500	251.051	80.001	19.995	100.773	19.831	7.138	0.509
359.000	251.345	80.001	19.995	100.769	19.828	7.358	0.550
359.500	251.610	80.002	19.995	100.769	19.829	7.263	0.566
360.000	251.887	80.001	19.995	100.768	19.827	7.410	0.550
360.500	252.112	80.001	19.996	100.769	19.828	7.361	0.521
361.000	252.365	80.002	19.996	100.773	19.823	7.691	0.490
361.500	252.669	80.002	19.996	100.775	19.826	7.458	0.518
362.000	252.905	80.001	19.996	100.780	19.824	7.597	0.549
362.500	253.140	80.000	19.996	100.787	19.824	7.565	0.506
363.000	253.410	80.002	19.995	100.791	19.824	7.603	0.488
363.500	253.694	80.000	19.996	100.788	19.820	7.860	0.529
364.000	253.890	79.999	19.997	100.786	19.819	7.918	0.517
364.500	254.166	80.001	19.995	100.782	19.820	7.876	0.476
365.000	254.390	80.002	19.995	100.776	19.814	8.234	0.486
365.500	254.710	80.003	19.997	100.771	19.816	8.090	0.522
366.000	254.978	80.002	19.995	100.771	19.818	8.021	0.566
366.500	255.198	80.000	19.996	100.768	19.818	7.991	0.538
367.000	255.498	80.002	19.996	100.769	19.814	8.234	0.504
367.500	255.776	80.001	19.997	100.769	19.816	8.122	0.549
368.000	255.997	80.000	19.996	100.770	19.816	8.104	0.538
368.500	256.266	80.000	19.997	100.770	19.812	8.404	0.495
369.000	256.493	80.000	19.997	100.774	19.810	8.525	0.493
369.500	256.749	80.003	19.995	100.779	19.814	8.279	0.489
370.000	257.019	80.001	19.995	100.784	19.812	8.409	0.505
370.500	257.278	80.001	19.996	100.790	19.809	8.546	0.528
371.000	257.530	80.001	19.996	100.795	19.806	8.746	0.520
371.500	257.830	80.000	19.996	100.794	19.809	8.546	0.531
372.000	258.065	80.001	19.995	100.788	19.806	8.782	0.544
372.500	258.365	80.003	19.996	100.782	19.804	8.906	0.535
373.000	258.621	80.002	19.996	100.775	19.804	8.924	0.546
373.500	258.854	80.002	19.995	100.771	19.803	8.957	0.522
374.000	259.079	80.000	19.996	100.770	19.801	9.075	0.473
374.500	259.394	80.001	19.995	100.770	19.802	9.039	0.499
375.000	259.644	80.000	19.996	100.768	19.800	9.168	0.553
375.500	259.921	80.001	19.995	100.771	19.799	9.218	0.546
376.000	260.161	80.001	19.994	100.773	19.795	9.468	0.521
376.500	260.420	80.002	19.996	100.773	19.797	9.345	0.508
377.000	260.654	80.003	19.996	100.774	19.801	9.073	0.497
377.500	260.918	80.003	19.995	100.778	19.795	9.463	0.496
378.000	261.142	80.002	19.995	100.778	19.798	9.310	0.493
378.500	261.395	80.002	19.994	100.778	19.793	9.643	0.482
379.000	261.621	80.002	19.996	100.780	19.790	9.808	0.478
379.500	261.914	80.003	19.995	100.781	19.791	9.742	0.499
380.000	262.120	80.002	19.995	100.782	19.787	10.025	0.509
380.500	262.391	80.002	19.995	100.780	19.785	10.150	0.488
381.000	262.666	80.002	19.995	100.778	19.785	10.165	0.511
381.500	262.951	80.003	19.995	100.775	19.787	9.996	0.553
382.000	263.183	80.000	19.994	100.774	19.782	10.315	0.539
382.500	263.450	80.001	19.994	100.776	19.783	10.251	0.508
383.000	263.683	80.002	19.994	100.780	19.784	10.198	0.500
383.500	263.968	80.002	19.994	100.783	19.781	10.382	0.509
384.000	264.220	80.001	19.994	100.788	19.781	10.403	0.527
384.500	264.477	80.003	19.993	100.788	19.781	10.396	0.523
385.000	264.723	80.003	19.993	100.782	19.779	10.523	0.506
385.500	264.957	80.002	19.994	100.778	19.778	10.638	0.491
386.001	265.234	80.002	19.996	100.778	19.776	10.761	0.495
386.501	265.464	80.002	19.995	100.776	19.774	10.897	0.509
387.000	265.699	80.000	19.993	100.776	19.772	10.973	0.486
387.500	265.982	80.002	19.994	100.779	19.771	11.054	0.491
388.000	266.249	80.002	19.995	100.780	19.768	11.290	0.534
388.500	266.458	80.000	19.995	100.778	19.767	11.345	0.513
389.000	266.744	80.001	19.995	100.780	19.767	11.308	0.486
389.500	266.982	80.001	19.994	100.780	19.768	11.264	0.510
390.001	267.214	80.002	19.995	100.776	19.768	11.255	0.497
390.500	267.480	80.002	19.995	100.779	19.763	11.598	0.484
391.000	267.821	80.001	19.995	100.780	19.766	11.408	0.552
391.500	268.016	80.002	19.995	100.783	19.761	11.699	0.571
392.000	268.258	80.000	19.995	100.785	19.763	11.584	0.487
392.500	268.510	80.000	19.994	100.788	19.760	11.759	0.466
393.000	268.751	80.002	19.994	100.787	19.759	11.864	0.494
393.500	268.967	80.002	19.996	100.788	19.757	11.954	0.475
394.000	269.231	80.003	19.994	100.785	19.760	11.766	0.468
394.500	269.462	80.003	19.995	100.790	19.758	11.942	0.487
395.000	269.730	79.999	19.994	100.794	19.756	12.056	0.497
395.500	270.025	80.002	19.995	100.794	19.755	12.123	0.531
396.000	270.256	80.001	19.994	100.796	19.756	12.040	0.544
396.500	270.498	80.002	19.995	100.798	19.754	12.195	0.499
397.000	270.764	80.001	19.995	100.797	19.747	12.625	0.491
397.500	270.996	80.000	19.995	100.797	19.750	12.463	0.504
398.000	271.283	79.999	19.994	100.799	19.746	12.701	0.509
398.500	271.546	80.002	19.995	100.801	19.742	12.981	0.534
399.000	271.787	80.000	19.994	100.803	19.744	12.854	0.527
399.500	272.081	80.001	19.993	100.804	19.747	12.620	0.519
400.000	272.307	80.003	19.994	100.804	19.743	12.900	0.528
400.500	272.572	80.003	19.996	100.804	19.740	13.094	0.506
401.000	272.794	80.000	19.994	100.803	19.735	13.436	0.489
401.500	273.022	80.001	19.995	100.805	19.736	13.360	0.468
402.000	273.245	80.004	19.995	100.805	19.734	13.494	0.450
402.500	273.506	80.000	19.994	100.805	19.733	13.536	0.467
403.000	273.784	80.001	19.994	100.804	19.734	13.506	0.512
403.500	274.040	80.001	19.995	100.804	19.734	13.476	0.536
404.000	274.274	80.003	19.995	100.803	19.733	13.561	0.512
404.500	274.560	80.002	19.996	100.804	19.731	13.693	0.505
405.000	274.778	80.004	19.996	100.804	19.728	13.862	0.512
405.500	275.040	80.002	19.994	100.805	19.726	14.031	0.492
406.000	275.290	80.001	19.994	100.805	19.728	13.863	0.496
406.500	275.527	80.002	19.994	100.805	19.726	14.011	0.500
407.000	275.776	80.003	19.994	100.803	19.725	14.062	0.486
407.500	276.036	80.004	19.993	100.803	19.728	13.872	0.498
408.000	276.296	80.002	19.993	100.803	19.720	14.418	0.515
408.500	276.539	80.003	19.994	100.803	19.722	14.300	0.511
409.000	276.782	80.001	19.995	100.803	19.718	14.557	0.494
409.500	277.008	80.001	19.993	100.804	19.717	14.571	0.477
410.000	277.267	80.001	19.994	100.807	19.718	14.540	0.476
410.500	277.537	80.002	19.994	100.807	19.713	14.869	0.507
411.000	277.772	80.000	19.994	100.808	19.715	14.755	0.517
411.500	277.987	80.000	19.995	100.808	19.715	14.714	0.478
412.000	278.247	80.001	19.994	100.808	19.711	14.991	0.463
412.500	278.492	80.000	19.994	100.806	19.708	15.177	0.491
413.000	278.717	80.002	19.994	100.806	19.711	15.006	0.487
413.500	278.984	80.003	19.994	100.806	19.710	15.031	0.480
414.000	279.228	80.001	19.994	100.807	19.704	15.417	0.501
414.500	279.458	80.002	19.993	100.807	19.701	15.639	0.492
415.000	279.669	80.002	19.994	100.807	19.697	15.926	0.458
415.500	279.921	80.001	19.993	100.806	19.700	15.697	0.452
416.000	280.190	80.001	19.993	100.806	19.695	16.050	0.492
416.500	280.407	80.004	19.994	100.806	19.695	16.031	0.504
417.000	280.657	80.002	19.994	100.805	19.690	16.339	0.477
417.500	280.923	80.003	19.994	100.805	19.692	16.249	0.491
418.000	281.149	80.001	19.993	100.806	19.687	16.578	0.504
418.500	281.406	80.001	19.993	100.807	19.689	16.434	0.488
419.000	281.590	80.002	19.994	100.807	19.685	16.672	0.462
419.500	281.897	80.004	19.993	100.807	19.687	16.580	0.466
420.000	282.148	80.002	19.995	100.806	19.682	16.916	0.525
420.500	282.350	80.002	19.994	100.806	19.679	17.089	0.505
421.000	282.634	80.002	19.994	100.806	19.682	16.892	0.470
421.500	282.871	80.002	19.996	100.808	19.677	17.202	0.504
422.000	283.072	80.003	19.993	100.808	19.677	17.195	0.479
422.500	283.297	80.002	19.993	100.808	19.673	17.458	0.432
423.000	283.588	80.003	19.994	100.808	19.669	17.738	0.471
423.500	283.825	80.004	19.994	100.807	19.674	17.429	0.522
424.000	284.056	80.003	19.995	100.805	19.672	17.539	0.497
424.500	284.289	80.003	19.995	100.805	19.665	18.016	0.466
425.000	284.547	80.003	19.995	100.806	19.668	17.798	0.478
425.500	284.791	80.004	19.994	100.806	19.668	17.794	0.497
426.000	285.027	80.001	19.993	100.806	19.664	18.052	0.491
426.500	285.227	80.003	19.994	100.805	19.661	18.237	0.457
427.000	285.452	80.003	19.994	100.804	19.662	18.186	0.431
427.500	285.654	80.004	19.994	100.803	19.657	18.515	0.427
428.000	285.959	80.003	19.994	100.802	19.657	18.499	0.467
428.500	286.176	80.005	19.994	100.802	19.658	18.457	0.514
429.000	286.421	80.003	19.994	100.802	19.657	18.512	0.491
429.500	286.651	80.003	19.994	100.802	19.653	18.819	0.468
430.000	286.876	80.002	19.994	100.801	19.645	19.298	0.465
430.500	287.078	80.003	19.996	100.802	19.650	18.999	0.441
431.000	287.303	80.003	19.994	100.802	19.648	19.103	0.427
431.500	287.608	80.004	19.994	100.802	19.643	19.432	0.478
432.000	287.802	80.002	19.994	100.802	19.643	19.416	0.514
432.500	288.033	80.003	19.995	100.803	19.636	19.887	0.462
433.000	288.263	80.005	19.995	100.806	19.634	20.050	0.443
433.500	288.510	80.002	19.995	100.806	19.631	20.237	0.469
434.000	288.738	80.002	19.994	100.808	19.635	19.939	0.476
434.500	288.950	80.001	19.994	100.812	19.628	20.413	0.457
435.000	289.239	80.001	19.995	100.818	19.628	20.418	0.471
435.500	289.454	80.003	19.994	100.823	19.626	20.541	0.503
436.000	289.653	80.001	19.996	100.829	19.625	20.647	0.459
436.500	289.892	80.001	19.994	100.834	19.618	21.094	0.426
437.000	290.124	80.000	19.993	100.838	19.619	20.991	0.454
437.500	290.411	80.001	19.995	100.838	19.625	20.620	0.495
438.000	290.639	80.001	19.994	100.838	19.619	20.998	0.517
438.500	290.875	80.001	19.994	100.839	19.615	21.284	0.490
439.000	291.092	80.001	19.995	100.839	19.616	21.224	0.459
439.500	291.368	80.000	19.995	100.841	19.614	21.343	0.473
440.000	291.605	80.000	19.995	100.843	19.610	21.629	0.503
440.501	291.870	80.000	19.995	100.843	19.609	21.655	0.508
441.001	292.116	80.001	19.993	100.844	19.609	21.692	0.506
441.500	292.327	80.000	19.994	100.844	19.608	21.736	0.483
442.000	292.564	80.001	19.994	100.844	19.600	22.248	0.453
442.500	292.797	80.000	19.995	100.845	19.601	22.217	0.459
443.000	293.034	80.002	19.995	100.850	19.598	22.398	0.470
443.500	293.270	80.000	19.994	100.854	19.596	22.532	0.472
444.000	293.513	80.000	19.994	100.860	19.592	22.798	0.476
444.500	293.757	80.002	19.994	100.866	19.590	22.928	0.483
445.000	293.971	80.001	19.995	100.869	19.589	22.977	0.472
445.500	294.292	80.002	19.994	100.867	19.592	22.776	0.497
446.000	294.492	80.001	19.994	100.865	19.585	23.227	0.528
446.500	294.736	80.000	19.994	100.865	19.582	23.452	0.482
447.000	294.992	80.000	19.994	100.865	19.584	23.286	0.472
447.500	295.223	79.999	19.994	100.862	19.580	23.574	0.494
448.000	295.457	80.002	19.995	100.861	19.580	23.572	0.476
448.500	295.740	80.001	19.995	100.860	19.577	23.796	0.491
449.000	295.996	80.000	19.993	100.859	19.574	23.944	0.528
449.500	296.253	80.001	19.994	100.860	19.575	23.917	0.526
450.000	296.503	79.999	19.994	100.861	19.571	24.146	0.510
450.500	296.695	80.001	19.995	100.865	19.568	24.330	0.475
451.000	296.973	80.001	19.994	100.870	19.566	24.490	0.456
451.500	297.262	80.002	19.994	100.873	19.564	24.626	0.518
452.000	297.495	80.001	19.995	100.873	19.563	24.679	0.544
452.500	297.798	80.001	19.995	100.875	19.557	25.086	0.529
453.000	297.999	80.000	19.994	100.879	19.556	25.141	0.520
453.500	298.271	80.001	19.994	100.879	19.553	25.319	0.489
454.000	298.537	80.001	19.994	100.879	19.554	25.271	0.505
454.500	298.784	80.002	19.994	100.879	19.551	25.485	0.525
455.000	299.012	80.001	19.996	100.878	19.551	25.499	0.494
455.500	299.312	80.000	19.995	100.878	19.541	26.099	0.501
456.000	299.568	80.000	19.995	100.876	19.542	26.093	0.542
456.500	299.790	80.000	19.996	100.877	19.538	26.336	0.517
457.000	300.101	80.001	19.996	100.876	19.533	26.655	0.506
457.500	300.305	80.002	19.996	100.877	19.534	26.606	0.524
458.000	300.587	80.001	19.994	100.878	19.531	26.764	0.500
458.500	300.815	80.001	19.995	100.880	19.527	27.014	0.497
459.000	301.131	80.001	19.995	100.880	19.527	27.024	0.527
459.500	301.376	80.001	19.996	100.880	19.523	27.306	0.553
460.000	301.653	80.000	19.995	100.880	19.521	27.449	0.541
460.500	301.888	80.000	19.994	100.880	19.517	27.672	0.517
461.000	302.149	80.000	19.996	100.880	19.513	27.986	0.504
461.500	302.444	79.999	19.995	100.879	19.514	27.916	0.526
462.000	302.727	80.001	19.995	100.880	19.514	27.924	0.567
462.500	302.983	80.000	19.994	100.880	19.510	28.172	0.558
463.000	303.243	79.999	19.994	100.881	19.505	28.488	0.527
463.500	303.529	80.000	19.996	100.886	19.500	28.809	0.531
464.000	303.742	80.000	19.994	100.888	19.498	28.975	0.523
464.500	304.006	80.000	19.995	100.888	19.496	29.086	0.488
465.000	304.259	80.000	19.995	100.888	19.495	29.142	0.497
465.500	304.556	80.001	19.997	100.891	19.488	29.580	0.534
466.000	304.801	80.002	19.996	100.889	19.491	29.418	0.546
466.500	305.084	80.000	19.995	100.887	19.487	29.670	0.535
467.000	305.347	79.999	19.995	100.889	19.485	29.787	0.537
467.500	305.602	79.999	19.995	100.890	19.481	30.091	0.532
468.000	305.846	80.000	19.996	100.890	19.477	30.323	0.508
468.500	306.153	80.000	19.994	100.896	19.473	30.557	0.525
469.000	306.413	80.001	19.996	100.903	19.474	30.513	0.559
469.500	306.674	79.999	19.995	100.908	19.470	30.813	0.544
470.000	306.917	79.999	19.996	100.911	19.470	30.802	0.513
470.500	307.196	80.001	19.994	100.911	19.466	31.011	0.513
471.000	307.451	80.000	19.994	100.910	19.465	31.119	0.528
471.500	307.727	80.001	19.994	100.908	19.463	31.252	0.532
472.000	308.002	80.001	19.995	100.909	19.459	31.492	0.541
472.500	308.265	80.000	19.993	100.912	19.457	31.609	0.544
473.000	308.521	80.000	19.994	100.915	19.453	31.919	0.529
473.500	308.794	80.001	19.994	100.917	19.457	31.636	0.524
474.000	309.060	80.001	19.994	100.920	19.450	32.079	0.534
474.500	309.333	80.000	19.994	100.919	19.447	32.311	0.539
475.000	309.599	80.000	19.995	100.920	19.443	32.518	0.539
475.500	309.878	80.000	19.994	100.920	19.439	32.830	0.542
476.000	310.164	80.001	19.993	100.918	19.439	32.834	0.555
476.500	310.399	80.000	19.994	100.917	19.440	32.781	0.543
477.000	310.657	80.001	19.994	100.917	19.435	33.096	0.507
477.500	310.920	80.001	19.994	100.917	19.432	33.283	0.507
478.000	311.164	80.001	19.993	100.917	19.428	33.551	0.514
478.500	311.476	80.000	19.994	100.921	19.427	33.621	0.531
479.000	311.762	80.001	19.994	100.923	19.425	33.768	0.577
479.500	312.033	80.001	19.994	100.923	19.418	34.223	0.578
480.000	312.331	80.002	19.994	100.923	19.414	34.422	0.563
480.500	312.602	80.002	19.994	100.923	19.416	34.335	0.569
481.000	312.859	80.003	19.995	100.921	19.411	34.674	0.549
481.500	313.133	80.001	19.994	100.921	19.406	34.990	0.530
482.000	313.402	80.002	19.993	100.922	19.405	35.061	0.537
482.500	313.679	80.001	19.994	100.924	19.400	35.364	0.544
483.000	313.934	80.002	19.993	100.924	19.398	35.518	0.539
483.500	314.232	80.001	19.993	100.925	19.393	35.824	0.543
484.000	314.509	80.002	19.995	100.925	19.389	36.081	0.564
484.500	314.764	80.002	19.993	100.924	19.388	36.141	0.553
485.000	315.039	80.003	19.995	100.923	19.385	36.331	0.531
485.500	315.323	80.003	19.995	100.923	19.381	36.614	0.544
486.000	315.599	80.003	19.994	100.923	19.381	36.615	0.560
486.500	315.880	80.003	19.995	100.923	19.376	36.945	0.558
487.000	316.131	80.002	19.994	100.925	19.376	36.966	0.544
487.500	316.417	80.004	19.997	100.929	19.374	37.084	0.535
488.000	316.696	80.003	19.994	100.935	19.367	37.506	0.551
488.500	316.953	80.003	19.993	100.938	19.370	37.327	0.550
489.000	317.259	80.002	19.994	100.945	19.363	37.777	0.549
489.500	317.510	80.003	19.995	100.947	19.359	38.077	0.560
490.000	317.806	80.003	19.994	100.944	19.356	38.234	0.552
490.500	318.056	80.002	19.994	100.939	19.355	38.305	0.546
491.000	318.329	80.003	19.994	100.938	19.349	38.685	0.534
491.500	318.595	80.003	19.995	100.932	19.351	38.600	0.531
492.000	318.841	80.003	19.995	100.929	19.348	38.790	0.526
492.500	319.121	80.003	19.994	100.928	19.340	39.290	0.519
493.000	319.371	80.002	19.994	100.930	19.337	39.522	0.528
493.500	319.640	80.002	19.995	100.930	19.332	39.841	0.524
494.000	319.903	80.001	19.996	100.937	19.331	39.900	0.526
494.500	320.163	80.003	19.996	100.943	19.332	39.851	0.527
495.000	320.433	80.003	19.995	100.949	19.324	40.333	0.526
495.500	320.726	80.002	19.994	100.952	19.325	40.313	0.547
496.000	320.970	80.001	19.995	100.950	19.320	40.633	0.551
496.500	321.236	80.002	19.995	100.949	19.318	40.769	0.524
497.000	321.516	80.002	19.994	100.946	19.314	41.032	0.527
497.500	321.804	80.001	19.995	100.946	19.310	41.263	0.557
498.000	322.028	80.003	19.994	100.946	19.303	41.713	0.540
498.500	322.299	80.002	19.995	100.952	19.302	41.799	0.504
499.000	322.603	80.002	19.993	100.953	19.297	42.138	0.535
499.500	322.866	80.003	19.995	100.956	19.293	42.391	0.571
500.000	323.167	80.003	19.994	100.956	19.294	42.340	0.566
500.500	323.403	80.002	19.995	100.957	19.287	42.765	0.551
501.000	323.648	80.004	19.995	100.957	19.287	42.801	0.509
501.500	323.944	80.004	19.994	100.958	19.284	42.976	0.511
502.000	324.203	80.004	19.995	100.958	19.283	43.043	0.548
502.500	324.451	80.003	19.994	100.958	19.276	43.496	0.530
503.000	324.736	80.003	19.994	100.958	19.274	43.662	0.520
503.500	324.992	80.004	19.996	100.960	19.269	43.946	0.537
504.000	325.222	80.003	19.993	100.961	19.269	43.943	0.513
504.500	325.534	80.003	19.994	100.962	19.268	44.050	0.514
505.000	325.804	80.004	19.996	100.964	19.260	44.546	0.562
505.500	326.064	80.005	19.996	100.969	19.257	44.790	0.556
506.000	326.302	80.004	19.995	100.974	19.255	44.876	0.514
506.500	326.573	80.003	19.994	100.977	19.252	45.077	0.504
507.000	326.845	80.004	19.995	100.979	19.244	45.605	0.526
507.500	327.102	80.003	19.993	100.984	19.246	45.497	0.536
508.000	327.337	80.003	19.995	100.984	19.242	45.770	0.510
508.501	327.616	80.003	19.995	100.984	19.236	46.133	0.503
509.000	327.860	80.005	19.994	100.985	19.230	46.518	0.519
509.500	328.142	80.004	19.994	100.987	19.230	46.541	0.524
510.000	328.424	80.004	19.995	100.987	19.229	46.603	0.545
510.500	328.697	80.004	19.993	100.989	19.221	47.124	0.560
511.000	328.912	80.005	19.994	100.986	19.218	47.311	0.522
511.500	329.190	80.004	19.995	100.985	19.218	47.306	0.491
512.000	329.465	80.005	19.994	100.987	19.216	47.471	0.523
512.500	329.743	80.005	19.994	100.987	19.208	47.951	0.553
513.000	329.966	80.005	19.994	100.988	19.206	48.093	0.527
513.500	330.214	80.005	19.994	100.991	19.205	48.159	0.486
514.000	330.484	80.005	19.993	100.994	19.203	48.302	0.495
514.500	330.756	80.005	19.993	100.996	19.197	48.718	0.530
515.001	330.983	80.004	19.995	100.995	19.196	48.747	0.521
515.500	331.301	80.003	19.994	100.994	19.190	49.150	0.522
516.000	331.561	80.004	19.994	100.995	19.184	49.534	0.561
516.500	331.825	80.004	19.993	100.995	19.186	49.399	0.551
517.000	332.086	80.002	19.994	100.996	19.182	49.660	0.524
517.500	332.376	80.004	19.995	100.996	19.178	49.943	0.538
518.000	332.589	80.004	19.994	100.997	19.170	50.498	0.527
518.500	332.895	80.004	19.996	100.996	19.165	50.796	0.511
519.000	333.150	80.003	19.995	100.997	19.161	51.034	0.541
519.500	333.405	80.003	19.994	100.997	19.156	51.422	0.536
520.000	333.672	80.002	19.994	100.997	19.151	51.690	0.516
520.500	333.936	80.002	19.995	100.998	19.150	51.776	0.526
521.000	334.185	80.002	19.994	100.998	19.150	51.796	0.522
521.500	334.443	80.003	19.995	100.996	19.144	52.164	0.510
522.000	334.716	80.001	19.994	100.996	19.139	52.491	0.519
522.500	334.997	80.001	19.994	100.997	19.137	52.613	0.543
523.000	335.233	80.001	19.994	100.997	19.130	53.084	0.536
523.500	335.495	80.001	19.995	100.999	19.127	53.323	0.507
524.000	335.762	80.002	19.995	101.001	19.120	53.724	0.514
524.500	336.002	80.001	19.995	101.002	19.117	53.938	0.518
525.000	336.250	80.002	19.995	101.006	19.114	54.159	0.497
525.500	336.531	80.002	19.995	101.011	19.108	54.549	0.508
526.000	336.784	80.001	19.995	101.016	19.105	54.739	0.532
526.500	337.035	80.001	19.995	101.022	19.099	55.146	0.519
527.000	337.321	80.001	19.996	101.023	19.098	55.185	0.521
527.500	337.559	80.002	19.995	101.023	19.094	55.473	0.530
528.000	337.822	80.002	19.996	101.025	19.091	55.643	0.513
528.500	338.131	80.002	19.995	101.027	19.083	56.160	0.537
529.000	338.351	80.000	19.995	101.028	19.080	56.386	0.550
529.500	338.642	80.000	19.994	101.032	19.075	56.698	0.520
530.000	338.887	80.000	19.995	101.035	19.073	56.822	0.523
530.500	339.152	80.003	19.995	101.034	19.070	57.073	0.523
531.000	339.381	80.000	19.995	101.032	19.063	57.531	0.502
531.500	339.620	80.002	19.996	101.032	19.060	57.726	0.481
532.001	339.876	80.001	19.996	101.033	19.054	58.127	0.482
532.501	340.121	80.001	19.994	101.035	19.046	58.626	0.499
533.000	340.370	80.001	19.995	101.035	19.042	58.862	0.498
533.500	340.622	80.001	19.995	101.037	19.034	59.380	0.497
534.000	340.874	80.001	19.996	101.038	19.031	59.616	0.502
534.500	341.117	80.001	19.995	101.038	19.029	59.754	0.500
535.000	341.412	80.003	19.995	101.038	19.024	60.042	0.517
535.500	341.657	80.003	19.995	101.039	19.019	60.418	0.539
536.000	341.904	80.003	19.994	101.039	19.017	60.548	0.516
536.500	342.149	80.001	19.995	101.038	19.013	60.775	0.492
537.000	342.385	79.999	19.993	101.042	19.007	61.159	0.487
537.500	342.658	80.000	19.995	101.043	19.003	61.443	0.495
538.000	342.916	80.002	19.994	101.044	18.998	61.801	0.520
538.500	343.124	80.002	19.995	101.044	18.995	61.999	0.498
539.000	343.361	80.002	19.995	101.048	18.991	62.209	0.455
539.500	343.641	80.001	19.995	101.050	18.986	62.558	0.481
540.000	343.885	80.001	19.994	101.050	18.978	63.069	0.520
540.500	344.166	80.001	19.994	101.050	18.971	63.567	0.525
541.000	344.384	80.002	19.993	101.053	18.973	63.407	0.512
541.500	344.637	80.002	19.994	101.057	18.971	63.551	0.485
542.000	344.880	80.002	19.995	101.058	18.964	63.989	0.484
542.500	345.121	80.001	19.994	101.064	18.958	64.431	0.490
543.000	345.401	80.001	19.995	101.069	18.951	64.888	0.502
543.500	345.618	80.002	19.995	101.071	18.949	65.015	0.509
544.000	345.891	80.003	19.995	101.070	18.947	65.134	0.494
544.500	346.129	80.002	19.994	101.065	18.941	65.531	0.501
545.000	346.409	80.002	19.995	101.065	18.938	65.688	0.514
545.500	346.641	80.000	19.994	101.065	18.935	65.910	0.515
546.000	346.866	80.001	19.994	101.069	18.928	66.339	0.485
546.500	347.118	80.000	19.995	101.068	18.927	66.447	0.467
547.000	347.382	80.000	19.995	101.073	18.919	66.980	0.496
547.500	347.591	80.001	19.995	101.074	18.920	66.854	0.494
548.000	347.869	80.001	19.995	101.075	18.915	67.239	0.480
548.500	348.099	80.000	19.994	101.075	18.905	67.863	0.498
549.000	348.308	80.000	19.994	101.078	18.902	68.058	0.473
549.500	348.583	80.000	19.994	101.078	18.898	68.360	0.461
550.000	348.863	80.001	19.994	101.078	18.896	68.438	0.520
550.500	349.093	80.000	19.995	101.076	18.894	68.602	0.533
551.000	349.331	80.000	19.996	101.075	18.889	68.923	0.489
551.500	349.608	80.001	19.995	101.076	18.885	69.158	0.491
552.000	349.842	80.001	19.994	101.075	18.880	69.525	0.513
552.500	350.109	80.000	19.996	101.075	18.877	69.676	0.506
553.000	350.364	80.001	19.996	101.078	18.874	69.905	0.511
553.500	350.563	80.000	19.994	101.078	18.871	70.099	0.488
554.000	350.787	79.999	19.994	101.078	18.866	70.413	0.439
554.500	351.058	79.999	19.994	101.078	18.861	70.740	0.459
555.000	351.291	80.000	19.995	101.078	18.863	70.627	0.500
555.500	351.570	80.000	19.995	101.078	18.855	71.103	0.508
556.000	351.806	80.001	19.996	101.078	18.853	71.265	0.513
556.500	352.050	80.001	19.995	101.078	18.851	71.392	0.498
557.000	352.289	80.000	19.996	101.077	18.852	71.342	0.481
557.500	352.520	80.000	19.996	101.075	18.846	71.688	0.476
558.000	352.780	80.002	19.997	101.075	18.843	71.882	0.481
558.500	353.004	80.002	19.996	101.074	18.843	71.935	0.487
559.000	353.265	80.001	19.996	101.074	18.838	72.251	0.484
559.500	353.548	80.000	19.996	101.072	18.835	72.425	0.515
560.000	353.776	80.000	19.996	101.074	18.828	72.917	0.528
560.500	354.034	79.999	19.996	101.073	18.827	72.929	0.499
561.000	354.246	80.000	19.996	101.073	18.829	72.851	0.478
561.500	354.502	80.001	19.996	101.073	18.824	73.162	0.469
562.000	354.704	80.001	19.996	101.072	18.817	73.632	0.463
562.500	354.965	80.000	19.995	101.071	18.825	73.085	0.461
563.000	355.177	80.002	19.996	101.069	18.818	73.515	0.468
563.500	355.429	80.000	19.996	101.067	18.819	73.451	0.469
564.000	355.663	80.002	19.994	101.062	18.817	73.633	0.476
564.500	355.926	80.001	19.994	101.057	18.816	73.653	0.492
565.000	356.158	80.002	19.996	101.050	18.817	73.617	0.496
565.500	356.386	80.001	19.995	101.045	18.813	73.868	0.477
566.000	356.624	80.002	19.994	101.040	18.812	73.930	0.463
566.500	356.874	80.002	19.994	101.037	18.812	73.906	0.477
567.000	357.089	80.003	19.995	101.036	18.817	73.617	0.477
567.500	357.307	80.002	19.993	101.036	18.810	74.031	0.449
568.000	357.508	80.003	19.996	101.035	18.813	73.872	0.426
568.500	357.754	80.001	19.995	101.035	18.813	73.829	0.433
569.000	357.987	80.002	19.995	101.035	18.813	73.812	0.463
569.500	358.220	80.003	19.994	101.035	18.812	73.884	0.472
570.000	358.444	80.004	19.994	101.035	18.816	73.614	0.461
570.500	358.689	80.004	19.995	101.034	18.819	73.449	0.463
571.000	358.887	80.003	19.993	101.033	18.819	73.442	0.457
571.500	359.145	80.005	19.995	101.030	18.819	73.402	0.449
572.000	359.349	80.003	19.995	101.031	18.825	73.016	0.459
572.500	359.565	80.005	19.995	101.031	18.829	72.750	0.441
573.000	359.798	80.004	19.993	101.032	18.831	72.633	0.435
573.500	360.009	80.003	19.993	101.028	18.833	72.532	0.446
574.000	360.241	80.003	19.992	101.030	18.834	72.411	0.444
574.500	360.491	80.003	19.995	101.030	18.842	71.914	0.462
575.000	360.729	80.005	19.994	101.026	18.838	72.166	0.485
575.500	360.948	80.004	19.994	101.021	18.847	71.563	0.472
576.000	361.144	80.004	19.995	101.023	18.849	71.417	0.436
576.500	361.383	80.004	19.995	101.016	18.854	71.097	0.425
577.000	361.636	80.003	19.994	101.010	18.856	70.942	0.464
577.500	361.840	80.003	19.995	101.006	18.865	70.389	0.474
578.000	362.074	80.004	19.994	101.003	18.867	70.237	0.447
578.500	362.299	80.003	19.994	100.998	18.867	70.260	0.449
579.000	362.530	80.004	19.994	100.995	18.876	69.652	0.458
579.500	362.773	80.002	19.993	100.987	18.881	69.314	0.465
580.000	363.026	80.002	19.994	100.979	18.884	69.163	0.485
580.500	363.272	80.004	19.995	100.970	18.890	68.726	0.497
581.000	363.462	80.003	19.995	100.963	18.895	68.379	0.467
581.500	363.667	80.001	19.992	100.957	18.903	67.853	0.416
582.000	363.943	80.002	19.993	100.957	18.908	67.537	0.438
582.500	364.207	80.003	19.994	100.958	18.916	67.024	0.510
583.000	364.390	80.003	19.995	100.958	18.918	66.867	0.494
583.500	364.577	80.004	19.994	100.958	18.927	66.308	0.409
584.000	364.840	80.003	19.993	100.955	18.935	65.796	0.410
584.500	365.084	80.003	19.995	100.952	18.940	65.450	0.478
585.001	365.311	80.001	19.995	100.948	18.951	64.739	0.489
585.500	365.494	80.003	19.994	100.942	18.955	64.477	0.441
586.000	365.764	80.004	19.995	100.934	18.964	63.837	0.432
586.500	365.978	80.004	19.994	100.929	18.973	63.261	0.468
587.000	366.240	80.002	19.994	100.925	18.981	62.759	0.480
587.500	366.472	80.003	19.995	100.920	18.990	62.125	0.485
588.000	366.679	80.003	19.995	100.918	19.000	61.484	0.466
588.500	366.957	80.003	19.995	100.919	19.007	61.048	0.462
589.000	367.184	80.004	19.994	100.919	19.015	60.499	0.495
589.500	367.428	80.004	19.996	100.919	19.023	60.003	0.488
590.000	367.668	80.004	19.993	100.916	19.032	59.370	0.478
590.500	367.910	80.003	19.995	100.914	19.046	58.494	0.484
591.000	368.140	80.004	19.995	100.908	19.058	57.702	0.477
591.500	368.357	80.005	19.996	100.902	19.064	57.265	0.459
592.000	368.595	80.005	19.994	100.896	19.075	56.561	0.451
592.500	368.858	80.002	19.993	100.892	19.089	55.686	0.478
593.000	369.096	80.005	19.995	100.886	19.101	54.890	0.501
593.500	369.333	80.004	19.994	100.884	19.107	54.471	0.488
594.000	369.578	80.003	19.994	100.882	19.119	53.696	0.479
594.500	369.825	80.005	19.995	100.880	19.131	52.899	0.487
595.000	370.083	80.004	19.994	100.873	19.142	52.201	0.498
595.500	370.272	80.005	19.994	100.866	19.152	51.552	0.476
596.000	370.557	80.003	19.995	100.859	19.163	50.793	0.461
596.500	370.803	80.005	19.993	100.852	19.170	50.313	0.503
597.000	371.016	80.005	19.993	100.846	19.182	49.557	0.495
597.500	371.250	80.004	19.992	100.844	19.196	48.632	0.453
598.000	371.489	80.005	19.995	100.841	19.208	47.828	0.460
598.500	371.758	80.005	19.994	100.838	19.214	47.481	0.490
599.000	371.984	80.005	19.996	100.833	19.234	46.136	0.501
599.500	372.237	80.002	19.994	100.829	19.242	45.625	0.487
600.000	372.540	80.003	19.993	100.823	19.252	44.972	0.518
600.500	372.757	80.004	19.995	100.816	19.267	43.981	0.538
601.000	372.977	80.004	19.994	100.811	19.273	43.584	0.478
601.500	373.241	80.005	19.994	100.807	19.289	42.568	0.460
602.000	373.497	80.004	19.994	100.803	19.302	41.693	0.502
602.500	373.763	80.003	19.995	100.801	19.312	41.045	0.521
603.000	374.012	80.004	19.993	100.799	19.329	39.933	0.519
603.500	374.277	80.002	19.995	100.796	19.331	39.823	0.515
604.000	374.516	80.003	19.994	100.793	19.349	38.620	0.509
604.500	374.777	80.002	19.994	100.787	19.359	37.973	0.502
605.000	375.001	80.001	19.995	100.784	19.375	36.930	0.492
605.500	375.278	80.002	19.994	100.782	19.385	36.297	0.493
606.000	375.518	80.002	19.994	100.779	19.398	35.415	0.509
606.500	375.814	80.002	19.995	100.774	19.407	34.867	0.527
607.000	376.045	80.002	19.996	100.774	19.424	33.761	0.532
607.500	376.291	80.003	19.996	100.772	19.434	33.092	0.502
608.000	376.563	80.002	19.995	100.769	19.445	32.329	0.497
608.500	376.813	80.001	19.996	100.768	19.455	31.727	0.520
609.000	377.062	80.003	19.996	100.765	19.464	31.088	0.510
609.500	377.317	80.001	19.994	100.761	19.475	30.386	0.501
610.000	377.595	80.001	19.994	100.761	19.487	29.602	0.519
610.500	377.836	80.001	19.995	100.759	19.498	28.892	0.527
611.000	378.113	80.002	19.995	100.756	19.503	28.575	0.519
611.500	378.330	80.002	19.995	100.757	19.518	27.595	0.506
612.000	378.600	80.002	19.995	100.754	19.534	26.520	0.490
612.500	378.846	80.002	19.995	100.748	19.540	26.177	0.501
613.000	379.115	80.000	19.993	100.743	19.544	25.885	0.516
613.501	379.364	80.002	19.993	100.738	19.557	25.021	0.517
614.001	379.648	80.001	19.993	100.734	19.567	24.401	0.525
614.501	379.897	80.002	19.994	100.732	19.575	23.845	0.532
615.001	380.169	80.003	19.996	100.730	19.588	23.018	0.527
615.500	380.440	80.001	19.994	100.731	19.598	22.375	0.532
616.000	380.689	80.000	19.994	100.732	19.606	21.835	0.531
616.500	380.946	80.001	19.994	100.731	19.610	21.542	0.513
617.000	381.219	80.002	19.995	100.730	19.618	21.037	0.519
617.500	381.468	79.999	19.993	100.731	19.628	20.419	0.526
618.000	381.730	80.001	19.994	100.729	19.634	19.992	0.516
618.500	381.984	80.001	19.995	100.730	19.645	19.314	0.514
619.000	382.241	80.001	19.996	100.729	19.654	18.713	0.514
619.500	382.538	79.999	19.993	100.730	19.664	18.055	0.532
620.000	382.760	80.002	19.996	100.729	19.666	17.938	0.536
620.500	383.032	80.003	19.995	100.729	19.673	17.464	0.507
621.000	383.283	80.002	19.996	100.727	19.679	17.089	0.509
621.500	383.574	80.002	19.996	100.725	19.686	16.587	0.532
622.000	383.831	80.002	19.995	100.724	19.695	16.028	0.545
622.500	384.096	80.003	19.996	100.724	19.703	15.523	0.535
623.000	384.356	80.002	19.996	100.724	19.708	15.190	0.524
623.501	384.608	80.002	19.995	100.723	19.716	14.670	0.518
624.001	384.868	80.001	19.995	100.724	19.719	14.469	0.512
624.500	385.126	80.001	19.994	100.724	19.723	14.206	0.515
625.000	385.406	80.001	19.995	100.724	19.728	13.857	0.528
625.500	385.662	80.001	19.995	100.724	19.732	13.600	0.537
626.000	385.891	80.001	19.995	100.722	19.736	13.343	0.511
626.500	386.187	80.001	19.995	100.720	19.744	12.848	0.505
627.000	386.449	80.001	19.996	100.719	19.742	12.930	0.541
627.500	386.723	80.002	19.995	100.718	19.749	12.477	0.547
628.000	386.917	80.002	19.995	100.715	19.750	12.426	0.502
628.500	387.214	80.002	19.995	100.713	19.755	12.067	0.479
629.000	387.491	80.001	19.996	100.709	19.762	11.659	0.532
629.500	387.754	80.000	19.995	100.708	19.764	11.537	0.557
630.000	387.995	80.001	19.994	100.708	19.770	11.097	0.522
630.500	388.245	80.000	19.994	100.711	19.777	10.639	0.498
631.000	388.484	80.001	19.994	100.713	19.773	10.910	0.490
631.500	388.778	80.000	19.993	100.719	19.774	10.850	0.511
632.000	389.010	80.002	19.995	100.718	19.781	10.421	0.530
632.500	389.316	80.002	19.995	100.715	19.776	10.723	0.532
633.000	389.559	80.002	19.996	100.710	19.782	10.324	0.543
633.500	389.803	80.002	19.995	100.707	19.786	10.051	0.518
634.000	390.078	80.002	19.995	100.705	19.791	9.755	0.503
634.500	390.369	80.001	19.995	100.707	19.790	9.838	0.542
635.000	390.638	80.002	19.994	100.708	19.786	10.049	0.563
635.500	390.860	80.002	19.995	100.713	19.796	9.432	0.526
636.000	391.148	80.002	19.995	100.711	19.792	9.666	0.501
636.500	391.399	80.002	19.995	100.709	19.794	9.560	0.524
637.000	391.665	80.001	19.994	100.707	19.798	9.305	0.528
637.500	391.921	80.002	19.994	100.704	19.801	9.115	0.520
638.000	392.153	80.001	19.995	100.699	19.799	9.240	0.505
638.500	392.459	80.001	19.994	100.700	19.801	9.078	0.513
639.000	392.705	80.002	19.995	100.704	19.801	9.071	0.546
639.500	392.945	80.003	19.995	100.706	19.806	8.742	0.519
640.000	393.195	80.001	19.995	100.708	19.801	9.077	0.488
640.500	393.482	80.002	19.996	100.712	19.803	8.977	0.514
641.000	393.692	80.000	19.995	100.716	19.806	8.755	0.517
641.500	393.960	80.001	19.996	100.712	19.810	8.477	0.487
642.000	394.278	80.001	19.996	100.706	19.812	8.395	0.532
642.500	394.498	80.000	19.995	100.709	19.812	8.381	0.561
643.000	394.770	80.001	19.997	100.708	19.811	8.421	0.515
643.500	395.032	80.001	19.996	100.707	19.817	8.080	0.514
644.000	395.279	80.000	19.995	100.710	19.812	8.373	0.522
644.500	395.557	80.001	19.996	100.708	19.816	8.127	0.516
645.000	395.836	80.001	19.995	100.703	19.814	8.236	0.540
645.500	396.092	80.000	19.994	100.703	19.811	8.462	0.546
646.000	396.301	80.003	19.997	100.703	19.811	8.408	0.500
646.500	396.575	80.003	19.995	100.705	19.814	8.216	0.474
647.000	396.827	80.003	19.996	100.708	19.815	8.153	0.504
647.500	397.073	80.002	19.995	100.707	19.826	7.488	0.512
648.000	397.325	80.002	19.995	100.704	19.813	8.280	0.498
648.500	397.582	80.003	19.996	100.700	19.818	7.971	0.504
649.000	397.843	80.003	19.996	100.700	19.818	8.001	0.514
649.500	398.077	80.002	19.995	100.701	19.821	7.802	0.506
650.000	398.361	80.003	19.996	100.700	19.819	7.906	0.506
650.500	398.537	80.002	19.995	100.699	19.819	7.891	0.489
651.000	398.832	80.003	19.996	100.695	19.823	7.642	0.466
651.500	399.051	80.002	19.997	100.690	19.819	7.934	0.493
652.000	399.300	80.004	19.996	100.687	19.818	8.014	0.491
652.500	399.578	80.004	19.996	100.691	19.818	7.996	0.498
653.000	399.807	80.002	19.995	100.693	19.825	7.528	0.517
653.500	400.052	80.004	19.996	100.696	19.821	7.765	0.490
654.000	400.296	80.001	19.994	100.695	19.822	7.739	0.482
654.500	400.544	80.003	19.994	100.693	19.827	7.418	0.490
655.000	400.763	80.002	19.996	100.689	19.818	7.958	0.479
655.500	401.058	80.003	19.996	100.687	19.820	7.863	0.491
656.000	401.320	80.002	19.994	100.685	19.816	8.097	0.535
656.500	401.521	80.003	19.996	100.684	19.824	7.594	0.510
657.000	401.786	80.002	19.996	100.687	19.820	7.848	0.465
657.500	402.021	80.003	19.997	100.688	19.818	8.014	0.483
658.000	402.254	80.002	19.995	100.688	19.821	7.805	0.484
658.500	402.532	80.002	19.997	100.688	19.823	7.656	0.490
659.000	402.773	80.004	19.997	100.691	19.823	7.686	0.515
659.500	403.019	80.002	19.996	100.695	19.822	7.717	0.503
660.000	403.256	80.002	19.995	100.699	19.822	7.751	0.485
660.500	403.534	80.001	19.995	100.701	19.823	7.650	0.499
661.000	403.724	80.002	19.994	100.705	19.822	7.749	0.492
661.500	403.981	80.002	19.996	100.705	19.821	7.786	0.458
662.000	404.236	80.001	19.994	100.700	19.822	7.730	0.479
662.500	404.483	80.001	19.993	100.700	19.825	7.542	0.507
663.000	404.737	80.003	19.994	100.703	19.825	7.494	0.501
663.500	404.950	80.002	19.995	100.701	19.826	7.487	0.484
664.000	405.207	80.003	19.996	100.699	19.828	7.359	0.468
664.500	405.436	80.003	19.995	100.700	19.825	7.521	0.478
665.000	405.679	80.003	19.996	100.697	19.825	7.521	0.479
665.500	405.905	80.002	19.995	100.693	19.825	7.506	0.471
666.000	406.169	80.000	19.992	100.691	19.821	7.792	0.480
666.500	406.425	80.002	19.996	100.690	19.830	7.212	0.505
667.001	406.640	80.003	19.995	100.693	19.829	7.293	0.495
667.501	406.891	80.003	19.994	100.697	19.824	7.609	0.469
668.001	407.133	80.004	19.996	100.700	19.823	7.662	0.479
668.501	407.390	80.002	19.994	100.702	19.826	7.452	0.496
669.000	407.633	80.002	19.993	100.706	19.829	7.273	0.500
669.500	407.864	80.002	19.993	100.702	19.827	7.389	0.487
670.000	408.080	80.004	19.995	100.698	19.826	7.466	0.460
670.500	408.303	80.002	19.994	100.695	19.825	7.531	0.443
671.000	408.561	80.002	19.994	100.694	19.829	7.237	0.460
671.500	408.813	80.002	19.995	100.693	19.824	7.562	0.495
672.000	409.053	80.001	19.994	100.696	19.825	7.527	0.501
672.500	409.306	80.003	19.993	100.696	19.829	7.295	0.492
673.000	409.533	80.004	19.994	100.697	19.826	7.472	0.486
673.500	409.754	80.003	19.993	100.697	19.827	7.397	0.464
674.000	410.025	80.004	19.994	100.693	19.825	7.511	0.470
674.500	410.257	80.004	19.992	100.691	19.826	7.464	0.498
675.000	410.531	80.004	19.993	100.694	19.825	7.553	0.504
675.500	410.718	80.004	19.993	100.697	19.827	7.393	0.483
676.000	410.989	80.004	19.994	100.701	19.828	7.328	0.459
676.500	411.218	80.003	19.995	100.709	19.826	7.455	0.479
677.000	411.469	80.004	19.994	100.708	19.829	7.270	0.490
677.500	411.715	80.005	19.994	100.707	19.828	7.334	0.488
678.000	411.952	80.002	19.995	100.706	19.827	7.366	0.490
678.500	412.187	80.003	19.995	100.707	19.831	7.105	0.478
679.000	412.407	80.004	19.994	100.703	19.828	7.318	0.464
679.500	412.639	80.004	19.994	100.702	19.829	7.274	0.454
680.000	412.905	80.004	19.993	100.701	19.828	7.321	0.475
680.500	413.117	80.004	19.993	100.702	19.829	7.242	0.488
681.000	413.346	80.005	19.995	100.696	19.829	7.242	0.460
681.500	413.595	80.003	19.994	100.693	19.827	7.426	0.459
682.000	413.852	80.005	19.993	100.692	19.828	7.331	0.491
682.500	414.058	80.004	19.993	100.690	19.826	7.441	0.484
683.000	414.270	80.006	19.994	100.687	19.824	7.613	0.441
683.500	414.517	80.005	19.995	100.688	19.832	7.052	0.439
684.000	414.740	80.004	19.993	100.688	19.832	7.075	0.465
684.500	415.003	80.004	19.995	100.688	19.832	7.040	0.478
685.000	415.248	80.005	19.993	100.689	19.832	7.061	0.497
685.500	415.487	80.001	19.993	100.688	19.827	7.407	0.496
686.001	415.713	80.002	19.993	100.687	19.829	7.242	0.475
686.501	415.929	80.003	19.994	100.687	19.835	6.890	0.454
687.000	416.184	80.003	19.994	100.687	19.832	7.099	0.456
687.500	416.415	80.003	19.993	100.689	19.831	7.142	0.478
688.000	416.624	80.001	19.993	100.693	19.834	6.909	0.463
688.500	416.871	80.002	19.993	100.696	19.831	7.126	0.448
689.000	417.103	80.002	19.994	100.696	19.831	7.145	0.468
689.500	417.397	80.003	19.995	100.696	19.832	7.096	0.503
690.000	417.600	80.003	19.994	100.693	19.831	7.141	0.511
690.500	417.822	80.003	19.995	100.688	19.833	6.976	0.461
691.000	418.048	80.002	19.994	100.686	19.836	6.777	0.437
691.500	418.286	80.002	19.994	100.686	19.828	7.344	0.456
692.000	418.538	80.001	19.994	100.685	19.833	6.987	0.477
692.500	418.761	80.002	19.994	100.684	19.834	6.948	0.483
693.000	418.985	80.003	19.993	100.685	19.834	6.934	0.461
693.500	419.204	80.001	19.994	100.686	19.840	6.568	0.445
694.000	419.426	80.003	19.996	100.687	19.841	6.503	0.442
694.500	419.694	80.001	19.996	100.688	19.833	6.978	0.466
695.000	419.928	80.002	19.994	100.688	19.840	6.538	0.496
695.500	420.143	80.001	19.993	100.688	19.834	6.908	0.475
696.000	420.377	80.001	19.995	100.687	19.838	6.667	0.449
696.500	420.598	80.002	19.995	100.687	19.837	6.757	0.452
697.000	420.862	80.001	19.994	100.687	19.832	7.044	0.470
697.500	421.105	80.003	19.995	100.687	19.832	7.047	0.495
698.000	421.317	80.002	19.995	100.687	19.842	6.424	0.481
698.500	421.578	80.002	19.995	100.687	19.843	6.350	0.464
699.000	421.811	80.000	19.993	100.686	19.840	6.559	0.483
699.500	422.040	80.000	19.994	100.685	19.833	7.031	0.478
700.000	422.275	80.002	19.994	100.685	19.839	6.620	0.463
700.500	422.510	80.002	19.994	100.685	19.834	6.933	0.467
701.000	422.744	80.001	19.992	100.684	19.843	6.328	0.470
701.500	422.980	80.002	19.995	100.683	19.841	6.490	0.470
702.000	423.218	80.001	19.995	100.683	19.838	6.687	0.472
702.500	423.464	80.001	19.993	100.683	19.838	6.685	0.479
703.000	423.706	80.003	19.995	100.683	19.840	6.573	0.486
703.500	423.964	80.004	19.994	100.683	19.838	6.652	0.494
704.000	424.177	80.003	19.994	100.684	19.835	6.893	0.485
704.500	424.377	80.002	19.996	100.684	19.832	7.039	0.442
705.000	424.595	80.002	19.994	100.684	19.845	6.225	0.416
705.500	424.869	80.002	19.993	100.684	19.840	6.542	0.455
706.000	425.065	80.003	19.994	100.685	19.834	6.915	0.481
706.500	425.362	80.002	19.994	100.691	19.844	6.297	0.481
707.000	425.550	80.002	19.993	100.697	19.841	6.505	0.489
707.500	425.811	80.002	19.995	100.697	19.841	6.452	0.467
708.000	426.058	80.003	19.994	100.697	19.838	6.694	0.479
708.500	426.252	80.002	19.994	100.697	19.837	6.742	0.475
709.000	426.531	80.002	19.995	100.691	19.834	6.937	0.457
709.500	426.807	80.002	19.993	100.685	19.837	6.756	0.514
710.000	427.015	80.003	19.995	100.688	19.837	6.733	0.520
710.500	427.222	80.002	19.994	100.690	19.844	6.293	0.449
711.000	427.474	80.001	19.993	100.694	19.839	6.603	0.436
711.500	427.717	80.003	19.994	100.696	19.839	6.635	0.477
712.000	427.969	80.002	19.995	100.700	19.839	6.581	0.495
712.500	428.230	80.002	19.996	100.701	19.841	6.498	0.504
713.000	428.459	80.002	19.995	100.703	19.844	6.308	0.501
713.500	428.679	80.002	19.994	100.704	19.837	6.749	0.469
714.000	428.964	80.001	19.994	100.702	19.840	6.536	0.477
714.500	429.201	80.001	19.992	100.702	19.840	6.517	0.514
715.000	429.461	80.002	19.996	100.703	19.839	6.586	0.510
715.500	429.676	80.002	19.995	100.706	19.838	6.651	0.486
716.000	429.939	80.002	19.994	100.708	19.847	6.067	0.477
716.500	430.176	80.002	19.995	100.715	19.841	6.508	0.489
717.000	430.423	80.001	19.997	100.718	19.842	6.399	0.492
717.500	430.670	80.000	19.995	100.716	19.837	6.728	0.488
718.000	430.907	80.001	19.994	100.712	19.842	6.439	0.489
718.500	431.205	80.002	19.996	100.708	19.844	6.298	0.510
719.000	431.437	80.001	19.995	100.706	19.843	6.346	0.532
719.500	431.697	80.003	19.996	100.706	19.844	6.293	0.511
720.001	431.969	80.001	19.994	100.706	19.838	6.650	0.512
720.501	432.230	80.000	19.995	100.705	19.843	6.328	0.533
721.000	432.451	80.000	19.996	100.706	19.842	6.407	0.508
721.500	432.720	80.001	19.995	100.709	19.840	6.563	0.486
722.000	432.991	80.001	19.996	100.710	19.840	6.575	0.515
722.500	433.231	80.001	19.995	100.711	19.846	6.148	0.526
723.000	433.519	80.001	19.993	100.716	19.843	6.374	0.520
723.500	433.772	80.001	19.995	100.717	19.842	6.402	0.535
724.000	434.041	80.001	19.994	100.712	19.846	6.133	0.531
724.500	434.309	80.001	19.996	100.709	19.845	6.238	0.529
725.000	434.596	80.000	19.994	100.711	19.842	6.389	0.546
725.500	434.863	80.000	19.995	100.712	19.849	5.966	0.554
726.000	435.140	79.999	19.993	100.712	19.848	6.011	0.549
726.500	435.419	80.001	19.995	100.714	19.847	6.078	0.550
727.000	435.620	80.001	19.996	100.719	19.849	5.957	0.518
727.500	435.932	80.002	19.998	100.716	19.845	6.191	0.496
728.000	436.179	80.000	19.995	100.712	19.849	5.951	0.536
728.500	436.457	80.001	19.995	100.709	19.844	6.285	0.542
729.000	436.707	80.001	19.996	100.706	19.847	6.108	0.527
729.500	436.997	80.001	19.994	100.703	19.851	5.821	0.534
730.000	437.302	80.001	19.995	100.700	19.849	5.977	0.567
730.500	437.539	80.000	19.996	100.698	19.848	6.042	0.569
731.000	437.819	80.002	19.996	100.698	19.848	6.042	0.530
731.500	438.075	80.002	19.994	100.702	19.854	5.615	0.526
732.000	438.361	80.002	19.995	100.703	19.849	5.970	0.539
732.500	438.652	80.002	19.995	100.710	19.846	6.121	0.559
733.000	438.900	80.002	19.996	100.713	19.849	5.961	0.558
733.500	439.186	80.002	19.996	100.713	19.852	5.766	0.537
734.000	439.442	80.001	19.995	100.711	19.848	6.014	0.538
734.500	439.730	80.001	19.995	100.708	19.852	5.752	0.543
735.000	440.022	80.001	19.993	100.703	19.851	5.854	0.562
735.500	440.297	80.002	19.994	100.699	19.848	6.039	0.573
736.000	440.562	80.001	19.994	100.697	19.849	5.953	0.553
736.500	440.834	80.003	19.996	100.698	19.845	6.232	0.538
737.000	441.071	80.003	19.995	100.699	19.849	5.977	0.523
737.500	441.363	80.005	19.995	100.699	19.848	6.032	0.519
738.000	441.645	80.003	19.993	100.702	19.857	5.457	0.552
738.500	441.915	80.002	19.995	100.702	19.849	5.951	0.563
739.000	442.171	80.003	19.993	100.697	19.851	5.859	0.539
739.500	442.454	80.004	19.996	100.693	19.851	5.856	0.532
740.000	442.730	80.005	19.994	100.691	19.852	5.759	0.549
740.500	443.015	80.002	19.994	100.690	19.856	5.498	0.560
741.000	443.316	80.003	19.994	100.690	19.853	5.679	0.574
741.500	443.543	80.003	19.993	100.690	19.852	5.781	0.557
742.000	443.821	80.003	19.995	100.689	19.854	5.654	0.516
742.500	444.074	80.004	19.996	100.689	19.854	5.610	0.518
743.000	444.317	80.002	19.995	100.687	19.850	5.863	0.514
743.500	444.593	80.002	19.995	100.687	19.856	5.518	0.508
744.000	444.867	80.003	19.994	100.687	19.854	5.624	0.534
744.500	445.123	80.001	19.994	100.687	19.852	5.773	0.540
745.000	445.406	80.003	19.996	100.687	19.852	5.778	0.535
745.500	445.684	80.003	19.995	100.689	19.855	5.564	0.550
746.000	445.928	80.001	19.995	100.689	19.853	5.727	0.541
746.500	446.200	80.003	19.994	100.689	19.854	5.601	0.519
747.000	446.486	80.003	19.995	100.689	19.849	5.956	0.537
747.500	446.765	80.001	19.996	100.690	19.855	5.597	0.562
748.000	447.023	80.001	19.994	100.688	19.851	5.815	0.551
748.500	447.263	80.002	19.995	100.688	19.858	5.388	0.518
749.000	447.509	80.002	19.996	100.687	19.852	5.789	0.492
749.500	447.784	80.001	19.996	100.689	19.851	5.798	0.504
750.000	448.067	80.003	19.995	100.689	19.854	5.659	0.540
750.500	448.321	80.000	19.994	100.691	19.855	5.557	0.547
751.000	448.608	80.003	19.996	100.692	19.859	5.277	0.539
751.500	448.903	80.001	19.995	100.698	19.852	5.769	0.562
752.000	449.160	80.002	19.994	100.699	19.856	5.504	0.567
752.500	449.493	80.001	19.995	100.701	19.856	5.484	0.571
753.000	449.734	80.002	19.995	100.698	19.853	5.690	0.582
753.501	449.991	80.002	19.994	100.697	19.853	5.667	0.536
754.001	450.246	80.003	19.996	100.691	19.861	5.185	0.505
754.501	450.535	80.002	19.996	100.688	19.856	5.490	0.528
755.000	450.827	80.001	19.994	100.686	19.857	5.409	0.562
755.500	451.091	80.003	19.995	100.686	19.857	5.455	0.569
756.000	451.365	80.003	19.995	100.687	19.861	5.179	0.548
756.500	451.637	80.003	19.995	100.687	19.857	5.423	0.542
757.000	451.914	80.004	19.997	100.687	19.857	5.456	0.547
757.500	452.199	80.004	19.996	100.685	19.858	5.393	0.555
758.000	452.465	80.003	19.993	100.684	19.855	5.551	0.556
758.500	452.753	80.003	19.993	100.683	19.857	5.419	0.552
759.000	453.019	80.005	19.994	100.682	19.860	5.268	0.554
759.500	453.333	80.003	19.994	100.684	19.857	5.419	0.567
760.000	453.579	80.005	19.994	100.686	19.859	5.289	0.570
760.500	453.842	80.003	19.994	100.687	19.864	5.009	0.535
761.000	454.081	80.005	19.993	100.688	19.856	5.504	0.506
761.500	454.378	80.004	19.994	100.687	19.860	5.261	0.519
762.000	454.690	80.006	19.993	100.686	19.859	5.330	0.573
762.500	454.975	80.005	19.993	100.684	19.860	5.224	0.603
763.000	455.262	80.004	19.993	100.683	19.856	5.504	0.584
763.500	455.541	80.006	19.993	100.683	19.860	5.270	0.569
764.000	455.782	80.004	19.994	100.684	19.857	5.455	0.543
764.500	456.079	80.005	19.994	100.683	19.855	5.580	0.529
765.000	456.402	80.006	19.995	100.683	19.861	5.191	0.579
765.500	456.646	80.004	19.994	100.684	19.859	5.317	0.593
766.000	456.902	80.007	19.995	100.685	19.854	5.599	0.534
766.500	457.186	80.005	19.995	100.686	19.857	5.456	0.520
767.000	457.465	80.005	19.994	100.687	19.859	5.319	0.551
767.500	457.727	80.004	19.993	100.686	19.858	5.370	0.552
768.000	458.014	80.005	19.995	100.685	19.861	5.191	0.545
768.500	458.263	80.005	19.994	100.685	19.860	5.268	0.542
769.000	458.609	80.003	19.994	100.683	19.863	5.061	0.565
769.500	458.825	80.005	19.994	100.683	19.859	5.326	0.579
770.000	459.125	80.003	19.995	100.681	19.863	5.024	0.539
770.500	459.419	80.003	19.994	100.681	19.861	5.150	0.555
771.000	459.708	80.004	19.994	100.680	19.860	5.226	0.589
771.500	459.967	80.003	19.994	100.681	19.860	5.263	0.565
772.000	460.243	80.001	19.994	100.681	19.862	5.096	0.541
772.500	460.499	80.001	19.994	100.683	19.861	5.159	0.533
773.000	460.754	80.003	19.996	100.683	19.860	5.221	0.522
773.500	461.055	80.001	19.993	100.685	19.860	5.242	0.534
774.000	461.329	80.003	19.994	100.685	19.862	5.108	0.565
774.500	461.617	80.001	19.995	100.686	19.863	5.017	0.568
775.000	461.879	80.001	19.995	100.686	19.860	5.265	0.556
775.500	462.153	80.002	19.993	100.686	19.862	5.108	0.543
776.000	462.387	80.002	19.994	100.685	19.866	4.879	0.522
776.500	462.689	80.001	19.994	100.686	19.860	5.236	0.522
777.000	462.958	80.002	19.995	100.685	19.864	4.953	0.553
777.500	463.197	80.003	19.995	100.685	19.868	4.700	0.539
778.000	463.453	80.001	19.995	100.684	19.865	4.920	0.502
778.500	463.767	80.004	19.995	100.685	19.866	4.837	0.533
779.000	464.016	80.002	19.995	100.685	19.865	4.906	0.566
779.500	464.243	80.002	19.995	100.686	19.865	4.902	0.519
780.000	464.543	80.001	19.993	100.686	19.870	4.614	0.502
780.500	464.866	80.001	19.994	100.687	19.865	4.911	0.575
781.000	465.124	80.003	19.995	100.686	19.866	4.818	0.602
781.500	465.375	80.002	19.994	100.686	19.867	4.804	0.545
782.000	465.663	80.003	19.996	100.684	19.867	4.791	0.524
782.500	465.938	80.003	19.994	100.684	19.867	4.769	0.551
783.000	466.175	80.002	19.995	100.685	19.868	4.744	0.538
783.501	466.467	80.003	19.996	100.685	19.869	4.668	0.521
784.001	466.757	80.003	19.995	100.685	19.872	4.452	0.555
784.500	467.022	80.001	19.995	100.685	19.869	4.623	0.569
785.000	467.324	80.001	19.994	100.685	19.872	4.457	0.561
785.500	467.588	80.002	19.994	100.684	19.874	4.311	0.566
786.000	467.839	80.001	19.995	100.684	19.871	4.491	0.540
786.500	468.087	80.002	19.996	100.684	19.870	4.586	0.507
787.000	468.363	80.002	19.995	100.685	19.870	4.563	0.512
787.500	468.656	80.003	19.996	100.685	19.873	4.404	0.546
788.000	468.921	80.002	19.995	100.685	19.871	4.548	0.564
788.500	469.215	80.001	19.994	100.686	19.869	4.670	0.559
789.000	469.498	80.003	19.995	100.685	19.874	4.311	0.568
789.500	469.766	80.004	19.995	100.684	19.873	4.418	0.564
790.000	470.022	80.002	19.995	100.681	19.873	4.375	0.538
790.500	470.281	80.003	19.995	100.680	19.871	4.524	0.520
791.000	470.587	80.002	19.994	100.680	19.874	4.303	0.540
791.500	470.857	80.003	19.995	100.680	19.871	4.498	0.570
792.000	471.121	80.001	19.994	100.681	19.869	4.651	0.555
792.501	471.364	80.003	19.995	100.685	19.874	4.310	0.521
793.000	471.676	80.002	19.994	100.685	19.870	4.589	0.531
793.500	471.918	80.002	19.994	100.685	19.871	4.545	0.554
794.000	472.218	80.003	19.994	100.686	19.874	4.302	0.548
794.501	472.504	80.003	19.994	100.685	19.877	4.141	0.564
795.001	472.757	80.003	19.994	100.684	19.873	4.403	0.562
795.500	473.039	80.001	19.994	100.686	19.876	4.172	0.537
796.000	473.262	80.003	19.995	100.686	19.874	4.294	0.520
796.500	473.579	80.002	19.994	100.686	19.872	4.461	0.522
797.000	473.859	80.002	19.994	100.686	19.876	4.220	0.568
797.500	474.115	80.002	19.993	100.686	19.878	4.084	0.567
798.000	474.416	80.002	19.994	100.685	19.882	3.831	0.547
798.500	474.737	80.001	19.994	100.679	19.874	4.336	0.589
799.000	474.935	80.002	19.993	100.679	19.883	3.768	0.570
799.500	475.240	80.003	19.994	100.679	19.879	3.970	0.511
800.000	475.540	80.002	19.994	100.680	19.877	4.130	0.554
800.500	475.785	80.002	19.993	100.681	19.879	3.996	0.574
801.000	476.069	80.002	19.993	100.686	19.880	3.951	0.537
801.500	476.281	80.001	19.993	100.687	19.880	3.935	0.513
802.000	476.600	80.002	19.994	100.687	19.880	3.942	0.514
802.500	476.832	80.002	19.993	100.686	19.884	3.648	0.541
803.000	477.120	80.003	19.994	100.686	19.883	3.736	0.535
803.500	477.407	80.002	19.994	100.687	19.884	3.683	0.547
804.000	477.667	80.001	19.993	100.687	19.882	3.803	0.561
804.500	477.969	80.002	19.995	100.685	19.882	3.829	0.555
805.000	478.214	80.002	19.995	100.685	19.882	3.778	0.554
805.500	478.452	80.002	19.995	100.686	19.884	3.701	0.515
806.000	478.706	80.002	19.994	100.686	19.882	3.813	0.488
806.500	478.983	80.001	19.994	100.686	19.883	3.715	0.512
807.000	479.279	80.002	19.994	100.688	19.884	3.683	0.552
807.500	479.539	80.002	19.994	100.688	19.883	3.746	0.564
808.000	479.798	80.001	19.994	100.688	19.879	3.966	0.537
808.500	480.024	80.000	19.994	100.688	19.880	3.929	0.502
809.000	480.322	80.002	19.994	100.689	19.885	3.599	0.505
809.500	480.598	80.001	19.993	100.688	19.881	3.849	0.549
810.000	480.832	80.001	19.994	100.688	19.881	3.856	0.542
810.500	481.109	80.000	19.994	100.688	19.885	3.600	0.511
811.000	481.383	80.000	19.994	100.687	19.882	3.780	0.531
811.500	481.655	80.003	19.995	100.686	19.886	3.563	0.548
812.000	481.967	80.001	19.995	100.686	19.884	3.669	0.565
812.500	482.166	80.003	19.994	100.686	19.889	3.354	0.547
813.000	482.495	80.001	19.993	100.687	19.885	3.582	0.520
813.500	482.760	80.003	19.997	100.688	19.885	3.594	0.562
814.000	482.962	80.002	19.995	100.689	19.881	3.837	0.531
814.500	483.208	80.001	19.995	100.689	19.887	3.496	0.457
815.000	483.518	80.001	19.995	100.688	19.882	3.802	0.502
815.500	483.791	80.001	19.995	100.687	19.878	4.050	0.570
816.000	484.048	80.000	19.995	100.685	19.882	3.776	0.557
816.500	484.311	80.001	19.995	100.683	19.879	3.994	0.525
817.000	484.572	80.001	19.994	100.680	19.887	3.502	0.522
817.500	484.843	80.003	19.994	100.677	19.882	3.813	0.528
818.000	485.075	80.001	19.994	100.674	19.886	3.519	0.518
818.500	485.350	80.002	19.994	100.674	19.884	3.700	0.505
819.000	485.647	80.004	19.995	100.676	19.882	3.827	0.539
819.500	485.892	80.003	19.995	100.678	19.883	3.709	0.557
820.000	486.165	80.003	19.995	100.678	19.885	3.630	0.531
820.500	486.439	80.002	19.996	100.681	19.883	3.750	0.533
821.000	486.697	80.005	19.995	100.682	19.878	4.087	0.539
821.500	486.957	80.004	19.995	100.677	19.881	3.838	0.525
822.000	487.204	80.004	19.994	100.671	19.883	3.734	0.512
822.500	487.480	80.004	19.995	100.669	19.881	3.896	0.515
823.000	487.743	80.004	19.994	100.665	19.880	3.918	0.532
823.500	488.007	80.003	19.994	100.660	19.880	3.936	0.533
824.000	488.246	80.003	19.996	100.660	19.881	3.880	0.515
824.500	488.509	80.003	19.995	100.660	19.884	3.670	0.503
825.000	488.803	80.003	19.994	100.662	19.886	3.523	0.530
825.500	489.043	80.004	19.995	100.666	19.889	3.357	0.546
826.000	489.318	80.005	19.995	100.670	19.885	3.612	0.524
826.500	489.554	80.002	19.995	100.673	19.884	3.653	0.512
827.000	489.837	80.003	19.994	100.679	19.883	3.748	0.514
827.500	490.080	80.002	19.996	100.681	19.887	3.459	0.523
828.000	490.358	80.004	19.992	100.681	19.885	3.584	0.524
828.500	490.613	80.002	19.996	100.675	19.885	3.599	0.527
829.000	490.853	80.002	19.993	100.670	19.887	3.495	0.514
829.500	491.076	80.003	19.993	100.668	19.886	3.569	0.479
830.000	491.343	80.002	19.993	100.668	19.883	3.711	0.476
830.500	491.613	80.002	19.995	100.670	19.888	3.433	0.514
831.000	491.906	80.002	19.996	100.676	19.883	3.725	0.550
831.500	492.155	80.003	19.996	100.679	19.887	3.507	0.552
832.000	492.398	80.003	19.994	100.675	19.886	3.524	0.517
832.500	492.644	80.003	19.996	100.671	19.887	3.463	0.491
833.000	492.943	80.003	19.992	100.670	19.884	3.669	0.517
833.500	493.219	80.003	19.995	100.668	19.888	3.414	0.560
834.000	493.474	80.003	19.994	100.670	19.885	3.632	0.553
834.500	493.710	80.002	19.996	100.672	19.885	3.576	0.511
835.000	493.995	80.003	19.994	100.673	19.888	3.407	0.506
835.500	494.234	80.003	19.995	100.667	19.887	3.444	0.523
836.000	494.510	80.003	19.995	100.666	19.893	3.096	0.520
836.500	494.774	80.005	19.995	100.665	19.890	3.268	0.527
837.000	495.033	80.002	19.993	100.664	19.891	3.203	0.531
837.500	495.328	80.004	19.994	100.666	19.895	2.967	0.539
838.000	495.562	80.003	19.992	100.670	19.896	2.902	0.542
838.500	495.829	80.004	19.993	100.671	19.889	3.347	0.515
839.000	496.112	80.004	19.995	100.673	19.892	3.118	0.525
839.500	496.369	80.003	19.995	100.676	19.895	2.937	0.545
840.001	496.606	80.003	19.995	100.677	19.898	2.763	0.517
840.500	496.850	80.003	19.996	100.679	19.893	3.108	0.487
841.000	497.147	80.004	19.995	100.676	19.898	2.789	0.511
841.500	497.376	80.004	19.995	100.669	19.899	2.680	0.534
842.000	497.688	80.004	19.995	100.667	19.892	3.179	0.533
842.500	497.927	80.003	19.995	100.668	19.892	3.164	0.545
843.000	498.176	80.004	19.994	100.667	19.901	2.553	0.519
843.500	498.400	80.004	19.995	100.672	19.896	2.895	0.480
844.000	498.683	80.004	19.995	100.675	19.893	3.063	0.490
844.501	498.974	80.004	19.995	100.676	19.893	3.053	0.541
845.000	499.211	80.003	19.994	100.675	19.893	3.095	0.551
845.500	499.506	80.003	19.995	100.676	19.895	2.921	0.530
846.000	499.768	80.004	19.993	100.676	19.895	2.927	0.544
846.500	499.999	80.003	19.997	100.678	19.894	2.995	0.524
847.000	500.198	80.004	19.996	100.679	19.892	3.131	0.461
847.500	500.518	80.005	19.995	100.680	19.895	2.962	0.475
848.000	500.774	80.004	19.995	100.676	19.891	3.212	0.548
848.500	501.019	80.003	19.995	100.677	19.899	2.724	0.539
849.000	501.275	80.003	19.996	100.678	19.894	3.023	0.501
849.500	501.543	80.003	19.998	100.678	19.894	3.015	0.512
850.000	501.828	80.004	19.997	100.676	19.896	2.893	0.539
850.500	502.051	80.004	19.996	100.675	19.896	2.890	0.531
851.000	502.300	80.003	19.996	100.673	19.892	3.166	0.490
851.500	502.570	80.002	19.997	100.668	19.895	2.955	0.495
852.000	502.847	80.003	19.995	100.662	19.896	2.918	0.533
852.500	503.074	80.002	19.995	100.661	19.894	3.037	0.526
853.000	503.359	80.003	19.994	100.658	19.895	2.971	0.508
853.500	503.636	80.004	19.995	100.660	19.894	3.025	0.537
854.000	503.854	80.001	19.995	100.661	19.896	2.899	0.529
854.500	504.136	80.004	19.994	100.661	19.895	2.939	0.498
855.000	504.406	80.003	19.995	100.661	19.890	3.256	0.526
855.500	504.643	80.002	19.995	100.665	19.894	2.999	0.529
856.000	504.878	80.002	19.995	100.666	19.894	3.050	0.489
856.500	505.145	80.001	19.994	100.667	19.896	2.879	0.487
857.000	505.411	80.003	19.994	100.673	19.898	2.768	0.517
857.500	505.649	80.002	19.996	100.677	19.898	2.737	0.519
858.000	505.883	80.001	19.995	100.678	19.896	2.890	0.488
858.501	506.145	80.004	19.992	100.679	19.899	2.693	0.484
859.000	506.391	80.004	19.993	100.678	19.901	2.575	0.502
859.500	506.682	80.002	19.995	100.678	19.896	2.874	0.522
860.000	506.921	80.002	19.995	100.676	19.902	2.524	0.533
860.500	507.191	80.002	19.994	100.675	19.901	2.563	0.520
861.000	507.410	80.003	19.992	100.671	19.899	2.703	0.499
861.500	507.699	80.000	19.995	100.669	19.901	2.585	0.498
862.000	507.918	80.001	19.994	100.668	19.898	2.749	0.508
862.500	508.190	80.002	19.995	100.668	19.900	2.613	0.500
863.000	508.422	80.002	19.995	100.670	19.897	2.807	0.497
863.500	508.688	80.003	19.994	100.671	19.896	2.891	0.501
864.000	508.919	80.002	19.994	100.677	19.897	2.812	0.498
864.500	509.162	80.000	19.994	100.678	19.893	3.062	0.486
865.000	509.426	80.001	19.995	100.679	19.895	2.977	0.490
865.500	509.669	80.000	19.994	100.679	19.898	2.771	0.507
866.000	509.924	80.002	19.993	100.677	19.896	2.914	0.502
866.500	510.240	80.002	19.994	100.675	19.895	2.931	0.535
867.000	510.449	80.001	19.996	100.675	19.894	3.033	0.548
867.500	510.655	80.002	19.993	100.674	19.894	3.002	0.470
868.000	510.899	80.002	19.995	100.672	19.895	2.961	0.432
868.500	511.191	80.002	19.997	100.675	19.901	2.592	0.493
869.000	511.417	80.002	19.995	100.675	19.894	3.045	0.527
869.500	511.692	80.001	19.994	100.675	19.897	2.837	0.509
870.000	511.921	80.002	19.995	100.675	19.898	2.765	0.502
870.500	512.175	80.002	19.995	100.677	19.896	2.920	0.493
871.000	512.452	80.003	19.996	100.676	19.899	2.721	0.507
871.500	512.686	80.003	19.995	100.674	19.897	2.812	0.521
872.000	512.922	80.001	19.993	100.670	19.895	2.935	0.491
872.500	513.228	80.003	19.995	100.668	19.900	2.638	0.506
873.000	513.480	80.002	19.994	100.664	19.905	2.283	0.549
873.500	513.730	80.005	19.995	100.662	19.905	2.299	0.530
874.000	513.971	80.002	19.995	100.662	19.901	2.552	0.497
874.500	514.240	80.000	19.995	100.662	19.904	2.397	0.500
875.000	514.503	80.001	19.995	100.661	19.902	2.515	0.521
875.500	514.744	80.002	19.994	100.661	19.900	2.626	0.518
876.000	514.969	80.003	19.997	100.660	19.907	2.156	0.485
876.500	515.261	80.002	19.996	100.657	19.898	2.735	0.491
877.000	515.478	80.002	19.996	100.656	19.901	2.592	0.513
877.500	515.774	80.001	19.996	100.655	19.903	2.418	0.511
878.000	515.989	80.001	19.995	100.655	19.901	2.554	0.512
878.500	516.232	80.001	19.995	100.657	19.898	2.774	0.484
879.000	516.491	80.001	19.994	100.663	19.900	2.654	0.480
879.500	516.726	80.001	19.993	100.669	19.906	2.244	0.498
880.000	516.967	80.004	19.995	100.675	19.904	2.371	0.485
880.500	517.249	80.001	19.995	100.680	19.901	2.570	0.499
881.000	517.479	80.001	19.995	100.676	19.903	2.443	0.517
881.500	517.737	80.002	19.995	100.671	19.902	2.492	0.500
882.000	517.997	80.002	19.994	100.664	19.906	2.253	0.503
882.500	518.260	80.001	19.995	100.658	19.903	2.430	0.521
883.000	518.514	80.003	19.995	100.657	19.902	2.488	0.520
883.500	518.784	80.003	19.995	100.663	19.903	2.430	0.520
884.000	519.035	80.001	19.993	100.667	19.901	2.590	0.523
884.500	519.266	80.002	19.994	100.669	19.904	2.386	0.502
885.000	519.536	80.001	19.993	100.671	19.906	2.239	0.491
885.500	519.767	80.002	19.995	100.672	19.900	2.627	0.501
886.000	520.026	80.002	19.995	100.670	19.904	2.341	0.496
886.500	520.292	80.001	19.993	100.670	19.902	2.494	0.507
887.000	520.529	80.001	19.994	100.672	19.901	2.584	0.514
887.500	520.820	80.002	19.993	100.675	19.903	2.441	0.515
888.000	521.072	80.003	19.995	100.675	19.903	2.441	0.536
888.500	521.301	80.001	19.994	100.678	19.901	2.569	0.512
889.000	521.576	80.001	19.997	100.676	19.907	2.154	0.492
889.500	521.826	80.001	19.993	100.674	19.906	2.207	0.515
890.000	522.058	80.001	19.996	100.672	19.902	2.488	0.503
890.500	522.277	80.003	19.994	100.671	19.906	2.249	0.466
891.000	522.533	80.002	19.993	100.670	19.906	2.205	0.463
891.500	522.789	80.001	19.995	100.671	19.904	2.388	0.494
892.000	523.061	80.003	19.991	100.675	19.903	2.434	0.520
892.500	523.307	80.004	19.993	100.676	19.904	2.362	0.523
893.000	523.565	80.001	19.994	100.670	19.906	2.251	0.512
893.500	523.824	80.002	19.998	100.666	19.906	2.232	0.511
894.000	524.050	80.002	19.994	100.660	19.914	1.731	0.500
894.500	524.312	80.003	19.995	100.656	19.907	2.174	0.486
895.000	524.553	80.001	19.993	100.652	19.905	2.316	0.496
895.500	524.781	80.001	19.994	100.655	19.908	2.089	0.486
896.000	525.056	80.003	19.992	100.660	19.910	1.955	0.485
896.500	525.296	80.003	19.995	100.667	19.907	2.186	0.509
897.000	525.552	80.002	19.994	100.669	19.907	2.165	0.506
897.500	525.795	80.002	19.996	100.671	19.910	1.959	0.498
898.000	526.052	80.001	19.991	100.672	19.907	2.172	0.499
898.500	526.312	80.003	19.995	100.672	19.905	2.309	0.508
899.000	526.532	80.002	19.995	100.668	19.905	2.316	0.499
899.500	526.763	80.003	19.994	100.665	19.904	2.360	0.466
900.000	527.048	80.003	19.995	100.664	19.906	2.242	0.484
900.500	527.286	80.003	19.994	100.665	19.907	2.172	0.519
901.000	527.518	80.002	19.993	100.661	19.909	2.028	0.496
901.500	527.770	80.003	19.994	100.659	19.906	2.255	0.477
902.000	528.008	80.004	19.995	100.658	19.909	2.066	0.487
902.500	528.270	80.003	19.997	100.658	19.910	1.998	0.495
903.000	528.588	80.004	19.995	100.660	19.903	2.411	0.540
903.500	528.804	80.005	19.995	100.661	19.908	2.107	0.557
904.000	529.085	80.004	19.994	100.660	19.907	2.165	0.515
904.500	529.356	80.003	19.995	100.665	19.908	2.072	0.524
905.000	529.604	80.001	19.996	100.669	19.910	1.957	0.535
905.500	529.850	80.003	19.995	100.663	19.907	2.138	0.506
906.000	530.078	80.003	19.994	100.662	19.906	2.212	0.484
906.500	530.331	80.004	19.996	100.661	19.910	2.001	0.478
907.000	530.584	80.004	19.996	100.660	19.907	2.163	0.494
907.500	530.860	80.003	19.995	100.659	19.910	1.994	0.518
908.000	531.149	80.004	19.995	100.663	19.909	2.029	0.547
908.500	531.349	80.001	19.993	100.667	19.906	2.224	0.527
909.000	531.622	80.003	19.996	100.666	19.908	2.126	0.481
909.500	531.843	80.002	19.995	100.665	19.911	1.903	0.484
910.000	532.116	80.002	19.996	100.664	19.912	1.827	0.494
910.500	532.372	80.002	19.997	100.665	19.911	1.905	0.511
911.000	532.603	80.003	19.995	100.664	19.914	1.704	0.508
911.500	532.859	80.003	19.995	100.668	19.910	1.991	0.488
912.000	533.116	80.001	19.996	100.671	19.909	2.038	0.501
912.500	533.381	80.003	19.993	100.670	19.912	1.871	0.518
913.000	533.573	80.003	19.996	100.667	19.914	1.716	0.489
913.500	533.848	80.003	19.996	100.665	19.912	1.855	0.461
914.000	534.069	80.005	19.996	100.661	19.907	2.166	0.481
914.500	534.346	80.003	19.994	100.659	19.915	1.628	0.497
915.000	534.597	80.002	19.996	100.660	19.910	1.943	0.513
915.500	534.886	80.004	19.996	100.661	19.909	2.028	0.534
916.000	535.103	80.002	19.996	100.661	19.912	1.852	0.523
916.500	535.348	80.004	19.993	100.663	19.909	2.052	0.484
917.000	535.598	80.002	19.995	100.663	19.909	2.019	0.479
917.500	535.867	80.003	19.995	100.659	19.906	2.210	0.507
918.000	536.146	80.004	19.996	100.656	19.909	2.021	0.533
918.500	536.354	80.002	19.995	100.656	19.907	2.158	0.518
919.000	536.587	80.003	19.995	100.653	19.904	2.337	0.464
919.500	536.815	80.003	19.994	100.654	19.914	1.688	0.451
920.000	537.065	80.004	19.994	100.660	19.911	1.885	0.470
920.500	537.310	80.003	19.995	100.666	19.911	1.892	0.486
921.000	537.611	80.003	19.996	100.672	19.913	1.781	0.520
921.500	537.830	80.003	19.993	100.672	19.913	1.797	0.533
922.000	538.085	80.003	19.996	100.668	19.910	1.999	0.498
922.500	538.345	80.006	19.994	100.661	19.910	1.943	0.495
923.000	538.567	80.004	19.994	100.653	19.910	1.952	0.498
923.500	538.842	80.004	19.992	100.647	19.914	1.725	0.490
924.000	539.093	80.006	19.994	100.650	19.911	1.936	0.511
924.500	539.353	80.005	19.994	100.655	19.913	1.810	0.518
925.000	539.573	80.004	19.994	100.657	19.913	1.762	0.496
925.500	539.848	80.003	19.995	100.659	19.907	2.158	0.487
926.000	540.068	80.005	19.994	100.659	19.902	2.486	0.495
926.500	540.290	80.006	19.992	100.656	19.909	2.047	0.469
927.000	540.573	80.005	19.995	100.653	19.912	1.825	0.474
927.500	540.799	80.004	19.993	100.655	19.910	1.964	0.507
928.000	541.021	80.005	19.992	100.656	19.907	2.152	0.479
928.500	541.275	80.004	19.996	100.658	19.911	1.917	0.462
929.000	541.495	80.004	19.994	100.664	19.908	2.077	0.475
929.500	541.717	80.003	19.993	100.664	19.905	2.293	0.458
930.000	541.977	80.002	19.994	100.662	19.913	1.757	0.462
930.500	542.235	80.003	19.995	100.663	19.909	2.061	0.500
931.000	542.505	80.002	19.995	100.664	19.909	2.051	0.523
931.500	542.726	80.004	19.994	100.662	19.907	2.160	0.510
932.000	542.956	80.003	19.994	100.661	19.909	2.065	0.471
932.500	543.215	80.004	19.995	100.659	19.909	2.063	0.470
933.000	543.456	80.004	19.995	100.657	19.903	2.404	0.495
933.500	543.690	80.004	19.996	100.657	19.910	1.966	0.488
934.000	543.953	80.002	19.996	100.660	19.910	1.956	0.486
934.500	544.173	80.002	19.995	100.660	19.911	1.885	0.490
935.000	544.412	80.002	19.996	100.662	19.915	1.618	0.471
935.500	544.682	79.999	19.996	100.662	19.911	1.901	0.484
936.000	544.897	80.002	19.995	100.660	19.914	1.716	0.497
936.500	545.151	80.000	19.995	100.654	19.911	1.894	0.477
937.000	545.430	79.999	19.994	100.654	19.914	1.683	0.501
937.500	545.665	80.001	19.995	100.654	19.911	1.899	0.524
938.000	545.890	80.000	19.996	100.657	19.915	1.646	0.487
938.500	546.134	80.002	19.996	100.658	19.910	1.945	0.464
939.000	546.400	80.000	19.994	100.661	19.909	2.014	0.489
939.500	546.596	80.000	19.995	100.661	19.907	2.175	0.486
940.000	546.848	80.000	19.995	100.659	19.909	2.015	0.455
940.500	547.082	80.000	19.996	100.656	19.909	2.061	0.467
941.000	547.362	80.001	19.995	100.657	19.914	1.743	0.500
941.500	547.648	80.000	19.995	100.659	19.907	2.189	0.540
942.000	547.845	80.000	19.994	100.662	19.912	1.834	0.524
942.500	548.085	80.002	19.995	100.666	19.910	1.966	0.460
943.000	548.306	80.001	19.996	100.669	19.912	1.818	0.449
943.500	548.570	80.000	19.994	100.667	19.908	2.071	0.473
944.000	548.812	80.000	19.995	100.663	19.908	2.084	0.495
944.500	549.048	80.001	19.994	100.660	19.910	1.941	0.492
945.000	549.301	80.001	19.995	100.660	19.905	2.304	0.484
945.500	549.572	80.002	19.994	100.659	19.910	1.950	0.506
946.000	549.751	80.000	19.994	100.659	19.905	2.318	0.487
946.500	550.027	80.001	19.995	100.662	19.910	1.970	0.452
947.000	550.277	80.001	19.995	100.660	19.906	2.203	0.491
947.500	550.530	80.002	19.994	100.657	19.909	2.019	0.515
948.000	550.754	80.001	19.993	100.658	19.914	1.741	0.490
948.500	551.013	80.001	19.996	100.659	19.911	1.924	0.480
949.000	551.227	80.002	19.992	100.658	19.910	1.982	0.478
949.500	551.479	80.002	19.994	100.657	19.915	1.679	0.470
950.000	551.741	80.002	19.995	100.660	19.913	1.778	0.490
950.500	551.952	80.001	19.995	100.660	19.909	2.019	0.493
951.000	552.228	80.004	19.992	100.659	19.908	2.072	0.480
951.500	552.462	80.002	19.995	100.661	19.915	1.672	0.498
952.000	552.665	80.001	19.994	100.661	19.914	1.720	0.474
952.500	552.918	80.002	19.994	100.659	19.913	1.796	0.447
953.000	553.170	80.001	19.994	100.657	19.917	1.502	0.481
953.500	553.381	80.003	19.994	100.656	19.916	1.609	0.484
954.000	553.664	80.002	19.996	100.654	19.915	1.662	0.478
954.500	553.899	80.002	19.993	100.655	19.913	1.773	0.505
955.000	554.087	80.002	19.995	100.657	19.911	1.921	0.470
955.500	554.326	80.003	19.992	100.659	19.910	1.986	0.425
956.000	554.608	80.002	19.993	100.662	19.912	1.836	0.474
956.500	554.840	80.002	19.994	100.664	19.915	1.616	0.517
957.000	555.115	80.004	19.994	100.665	19.913	1.748	0.511
957.500	555.317	80.004	19.994	100.662	19.910	1.993	0.492
958.000	555.578	80.001	19.994	100.658	19.912	1.863	0.470
958.500	555.818	80.002	19.995	100.657	19.911	1.910	0.482
959.000	556.072	80.003	19.995	100.656	19.914	1.741	0.497
959.500	556.318	80.002	19.994	100.654	19.908	2.127	0.497
960.000	556.551	80.004	19.994	100.652	19.910	1.984	0.489
960.500	556.816	79.999	19.995	100.654	19.912	1.847	0.488
961.000	557.043	80.002	19.995	100.654	19.909	2.010	0.495
961.500	557.286	80.001	19.996	100.652	19.911	1.887	0.482
962.000	557.549	80.005	19.994	100.659	19.911	1.910	0.488
962.500	557.800	80.003	19.994	100.666	19.912	1.868	0.510
963.000	558.036	80.003	19.994	100.672	19.909	2.063	0.501
963.500	558.353	80.002	19.996	100.672	19.910	1.984	0.520
964.000	558.568	80.004	19.994	100.675	19.910	1.998	0.543
964.500	558.809	80.001	19.994	100.675	19.908	2.081	0.494
965.000	559.086	80.003	19.993	100.675	19.912	1.870	0.487
965.500	559.359	80.001	19.993	100.675	19.907	2.147	0.534
966.000	559.579	80.000	19.994	100.679	19.913	1.782	0.522
966.500	559.817	80.001	19.995	100.682	19.912	1.815	0.476
967.000	560.126	80.003	19.995	100.683	19.910	1.952	0.502
967.500	560.408	80.002	19.997	100.684	19.911	1.912	0.569
968.000	560.635	80.001	19.997	100.683	19.912	1.875	0.549
968.500	560.875	80.003	19.995	100.684	19.911	1.926	0.488
969.000	561.183	80.002	19.993	100.682	19.907	2.170	0.508
969.500	561.444	80.001	19.994	100.681	19.913	1.785	0.559
970.000	561.699	80.000	19.995	100.681	19.910	2.003	0.543
970.500	561.963	80.002	19.993	100.682	19.912	1.850	0.518
971.000	562.206	80.000	19.994	100.680	19.913	1.789	0.513
971.500	562.470	80.001	19.997	100.680	19.915	1.678	0.507
972.000	562.732	80.003	19.995	100.678	19.912	1.847	0.516
972.500	563.008	80.002	19.997	100.677	19.916	1.592	0.532
973.000	563.268	80.002	19.996	100.676	19.911	1.912	0.537
973.500	563.535	80.003	19.996	100.675	19.913	1.789	0.531
974.000	563.820	80.001	19.995	100.674	19.914	1.697	0.540
974.500	564.082	80.002	19.997	100.676	19.911	1.891	0.550
975.000	564.331	80.002	19.995	100.676	19.913	1.767	0.529
975.500	564.624	80.002	19.993	100.671	19.911	1.876	0.527
976.001	564.874	80.003	19.994	100.669	19.914	1.713	0.543
976.501	565.138	80.003	19.994	100.670	19.910	1.980	0.529
977.000	565.402	80.003	19.998	100.667	19.913	1.801	0.521
977.500	565.675	80.003	19.994	100.665	19.910	1.959	0.533
978.000	565.918	80.003	19.993	100.669	19.910	1.963	0.527
978.500	566.245	80.004	19.994	100.672	19.910	1.968	0.542
979.000	566.513	80.002	19.997	100.671	19.912	1.834	0.582
979.500	566.787	80.002	19.995	100.670	19.911	1.885	0.569
980.000	567.060	80.003	19.991	100.667	19.913	1.776	0.545
980.500	567.348	80.003	19.995	100.665	19.915	1.646	0.555
981.000	567.633	80.002	19.996	100.662	19.911	1.894	0.567
981.500	567.940	80.003	19.995	100.660	19.912	1.838	0.582
982.000	568.174	80.005	19.992	100.665	19.913	1.757	0.566
982.500	568.438	80.004	19.995	100.670	19.915	1.627	0.520
983.000	568.724	80.002	19.993	100.673	19.909	2.019	0.525
983.500	568.981	80.005	19.996	100.675	19.913	1.762	0.546
984.000	569.305	80.003	19.994	100.678	19.911	1.891	0.561
984.500	569.606	80.004	19.994	100.677	19.910	1.975	0.603
985.000	569.846	80.005	19.994	100.673	19.914	1.694	0.583
985.500	570.146	80.005	19.994	100.666	19.917	1.546	0.541
986.000	570.404	80.004	19.994	100.664	19.914	1.727	0.549
986.500	570.699	80.006	19.994	100.665	19.912	1.871	0.555
987.000	570.944	80.005	19.995	100.667	19.907	2.139	0.547
987.500	571.243	80.005	19.994	100.673	19.915	1.648	0.542
988.000	571.522	80.004	19.996	100.680	19.912	1.822	0.561
988.500	571.799	80.005	19.995	100.684	19.912	1.849	0.567
989.000	572.094	80.004	19.996	100.680	19.910	1.977	0.564
989.500	572.356	80.005	19.993	100.678	19.915	1.627	0.564
990.000	572.647	80.004	19.994	100.676	19.911	1.891	0.555
990.500	572.955	80.003	19.992	100.675	19.916	1.581	0.577
991.000	573.220	80.003	19.994	100.676	19.912	1.829	0.586
991.500	573.508	80.003	19.996	100.678	19.915	1.616	0.563
992.000	573.748	80.003	19.994	100.676	19.919	1.363	0.540
992.500	574.088	80.003	19.995	100.676	19.913	1.799	0.554
993.000	574.372	80.002	19.994	100.674	19.915	1.669	0.602
993.500	574.688	80.002	19.994	100.671	19.910	1.974	0.612
994.000	574.952	80.002	19.994	100.672	19.909	2.032	0.590
994.500	575.240	80.002	19.992	100.676	19.912	1.836	0.566
995.000	575.529	80.003	19.996	100.678	19.910	1.963	0.565
995.500	575.820	80.003	19.994	100.675	19.909	2.042	0.579
996.000	576.084	80.002	19.996	100.676	19.912	1.833	0.567
996.500	576.388	80.002	19.996	100.676	19.912	1.829	0.561
997.000	576.621	80.001	19.995	100.672	19.910	1.971	0.552
997.500	576.890	80.001	19.994	100.672	19.912	1.818	0.519
998.000	577.178	80.002	19.996	100.676	19.911	1.896	0.530
998.500	577.499	80.003	19.995	100.678	19.911	1.898	0.583
999.000	577.740	80.002	19.995	100.678	19.913	1.764	0.586
999.500	578.004	80.000	19.995	100.682	19.911	1.935	0.534
1000.000	578.322	80.001	19.995	100.677	19.914	1.697	0.544
1000.500	578.618	80.002	19.996	100.674	19.912	1.831	0.598
1001.000	578.859	80.001	19.995	100.673	19.912	1.848	0.575
1001.500	579.195	80.003	19.994	100.672	19.911	1.910	0.557
1002.000	579.430	80.002	19.996	100.673	19.911	1.889	0.575
1002.500	579.731	80.003	19.994	100.678	19.916	1.583	0.553
1003.000	580.030	80.003	19.995	100.681	19.914	1.710	0.568
1003.500	580.304	80.003	19.996	100.679	19.912	1.838	0.586
1004.000	580.555	80.003	19.994	100.681	19.912	1.875	0.549
1004.500	580.839	80.002	19.994	100.681	19.914	1.695	0.530
1005.000	581.171	80.003	19.994	100.680	19.913	1.810	0.576
1005.500	581.427	80.003	19.996	100.676	19.917	1.502	0.603
1006.000	581.703	80.003	19.997	100.676	19.915	1.658	0.560
1006.500	581.968	80.004	19.995	100.672	19.917	1.532	0.537
1007.000	582.261	80.003	19.993	100.666	19.915	1.636	0.549
1007.500	582.510	80.002	19.995	100.663	19.914	1.709	0.550
1008.000	582.782	80.004	19.996	100.665	19.916	1.609	0.531
1008.500	583.082	80.003	19.994	100.665	19.916	1.611	0.547
1009.000	583.336	80.003	19.993	100.663	19.917	1.539	0.563
1009.500	583.624	80.006	19.995	100.668	19.916	1.554	0.548
1010.000	583.914	80.005	19.996	100.667	19.914	1.683	0.560
1010.500	584.169	80.002	19.995	100.667	19.914	1.693	0.562
1011.000	584.422	80.006	19.994	100.669	19.918	1.481	0.527
1011.500	584.744	80.004	19.996	100.672	19.919	1.407	0.541
1012.000	585.006	80.004	19.996	100.669	19.916	1.611	0.580
1012.500	585.280	80.004	19.995	100.674	19.913	1.792	0.560
1013.000	585.564	80.004	19.995	100.678	19.918	1.442	0.547
1013.500	585.833	80.004	19.996	100.674	19.919	1.412	0.556
1014.000	586.092	80.002	19.995	100.676	19.920	1.337	0.540
1014.500	586.389	80.006	19.996	100.675	19.920	1.351	0.542
1015.000	586.636	80.005	19.995	100.669	19.916	1.590	0.550
1015.500	586.920	80.004	19.996	100.665	19.918	1.447	0.538
1016.000	587.216	80.005	19.996	100.668	19.916	1.572	0.556
1016.500	587.490	80.003	19.996	100.664	19.915	1.641	0.575
1017.000	587.743	80.003	19.995	100.667	19.915	1.657	0.548
1017.500	588.025	80.003	19.995	100.670	19.919	1.367	0.531
1018.000	588.315	80.002	19.994	100.667	19.920	1.316	0.553
1018.501	588.598	80.002	19.994	100.662	19.916	1.569	0.572
1019.001	588.882	80.002	19.995	100.660	19.918	1.451	0.570
1019.500	589.151	80.001	19.996	100.656	19.918	1.456	0.560
1020.000	589.420	80.001	19.994	100.655	19.917	1.507	0.545
1020.500	589.695	80.002	19.994	100.654	19.915	1.628	0.541
1021.000	589.972	80.003	19.996	100.654	19.916	1.606	0.548
1021.500	590.219	80.003	19.994	100.659	19.916	1.595	0.538
1022.000	590.524	80.001	19.997	100.664	19.918	1.451	0.538
1022.500	590.808	80.002	19.996	100.667	19.916	1.612	0.571
1023.000	591.108	80.004	19.998	100.673	19.914	1.697	0.587
1023.500	591.356	80.002	19.996	100.677	19.917	1.502	0.566
1024.000	591.602	80.002	19.995	100.675	19.917	1.504	0.521
1024.500	591.863	80.001	19.995	100.671	19.917	1.519	0.500
1025.000	592.144	80.002	19.995	100.664	19.914	1.708	0.524
1025.500	592.438	80.002	19.996	100.659	19.916	1.588	0.559
1026.000	592.697	80.000	19.995	100.654	19.915	1.621	0.564
1026.500	592.996	80.000	19.995	100.651	19.915	1.676	0.555
1027.000	593.258	80.000	19.997	100.656	19.918	1.474	0.560
1027.500	593.570	80.000	19.998	100.663	19.918	1.465	0.568
1028.000	593.850	79.999	19.998	100.665	19.917	1.495	0.583
1028.500	594.095	80.001	19.998	100.672	19.918	1.452	0.559
1029.001	594.371	80.002	19.997	100.671	19.922	1.222	0.523
1029.501	594.630	80.000	19.999	100.665	19.919	1.405	0.528
1030.000	594.916	80.001	19.997	100.662	19.918	1.424	0.539
1030.500	595.187	80.001	19.997	100.661	19.918	1.459	0.551
1031.000	595.389	80.003	19.996	100.659	19.915	1.648	0.515
1031.500	595.699	80.002	19.995	100.657	19.919	1.379	0.492
1032.000	595.987	79.999	19.995	100.657	19.916	1.554	0.555
1032.500	596.252	80.003	19.996	100.654	19.914	1.684	0.575
1033.000	596.527	80.003	19.997	100.654	19.915	1.644	0.546
1033.500	596.775	80.001	19.995	100.652	19.916	1.551	0.532
1034.000	597.049	80.001	19.994	100.657	19.915	1.623	0.523
1034.500	597.299	80.002	19.995	100.660	19.915	1.676	0.523
1035.000	597.559	80.005	19.995	100.662	19.916	1.607	0.517
1035.500	597.810	80.004	19.998	100.661	19.913	1.757	0.510
1036.000	598.074	80.002	19.996	100.664	19.918	1.449	0.513
1036.500	598.336	80.002	19.995	100.663	19.914	1.686	0.520
1037.000	598.582	80.001	19.994	100.664	19.917	1.521	0.517
1037.500	598.858	80.003	19.997	100.663	19.916	1.558	0.515
1038.000	599.088	80.002	19.997	100.662	19.917	1.519	0.514
1038.500	599.316	80.004	19.996	100.663	19.916	1.552	0.482
1039.000	599.598	80.003	19.995	100.659	19.916	1.589	0.484
1039.500	599.844	80.003	19.996	100.654	19.918	1.447	0.519
1040.000	600.124	80.003	19.993	100.653	19.918	1.438	0.527
1040.500	600.372	80.002	19.995	100.653	19.919	1.389	0.527
1041.000	600.612	80.003	19.996	100.647	19.920	1.305	0.507
1041.500	600.867	80.005	19.996	100.647	19.922	1.168	0.491
1042.000	601.132	80.003	19.995	100.647	19.918	1.445	0.508
1042.500	601.394	80.003	19.995	100.647	19.921	1.231	0.524
1043.000	601.664	80.003	19.995	100.646	19.919	1.400	0.530
1043.500	601.893	80.002	19.996	100.647	19.920	1.326	0.516
1044.000	602.116	80.000	19.996	100.646	19.920	1.319	0.475
1044.500	602.362	80.003	19.997	100.646	19.917	1.531	0.460
1045.000	602.594	80.002	19.994	100.647	19.920	1.342	0.474
1045.500	602.833	80.002	19.996	100.647	19.916	1.590	0.475
1046.000	603.071	80.001	19.995	100.648	19.919	1.412	0.474
1046.500	603.294	80.003	19.996	100.649	19.915	1.623	0.469
1047.000	603.525	80.002	19.994	100.648	19.921	1.280	0.458
1047.500	603.792	80.003	19.996	100.646	19.921	1.231	0.476
1048.000	604.031	80.001	19.995	100.641	19.921	1.229	0.502
1048.500	604.270	80.003	19.993	100.636	19.919	1.370	0.492
1049.000	604.472	80.002	19.995	100.636	19.917	1.539	0.459
1049.500	604.737	80.002	19.994	100.636	19.922	1.203	0.454
1050.000	604.979	80.002	19.998	100.639	19.922	1.180	0.488
1050.500	605.168	80.002	19.995	100.645	19.920	1.326	0.469
1051.000	605.446	80.000	19.996	100.648	19.918	1.423	0.449
1051.500	605.682	80.001	19.997	100.649	19.921	1.278	0.490
1052.000	605.930	80.001	19.994	100.648	19.921	1.268	0.499
1052.500	606.147	80.001	19.996	100.647	19.920	1.340	0.475
1053.001	606.423	80.001	19.994	100.644	19.923	1.103	0.479
1053.501	606.612	80.001	19.995	100.644	19.922	1.191	0.478
1054.000	606.846	80.001	19.995	100.642	19.921	1.273	0.444
1054.500	607.108	80.001	19.994	100.642	19.920	1.319	0.460
1055.000	607.359	80.001	19.996	100.643	19.923	1.111	0.505
1055.500	607.571	80.002	19.995	100.645	19.924	1.041	0.488
1056.000	607.838	80.001	19.997	100.649	19.922	1.175	0.471
1056.500	608.037	80.001	19.995	100.654	19.924	1.053	0.472
1057.000	608.286	80.002	19.995	100.656	19.920	1.301	0.457
1057.500	608.517	80.002	19.994	100.660	19.924	1.048	0.464
1058.000	608.749	80.001	19.995	100.661	19.924	1.085	0.471
1058.500	608.984	80.003	19.993	100.662	19.922	1.217	0.465
1059.000	609.241	80.002	19.994	100.661	19.923	1.140	0.480
1059.500	609.495	80.002	19.995	100.662	19.920	1.289	0.501
1060.000	609.685	80.002	19.996	100.661	19.920	1.323	0.478
1060.500	609.980	80.003	19.995	100.661	19.927	0.876	0.465
1061.000	610.178	80.003	19.994	100.661	19.925	0.995	0.489
1061.500	610.424	80.002	19.996	100.658	19.921	1.242	0.468
1062.000	610.715	80.000	19.993	100.657	19.923	1.136	0.490
1062.500	610.959	80.002	19.995	100.657	19.924	1.064	0.536
1063.000	611.158	80.002	19.995	100.657	19.917	1.490	0.489
1063.500	611.447	80.004	19.994	100.658	19.923	1.110	0.465
1064.000	611.676	80.001	19.994	100.661	19.918	1.437	0.503
1064.500	611.957	80.004	19.995	100.667	19.917	1.511	0.514
1065.000	612.191	80.002	19.994	100.667	19.923	1.101	0.512
1065.500	612.449	80.003	19.997	100.665	19.921	1.249	0.504
1066.000	612.693	80.004	19.995	100.662	19.920	1.347	0.497
1066.500	612.957	80.006	19.994	100.661	19.919	1.412	0.505
1067.000	613.214	80.004	19.995	100.655	19.917	1.491	0.514
1067.500	613.472	80.004	19.995	100.652	19.919	1.416	0.518
1068.000	613.709	80.004	19.994	100.651	19.920	1.338	0.505
1068.500	613.986	80.005	19.993	100.651	19.919	1.409	0.504
1069.000	614.248	80.001	19.993	100.651	19.922	1.217	0.526
1069.500	614.549	80.003	19.994	100.652	19.920	1.349	0.551
1070.000	614.777	80.004	19.996	100.658	19.923	1.154	0.546
1070.500	615.013	80.002	19.995	100.663	19.917	1.509	0.497
1071.000	615.250	80.002	19.994	100.668	19.922	1.198	0.469
1071.500	615.551	80.004	19.995	100.667	19.919	1.366	0.505
1072.000	615.820	80.003	19.995	100.669	19.920	1.301	0.554
1072.500	616.061	80.003	19.995	100.669	19.918	1.451	0.540
1073.000	616.315	80.002	19.993	100.668	19.921	1.229	0.502
1073.500	616.560	80.003	19.994	100.663	19.923	1.155	0.496
1074.000	616.835	80.004	19.994	100.661	19.921	1.271	0.509
1074.501	617.095	80.004	19.995	100.658	19.925	1.018	0.528
1075.001	617.386	80.003	19.995	100.656	19.926	0.914	0.543
1075.500	617.648	80.003	19.994	100.659	19.921	1.270	0.552
1076.000	617.890	80.003	19.994	100.663	19.922	1.206	0.528
1076.500	618.131	80.003	19.993	100.667	19.919	1.354	0.493
1077.000	618.415	80.006	19.992	100.669	19.921	1.264	0.504
1077.500	618.662	80.003	19.994	100.670	19.920	1.326	0.529
1078.000	618.925	80.003	19.993	100.668	19.920	1.328	0.520
1078.500	619.205	80.001	19.994	100.666	19.924	1.083	0.527
1079.000	619.458	80.003	19.995	100.665	19.923	1.103	0.538
1079.500	619.717	80.003	19.993	100.668	19.923	1.141	0.522
1080.000	619.988	80.003	19.993	100.667	19.922	1.162	0.521
1080.500	620.235	80.004	19.994	100.671	19.924	1.036	0.524
1081.000	620.521	80.003	19.994	100.675	19.924	1.055	0.525
1081.500	620.778	80.002	19.994	100.672	19.922	1.196	0.538
1082.001	621.081	80.006	19.992	100.668	19.924	1.057	0.552
1082.501	621.337	80.003	19.996	100.665	19.924	1.027	0.560
1083.000	621.617	80.002	19.994	100.660	19.925	0.986	0.548
1083.500	621.871	80.003	19.997	100.658	19.925	1.002	0.535
1084.000	622.156	80.001	19.994	100.657	19.925	1.016	0.537
1084.500	622.416	80.006	19.993	100.658	19.927	0.892	0.542
1085.000	622.677	80.003	19.996	100.661	19.929	0.760	0.533
1085.500	622.985	80.006	19.994	100.661	19.925	0.981	0.544
1086.000	623.226	80.001	19.994	100.662	19.923	1.138	0.559
1086.500	623.540	80.004	19.995	100.664	19.921	1.242	0.552
1087.000	623.802	80.007	19.996	100.662	19.927	0.860	0.566
1087.500	624.061	80.005	19.993	100.658	19.924	1.050	0.548
1088.000	624.376	80.005	19.994	100.657	19.926	0.936	0.547
1088.500	624.630	80.005	19.995	100.654	19.923	1.124	0.572
1089.000	624.927	80.005	19.995	100.653	19.927	0.865	0.560
1089.501	625.185	80.006	19.994	100.654	19.925	1.024	0.553
1090.001	625.457	80.006	19.995	100.654	19.926	0.948	0.543
1090.500	625.695	80.006	19.995	100.656	19.923	1.124	0.520
1091.000	625.937	80.003	19.995	100.661	19.925	0.999	0.495
1091.500	626.253	80.007	19.996	100.662	19.926	0.918	0.519
1092.000	626.516	80.003	19.994	100.660	19.926	0.902	0.568
1092.500	626.785	80.003	19.996	100.659	19.925	1.025	0.556
1093.000	627.094	80.005	19.993	100.655	19.927	0.851	0.555
1093.500	627.360	80.004	19.994	100.649	19.924	1.067	0.577
1094.000	627.613	80.007	19.994	100.651	19.925	0.969	0.547
1094.500	627.905	80.006	19.994	100.658	19.925	0.988	0.532
1095.000	628.151	80.004	19.996	100.663	19.927	0.878	0.542
1095.500	628.454	80.003	19.994	100.668	19.927	0.886	0.544
1096.000	628.715	80.007	19.994	100.672	19.927	0.878	0.556
1096.500	629.012	80.003	19.998	100.668	19.928	0.791	0.561
1097.000	629.244	80.004	19.996	100.665	19.924	1.060	0.544
1097.500	629.544	80.003	19.996	100.660	19.924	1.062	0.530
1098.000	629.832	80.005	19.995	100.655	19.928	0.830	0.560
1098.501	630.086	80.004	19.995	100.655	19.926	0.899	0.566
1099.001	630.409	80.003	19.999	100.660	19.926	0.902	0.559
1099.500	630.641	80.003	19.993	100.661	19.926	0.936	0.566
1100.000	630.936	80.001	19.996	100.665	19.931	0.631	0.541
1100.500	631.175	80.001	19.995	100.672	19.928	0.797	0.530
1101.001	631.431	80.003	19.997	100.668	19.927	0.892	0.514
1101.501	631.740	80.003	19.994	100.662	19.930	0.651	0.530
1102.000	632.004	80.004	19.996	100.658	19.926	0.911	0.569
1102.500	632.302	80.004	19.996	100.654	19.928	0.804	0.568
1103.000	632.560	80.002	19.995	100.648	19.925	1.022	0.559
1103.500	632.837	80.002	19.996	100.649	19.929	0.744	0.545
1104.000	633.104	80.002	19.995	100.651	19.928	0.816	0.540
1104.500	633.387	80.002	19.994	100.653	19.925	1.013	0.547
1105.000	633.630	80.003	19.994	100.657	19.925	0.965	0.538
1105.500	633.934	80.002	19.995	100.659	19.928	0.821	0.537
1106.000	634.207	80.005	19.995	100.662	19.925	0.972	0.562
1106.500	634.489	80.003	19.997	100.663	19.926	0.960	0.566
1107.000	634.764	80.000	19.997	100.664	19.928	0.821	0.556
1107.500	635.008	80.004	19.995	100.662	19.928	0.786	0.538
1108.000	635.348	80.001	19.996	100.664	19.927	0.883	0.552
1108.500	635.590	80.002	19.996	100.662	19.926	0.929	0.583
1109.000	635.848	80.003	19.995	100.663	19.926	0.950	0.541
1109.500	636.111	80.002	19.997	100.661	19.927	0.890	0.510
1110.000	636.409	80.001	19.995	100.660	19.925	0.983	0.540
1110.501	636.689	80.001	19.996	100.659	19.924	1.032	0.569
1111.001	636.946	80.002	19.994	100.659	19.928	0.827	0.558
1111.500	637.213	80.004	19.996	100.657	19.930	0.656	0.531
1112.000	637.494	80.004	19.995	100.656	19.926	0.948	0.536
1112.500	637.732	80.004	19.995	100.657	19.924	1.030	0.533
1113.000	638.051	80.004	19.995	100.659	19.926	0.930	0.537
1113.500	638.324	80.001	19.994	100.658	19.923	1.099	0.574
1114.001	638.591	80.005	19.995	100.657	19.927	0.844	0.566
1114.501	638.824	80.002	19.996	100.661	19.924	1.052	0.520
1115.001	639.141	80.002	19.994	100.659	19.930	0.696	0.525
1115.500	639.420	80.003	19.994	100.655	19.930	0.649	0.573
1116.000	639.634	80.002	19.996	100.655	19.928	0.795	0.544
1116.500	639.933	80.002	19.995	100.657	19.930	0.656	0.504
1117.000	640.185	80.002	19.996	100.656	19.932	0.513	0.533
1117.500	640.455	80.005	19.995	100.660	19.929	0.761	0.537
1118.000	640.725	80.002	19.995	100.663	19.927	0.863	0.531
1118.501	640.972	80.002	19.997	100.665	19.930	0.640	0.528
1119.002	641.235	80.001	19.995	100.664	19.933	0.462	0.514
1119.501	641.521	80.002	19.995	100.664	19.931	0.593	0.530
1120.000	641.807	80.001	19.995	100.665	19.931	0.586	0.560
1120.500	642.070	80.002	19.995	100.666	19.927	0.883	0.560
1121.000	642.316	80.002	19.996	100.667	19.926	0.909	0.529
1121.500	642.602	80.002	19.994	100.666	19.927	0.832	0.521
1122.000	642.872	80.004	19.994	100.664	19.930	0.696	0.544
1122.500	643.110	80.001	19.996	100.660	19.929	0.709	0.532
1123.000	643.398	80.005	19.996	100.658	19.926	0.960	0.517
1123.500	643.670	80.000	19.996	100.657	19.929	0.733	0.543
1124.001	643.913	80.003	19.997	100.661	19.930	0.668	0.537
1124.501	644.181	80.000	19.994	100.660	19.932	0.535	0.513
1125.000	644.443	80.002	19.995	100.659	19.925	1.006	0.521
1125.500	644.729	80.003	19.996	100.655	19.925	1.023	0.539
1126.000	644.990	80.002	19.996	100.654	19.930	0.695	0.547
1126.500	645.258	79.999	19.996	100.652	19.925	0.994	0.538
1127.000	645.487	80.000	19.996	100.653	19.925	1.002	0.513
1127.500	645.760	80.002	19.997	100.653	19.924	1.048	0.499
1128.000	646.052	80.001	19.996	100.653	19.928	0.823	0.533
1128.500	646.285	80.001	19.997	100.654	19.923	1.141	0.545
1129.000	646.610	80.001	19.996	100.653	19.928	0.798	0.542
1129.500	646.827	80.001	19.995	100.654	19.929	0.728	0.550
1130.000	647.098	80.001	19.994	100.654	19.926	0.960	0.515
1130.500	647.405	79.999	19.995	100.653	19.925	1.008	0.533
1131.000	647.641	79.999	19.997	100.654	19.925	1.006	0.561
1131.500	647.932	80.000	19.994	100.657	19.924	1.032	0.535
1132.000	648.232	80.001	19.997	100.658	19.923	1.157	0.559
1132.500	648.434	80.000	19.998	100.663	19.926	0.906	0.546
1133.000	648.745	80.003	19.995	100.669	19.924	1.081	0.507
1133.500	648.969	80.000	19.995	100.669	19.928	0.804	0.524
1134.000	649.247	80.003	19.996	100.666	19.924	1.032	0.519
1134.500	649.475	80.001	19.996	100.663	19.922	1.168	0.504
1135.000	649.750	80.001	19.996	100.658	19.928	0.788	0.505
1135.500	649.965	80.004	19.994	100.652	19.926	0.913	0.496
1136.000	650.269	80.002	19.995	100.651	19.927	0.849	0.504
1136.500	650.507	80.003	19.995	100.652	19.924	1.066	0.530
1137.000	650.767	80.001	19.993	100.654	19.926	0.934	0.520
1137.500	650.984	80.001	19.994	100.658	19.924	1.032	0.487
1138.000	651.291	79.999	19.995	100.661	19.926	0.946	0.501
1138.500	651.535	80.002	19.993	100.660	19.926	0.897	0.538
1139.000	651.787	80.004	19.994	100.659	19.926	0.920	0.524
1139.500	652.069	80.003	19.993	100.660	19.927	0.883	0.515
1140.000	652.321	80.001	19.993	100.661	19.926	0.930	0.534
1140.500	652.590	80.000	19.993	100.659	19.929	0.721	0.527
1141.000	652.824	80.002	19.995	100.662	19.929	0.749	0.512
1141.500	653.093	80.002	19.994	100.666	19.930	0.645	0.503
1142.000	653.332	80.002	19.995	100.665	19.927	0.856	0.506
1142.501	653.569	80.000	19.994	100.661	19.931	0.587	0.492
1143.001	653.865	80.002	19.993	100.660	19.930	0.663	0.504
1143.500	654.086	80.002	19.994	100.658	19.930	0.661	0.525
1144.000	654.371	80.003	19.995	100.656	19.925	1.000	0.511
1144.501	654.630	80.004	19.995	100.656	19.932	0.543	0.525
1145.001	654.841	80.001	19.995	100.659	19.932	0.564	0.507
1145.500	655.127	80.003	19.995	100.661	19.931	0.603	0.484
1146.000	655.376	80.003	19.993	100.660	19.933	0.501	0.517
1146.500	655.641	80.003	19.995	100.658	19.931	0.584	0.524
1147.000	655.925	80.004	19.995	100.656	19.933	0.491	0.531
1147.500	656.162	80.004	19.995	100.655	19.929	0.726	0.535
1148.000	656.389	80.002	19.996	100.655	19.929	0.723	0.493
1148.500	656.653	80.003	19.995	100.655	19.935	0.352	0.477
1149.000	656.913	80.003	19.994	100.653	19.930	0.691	0.507
1149.500	657.157	80.003	19.996	100.654	19.931	0.573	0.514
1150.000	657.414	80.005	19.995	100.652	19.936	0.281	0.502
1150.501	657.645	80.005	19.995	100.649	19.931	0.608	0.495
1151.001	657.907	80.004	19.996	100.650	19.934	0.425	0.490
1151.500	658.133	80.003	19.995	100.656	19.932	0.547	0.490
1152.000	658.420	80.003	19.994	100.659	19.934	0.376	0.500
1152.500	658.610	80.003	19.995	100.659	19.931	0.601	0.495
1153.000	658.898	80.003	19.997	100.658	19.933	0.440	0.478
1153.500	659.162	80.005	19.994	100.656	19.931	0.619	0.515
1154.000	659.396	80.004	19.993	100.650	19.929	0.721	0.525
1154.500	659.627	80.001	19.996	100.646	19.930	0.684	0.481
1155.000	659.894	80.002	19.995	100.644	19.935	0.345	0.482
1155.500	660.097	80.003	19.993	100.645	19.932	0.517	0.484
1156.000	660.372	80.003	19.995	100.645	19.932	0.568	0.474
1156.500	660.649	80.004	19.996	100.647	19.933	0.491	0.515
1157.000	660.849	80.002	19.995	100.647	19.933	0.455	0.514
1157.500	661.090	80.003	19.996	100.647	19.931	0.633	0.459
1158.000	661.314	80.002	19.995	100.642	19.932	0.517	0.453
1158.500	661.544	80.003	19.994	100.642	19.932	0.519	0.459
1159.000	661.791	80.004	19.995	100.641	19.934	0.375	0.465
1159.500	662.039	80.001	19.996	100.641	19.932	0.520	0.486
1160.000	662.294	80.003	19.995	100.641	19.932	0.550	0.499
1160.500	662.548	80.003	19.994	100.644	19.932	0.508	0.506
1161.000	662.762	80.004	19.993	100.643	19.932	0.510	0.489
1161.500	662.980	80.003	19.993	100.644	19.933	0.473	0.451
1162.000	663.213	80.004	19.994	100.644	19.932	0.505	0.441
1162.500	663.410	80.003	19.994	100.644	19.934	0.401	0.440
1163.000	663.611	80.003	19.995	100.644	19.937	0.241	0.414
1163.501	663.858	80.002	19.997	100.645	19.937	0.206	0.423
1164.001	664.135	80.004	19.996	100.645	19.934	0.424	0.486
1164.501	664.320	80.003	19.994	100.647	19.934	0.418	0.493
1165.000	664.533	80.004	19.995	100.648	19.933	0.450	0.430
1165.500	664.757	80.004	19.994	100.648	19.935	0.336	0.418
1166.000	664.983	80.004	19.993	100.648	19.935	0.346	0.444
1166.500	665.184	80.005	19.994	100.649	19.933	0.457	0.438
1167.000	665.416	80.005	19.995	100.646	19.933	0.447	0.430
1167.500	665.616	80.004	19.995	100.646	19.932	0.536	0.432
1168.000	665.871	80.006	19.995	100.646	19.935	0.325	0.443
1168.500	666.074	80.004	19.994	100.645	19.936	0.262	0.457
1169.000	666.293	80.003	19.994	100.645	19.937	0.190	0.440
1169.500	666.524	80.006	19.994	100.645	19.936	0.283	0.436
1170.000	666.729	80.004	19.994	100.644	19.940	0.037	0.443
1170.501	666.982	80.004	19.995	100.644	19.935	0.318	0.447
1171.001	667.169	80.007	19.994	100.644	19.934	0.429	0.449
1171.500	667.423	80.005	19.995	100.644	19.934	0.408	0.440
1172.000	667.649	80.004	19.995	100.644	19.933	0.448	0.461
1172.500	667.905	80.006	19.994	100.644	19.935	0.317	0.482
1173.000	668.083	80.004	19.996	100.646	19.936	0.297	0.458
1173.500	668.314	80.004	19.993	100.647	19.936	0.273	0.421
1174.000	668.524	80.004	19.994	100.647	19.936	0.283	0.425
1174.500	668.727	80.006	19.994	100.648	19.935	0.348	0.427
1175.000	668.986	80.005	19.994	100.647	19.934	0.438	0.438
1175.500	669.202	80.005	19.994	100.645	19.930	0.651	0.468
1176.001	669.448	80.005	19.994	100.644	19.935	0.332	0.468
1176.501	669.663	80.006	19.994	100.644	19.934	0.433	0.462
1177.000	669.905	80.004	19.993	100.644	19.936	0.258	0.459
1177.500	670.158	80.005	19.994	100.645	19.934	0.433	0.476
1178.000	670.377	80.003	19.995	100.648	19.935	0.324	0.484
1178.500	670.609	80.006	19.994	100.647	19.937	0.195	0.462
1179.000	670.818	80.003	19.995	100.647	19.935	0.348	0.446
1179.500	671.056	80.005	19.994	100.647	19.937	0.188	0.443
1180.000	671.284	80.003	19.995	100.646	19.932	0.531	0.457
1180.501	671.485	80.003	19.995	100.644	19.933	0.491	0.448
1181.001	671.714	80.003	19.994	100.645	19.934	0.389	0.429
1181.500	671.957	80.002	19.995	100.646	19.938	0.171	0.451
1182.000	672.193	80.002	19.995	100.647	19.934	0.382	0.476
1182.500	672.419	80.002	19.994	100.648	19.935	0.369	0.471
1183.000	672.670	80.003	19.997	100.650	19.935	0.329	0.470
1183.500	672.891	80.001	19.995	100.649	19.935	0.322	0.474
1184.000	673.113	80.002	19.995	100.649	19.938	0.151	0.457
1184.500	673.329	80.001	19.995	100.649	19.935	0.341	0.441
1185.000	673.579	80.002	19.993	100.651	19.936	0.276	0.452
1185.500	673.787	80.002	19.992	100.651	19.937	0.206	0.462
1186.000	674.044	80.000	19.993	100.653	19.939	0.070	0.461
1186.500	674.259	80.000	19.996	100.653	19.938	0.171	0.468
1187.000	674.487	80.000	19.995	100.653	19.935	0.316	0.457
1187.500	674.743	80.001	19.996	100.651	19.934	0.385	0.463
1188.000	674.999	80.003	19.996	100.649	19.936	0.251	0.498
1188.500	675.146	80.003	19.997	100.647	19.936	0.299	0.457
1189.000	675.435	80.002	19.995	100.648	19.934	0.385	0.419
1189.500	675.627	80.001	19.997	100.648	19.931	0.591	0.458
1190.000	675.917	80.002	19.995	100.648	19.933	0.447	0.481
1190.500	676.150	80.003	19.995	100.649	19.934	0.424	0.503
1191.000	676.392	80.002	19.995	100.649	19.933	0.503	0.499
1191.500	676.576	80.002	19.995	100.649	19.934	0.380	0.450
1192.000	676.823	80.002	19.995	100.649	19.935	0.360	0.428
1192.500	677.062	80.001	19.996	100.649	19.935	0.364	0.458
1193.000	677.261	80.002	19.994	100.649	19.934	0.401	0.462
1193.500	677.517	80.003	19.994	100.648	19.934	0.385	0.447
1194.000	677.757	80.002	19.995	100.646	19.937	0.181	0.475
1194.500	677.970	80.002	19.995	100.647	19.935	0.339	0.474
1195.000	678.203	80.001	19.996	100.646	19.936	0.258	0.450
1195.500	678.449	80.005	19.995	100.645	19.936	0.244	0.462
1196.000	678.669	80.004	19.996	100.645	19.935	0.329	0.472
1196.500	678.898	80.004	19.994	100.646	19.938	0.151	0.458
1197.000	679.117	80.004	19.993	100.645	19.936	0.290	0.449
1197.500	679.331	80.005	19.994	100.646	19.933	0.482	0.441
1198.000	679.565	80.003	19.994	100.647	19.935	0.346	0.441
1198.500	679.792	80.002	19.994	100.648	19.938	0.149	0.454
1199.000	680.054	80.000	19.995	100.647	19.938	0.146	0.475
1199.500	680.241	80.003	19.994	100.647	19.940	-0.009	0.469
1200.000	680.499	80.003	19.995	100.647	19.942	-0.093	0.447
1200.500	680.712	80.002	19.994	100.647	19.939	0.106	0.458
1201.000	680.938	80.003	19.994	100.647	19.938	0.128	0.455
1201.500	681.173	80.003	19.993	100.647	19.937	0.192	0.450
1202.000	681.432	80.002	19.995	100.648	19.940	0.028	0.477
1202.500	681.643	80.004	19.995	100.648	19.938	0.165	0.482
1203.000	681.866	80.002	19.994	100.647	19.934	0.392	0.452
1203.500	682.106	80.002	19.994	100.647	19.937	0.202	0.449
1204.000	682.304	80.001	19.993	100.647	19.935	0.331	0.451
1204.500	682.546	80.001	19.995	100.647	19.936	0.246	0.439
1205.000	682.806	80.004	19.994	100.649	19.937	0.206	0.471
1205.500	683.000	80.002	19.994	100.651	19.938	0.164	0.479
1206.000	683.274	80.005	19.993	100.652	19.940	-0.004	0.461
1206.500	683.511	80.000	19.996	100.653	19.938	0.155	0.489
1207.000	683.773	79.999	19.995	100.655	19.937	0.209	0.505
1207.500	683.980	80.001	19.996	100.656	19.935	0.357	0.484
1208.000	684.250	80.000	19.994	100.655	19.940	0.033	0.473
1208.500	684.502	79.999	19.997	100.655	19.938	0.127	0.499
1209.000	684.722	79.999	19.994	100.655	19.939	0.069	0.497
1209.500	684.996	80.002	19.996	100.657	19.942	-0.137	0.484
1210.000	685.206	80.001	19.994	100.658	19.939	0.076	0.489
1210.500	685.460	80.003	19.996	100.661	19.939	0.083	0.474
1211.000	685.675	80.002	19.995	100.663	19.937	0.204	0.466
1211.500	685.952	80.002	19.995	100.663	19.941	-0.025	0.480
1212.000	686.197	80.003	19.996	100.659	19.940	-0.004	0.507
1212.500	686.455	80.000	19.997	100.654	19.936	0.251	0.513
1213.000	686.722	80.002	19.997	100.650	19.938	0.151	0.514
1213.500	686.926	80.001	19.998	100.647	19.935	0.324	0.497
1214.000	687.192	80.001	19.994	100.646	19.938	0.164	0.471
1214.500	687.427	80.000	19.997	100.646	19.938	0.153	0.486
1215.000	687.657	80.003	19.995	100.646	19.939	0.077	0.483
1215.500	687.902	80.002	19.998	100.647	19.940	0.016	0.470
1216.000	688.180	80.000	19.996	100.653	19.936	0.278	0.499
1216.500	688.400	80.001	19.996	100.653	19.942	-0.086	0.511
1217.000	688.670	80.001	19.997	100.653	19.939	0.107	0.494
1217.500	688.895	80.002	19.995	100.652	19.936	0.264	0.493
1218.000	689.166	80.002	19.994	100.650	19.936	0.250	0.496
1218.500	689.356	79.999	19.996	100.645	19.939	0.100	0.478
1219.000	689.630	80.000	19.997	100.645	19.940	0.040	0.462
1219.500	689.925	80.004	19.995	100.647	19.934	0.392	0.517
1220.000	690.182	79.999	19.998	100.647	19.938	0.158	0.561
1220.500	690.429	80.004	19.997	100.648	19.935	0.329	0.528
1221.000	690.669	80.004	19.995	100.646	19.938	0.120	0.495
1221.500	690.936	80.003	19.995	100.645	19.937	0.183	0.497
1222.000	691.198	80.002	19.995	100.646	19.938	0.113	0.518
1222.500	691.425	80.004	19.996	100.647	19.937	0.199	0.509
1223.000	691.679	80.003	19.995	100.648	19.938	0.165	0.485
1223.500	691.913	80.002	19.996	100.649	19.940	0.044	0.484
1224.000	692.127	80.002	19.994	100.650	19.936	0.280	0.468
1224.500	692.398	80.005	19.996	100.649	19.936	0.253	0.467
1225.000	692.668	80.004	19.996	100.647	19.939	0.060	0.513
1225.500	692.888	80.004	19.994	100.645	19.940	0.018	0.516
1226.000	693.111	80.005	19.996	100.645	19.943	-0.179	0.466
1226.500	693.398	80.004	19.993	100.646	19.940	0.039	0.476
1227.000	693.656	80.004	19.995	100.649	19.939	0.100	0.528
1227.500	693.895	80.005	19.996	100.652	19.942	-0.107	0.521
1228.000	694.159	80.004	19.995	100.653	19.941	-0.044	0.500
1228.500	694.401	80.004	19.995	100.652	19.940	0.000	0.505
1229.000	694.659	80.005	19.994	100.651	19.938	0.127	0.503
1229.500	694.912	80.003	19.994	100.648	19.941	-0.047	0.505
1230.000	695.168	80.005	19.994	100.647	19.943	-0.213	0.510
1230.500	695.395	80.005	19.995	100.647	19.943	-0.193	0.496
1231.000	695.642	80.003	19.993	100.651	19.940	0.002	0.478
1231.500	695.894	80.003	19.994	100.654	19.939	0.065	0.487
1232.000	696.145	80.005	19.994	100.654	19.940	0.023	0.501
1232.500	696.393	80.006	19.994	100.653	19.940	0.019	0.501
1233.000	696.671	80.005	19.995	100.652	19.939	0.049	0.512
1233.500	696.940	80.006	19.994	100.649	19.939	0.097	0.536
1234.000	697.201	80.006	19.996	100.645	19.940	-0.014	0.539
1234.500	697.434	80.005	19.995	100.646	19.940	0.014	0.512
1235.000	697.664	80.003	19.993	100.645	19.945	-0.309	0.479
1235.500	697.911	80.004	19.994	100.645	19.944	-0.220	0.470
1236.001	698.184	80.002	19.995	100.647	19.939	0.077	0.498
1236.500	698.468	80.003	19.994	100.647	19.943	-0.153	0.538
1237.000	698.743	80.005	19.995	100.647	19.940	-0.018	0.558
1237.500	698.933	80.004	19.994	100.647	19.943	-0.181	0.513
1238.000	699.216	80.003	19.994	100.647	19.938	0.167	0.469
1238.500	699.496	80.004	19.995	100.645	19.942	-0.088	0.517
1239.000	699.784	80.003	19.995	100.646	19.940	0.032	0.565
1239.500	700.019	80.004	19.995	100.646	19.938	0.132	0.546
1240.000	700.296	80.005	19.994	100.646	19.939	0.069	0.518
1240.500	700.584	80.006	19.994	100.646	19.940	0.007	0.539
1241.000	700.858	80.005	19.994	100.646	19.943	-0.185	0.564
1241.500	701.136	80.002	19.995	100.645	19.938	0.178	0.557
1242.000	701.360	80.004	19.995	100.646	19.941	-0.035	0.527
1242.500	701.642	80.002	19.995	100.646	19.941	-0.044	0.504
1243.000	701.909	80.002	19.996	100.646	19.943	-0.190	0.528
1243.500	702.177	80.003	19.995	100.647	19.939	0.079	0.542
1244.000	702.433	80.003	19.994	100.650	19.938	0.130	0.529
1244.500	702.693	80.004	19.994	100.650	19.936	0.258	0.520
1245.000	702.945	80.002	19.995	100.650	19.940	0.023	0.514
1245.500	703.220	80.003	19.993	100.652	19.941	-0.076	0.519
1246.000	703.493	80.005	19.995	100.651	19.940	-0.005	0.538
1246.500	703.771	80.004	19.994	100.649	19.939	0.098	0.549
1247.000	704.046	80.004	19.994	100.649	19.938	0.139	0.552
1247.500	704.297	80.005	19.996	100.650	19.940	0.014	0.540
1248.000	704.521	80.003	19.994	100.650	19.941	-0.032	0.501
1248.500	704.804	80.002	19.995	100.650	19.941	-0.047	0.491
1249.000	705.100	80.005	19.995	100.650	19.941	-0.081	0.543
1249.500	705.367	80.004	19.996	100.649	19.942	-0.139	0.571
1250.000	705.591	80.007	19.994	100.648	19.943	-0.209	0.527
1250.500	705.810	80.005	19.995	100.647	19.939	0.097	0.467
1251.000	706.087	80.005	19.995	100.647	19.940	0.011	0.470
1251.500	706.367	80.005	19.994	100.647	19.942	-0.132	0.526
1252.000	706.623	80.003	19.994	100.647	19.941	-0.033	0.547
1252.500	706.916	80.006	19.995	100.647	19.939	0.107	0.543
1253.000	707.144	80.005	19.994	100.648	19.939	0.097	0.535
1253.500	707.417	80.004	19.993	100.648	19.941	-0.077	0.511
1254.000	707.674	80.007	19.995	100.649	19.941	-0.058	0.515
1254.500	707.922	80.005	19.996	100.649	19.942	-0.141	0.518
1255.000	708.200	80.004	19.992	100.649	19.942	-0.148	0.516
1255.500	708.485	80.005	19.993	100.648	19.944	-0.257	0.544
1256.000	708.704	80.004	19.992	100.648	19.944	-0.236	0.533
1256.500	708.993	80.006	19.994	100.647	19.942	-0.113	0.506
1257.000	709.242	80.006	19.993	100.648	19.943	-0.202	0.523
1257.500	709.504	80.006	19.993	100.648	19.942	-0.111	0.525
1258.000	709.750	80.005	19.994	100.648	19.941	-0.070	0.510
1258.500	710.062	80.003	19.994	100.647	19.941	-0.042	0.533
1259.000	710.283	80.005	19.993	100.647	19.940	0.037	0.545
1259.500	710.569	80.004	19.995	100.647	19.941	-0.065	0.520
1260.000	710.835	80.005	19.992	100.647	19.942	-0.091	0.530
1260.500	711.078	80.004	19.993	100.648	19.939	0.049	0.531
1261.000	711.362	80.002	19.995	100.648	19.945	-0.322	0.518
1261.500	711.622	80.002	19.994	100.649	19.941	-0.077	0.535
1262.000	711.890	80.003	19.995	100.649	19.944	-0.244	0.536
1262.500	712.152	80.002	19.996	100.650	19.945	-0.290	0.529
1263.000	712.479	80.001	19.995	100.652	19.941	-0.083	0.560
1263.500	712.741	80.002	19.994	100.653	19.942	-0.141	0.589
1264.000	713.006	80.002	19.993	100.657	19.943	-0.204	0.557
1264.500	713.236	80.002	19.995	100.658	19.945	-0.327	0.511
1265.000	713.518	80.003	19.995	100.657	19.945	-0.281	0.504
1265.500	713.792	80.000	19.995	100.656	19.944	-0.273	0.534
1266.000	714.032	80.002	19.994	100.655	19.945	-0.290	0.535
1266.500	714.323	80.002	19.996	100.658	19.943	-0.156	0.523
1267.000	714.589	80.002	19.996	100.657	19.942	-0.095	0.545
1267.500	714.887	80.002	19.996	100.660	19.940	0.007	0.561
1268.000	715.140	80.001	19.994	100.663	19.943	-0.176	0.558
1268.500	715.465	80.004	19.997	100.665	19.941	-0.042	0.564
1269.000	715.711	80.004	19.993	100.659	19.944	-0.246	0.574
1269.500	715.975	80.000	19.995	100.659	19.941	-0.079	0.540
1270.000	716.250	80.001	19.995	100.656	19.937	0.185	0.524
1270.500	716.514	80.001	19.992	100.652	19.940	0.014	0.539
1271.000	716.785	80.002	19.996	100.650	19.942	-0.121	0.537
1271.500	717.056	80.002	19.994	100.651	19.944	-0.246	0.539
1272.000	717.334	80.002	19.993	100.651	19.940	0.009	0.546
1272.500	717.566	80.000	19.992	100.650	19.944	-0.222	0.529
1273.000	717.816	80.000	19.994	100.650	19.942	-0.116	0.496
1273.500	718.097	80.001	19.994	100.650	19.942	-0.088	0.507
1274.000	718.352	80.001	19.995	100.650	19.947	-0.417	0.534
1274.500	718.605	80.001	19.993	100.650	19.942	-0.116	0.522
1275.000	718.885	80.000	19.995	100.650	19.945	-0.339	0.520
1275.500	719.156	80.003	19.996	100.650	19.943	-0.211	0.542
1276.000	719.417	80.003	19.994	100.649	19.944	-0.232	0.542
1276.500	719.686	80.003	19.996	100.648	19.945	-0.283	0.531
1277.000	719.958	80.002	19.995	100.648	19.943	-0.155	0.536
1277.500	720.193	80.002	19.995	100.648	19.944	-0.237	0.524
1278.000	720.445	80.003	19.995	100.647	19.942	-0.141	0.497
1278.500	720.699	80.003	19.995	100.646	19.949	-0.605	0.497
1279.000	720.933	80.002	19.995	100.645	19.947	-0.415	0.497
1279.500	721.201	80.001	19.995	100.645	19.947	-0.464	0.495
1280.000	721.470	80.004	19.995	100.645	19.946	-0.345	0.520
1280.501	721.714	80.001	19.996	100.644	19.947	-0.457	0.525
1281.001	722.000	80.002	19.995	100.644	19.944	-0.267	0.521
1281.500	722.241	80.004	19.994	100.645	19.944	-0.276	0.529
1282.000	722.481	80.001	19.996	100.642	19.945	-0.295	0.504
1282.500	722.725	80.001	19.994	100.642	19.944	-0.253	0.482
1283.000	723.008	80.004	19.996	100.643	19.943	-0.207	0.506
1283.500	723.241	80.003	19.995	100.643	19.946	-0.387	0.522
1284.000	723.503	80.001	19.994	100.643	19.943	-0.185	0.506
1284.500	723.726	80.002	19.994	100.645	19.945	-0.302	0.490
1285.000	724.015	80.002	19.993	100.644	19.944	-0.266	0.498
1285.500	724.272	80.004	19.996	100.644	19.946	-0.350	0.529
1286.000	724.489	80.001	19.996	100.643	19.944	-0.267	0.510
1286.500	724.798	80.002	19.995	100.643	19.946	-0.353	0.500
1287.000	725.018	79.999	19.995	100.643	19.945	-0.332	0.527
1287.500	725.300	80.002	19.994	100.644	19.946	-0.382	0.516
1288.000	725.576	80.002	19.996	100.644	19.945	-0.325	0.530
1288.500	725.791	80.002	19.994	100.644	19.944	-0.260	0.524
1289.000	726.064	80.001	19.994	100.646	19.945	-0.329	0.489
1289.500	726.332	80.003	19.996	100.647	19.947	-0.413	0.515
1290.000	726.586	80.002	19.994	100.646	19.947	-0.411	0.532
1290.500	726.826	80.000	19.995	100.646	19.947	-0.443	0.508
1291.000	727.065	80.002	19.994	100.647	19.945	-0.316	0.486
1291.500	727.347	80.002	19.993	100.645	19.943	-0.179	0.500
1292.000	727.572	80.000	19.994	100.645	19.947	-0.450	0.515
1292.500	727.855	80.000	19.995	100.646	19.947	-0.420	0.508
1293.000	728.121	80.003	19.993	100.646	19.945	-0.304	0.528
1293.500	728.392	80.001	19.995	100.646	19.945	-0.294	0.543
1294.000	728.627	80.003	19.994	100.646	19.946	-0.357	0.521
1294.500	728.890	80.000	19.996	100.646	19.943	-0.188	0.502
1295.000	729.135	80.002	19.996	100.647	19.942	-0.100	0.503
1295.500	729.366	80.002	19.994	100.646	19.946	-0.353	0.492
1296.000	729.669	80.001	19.995	100.645	19.939	0.062	0.505
1296.500	729.888	80.001	19.997	100.645	19.943	-0.172	0.528
1297.000	730.157	80.001	19.997	100.643	19.946	-0.345	0.505
1297.500	730.387	80.003	19.995	100.642	19.945	-0.292	0.493
1298.000	730.637	80.000	19.996	100.643	19.945	-0.292	0.489
1298.500	730.898	80.000	19.997	100.644	19.945	-0.341	0.495
1299.000	731.156	80.002	19.996	100.644	19.947	-0.445	0.515
1299.500	731.393	80.002	19.998	100.646	19.948	-0.531	0.507
1300.000	731.674	80.003	19.997	100.646	19.946	-0.371	0.507
1300.500	731.919	80.002	19.996	100.647	19.945	-0.294	0.522
1301.000	732.144	80.000	19.996	100.647	19.947	-0.468	0.498
1301.500	732.407	80.001	19.995	100.646	19.946	-0.346	0.479
1302.000	732.664	80.002	19.995	100.646	19.947	-0.452	0.504
1302.500	732.929	80.003	19.996	100.646	19.950	-0.651	0.521
1303.000	733.162	80.004	19.997	100.645	19.947	-0.455	0.510
1303.500	733.419	80.005	19.996	100.645	19.948	-0.506	0.494
1304.000	733.709	80.004	19.996	100.644	19.946	-0.382	0.519
1304.500	733.920	80.001	19.996	100.644	19.947	-0.471	0.524
1305.000	734.136	80.001	19.996	100.645	19.946	-0.406	0.463
1305.500	734.423	80.004	19.996	100.645	19.950	-0.637	0.465
1306.000	734.652	80.003	19.997	100.645	19.945	-0.339	0.510
1306.500	734.908	80.001	19.997	100.645	19.946	-0.401	0.501
1307.000	735.143	80.003	19.997	100.643	19.948	-0.526	0.488
1307.500	735.372	80.006	19.996	100.641	19.945	-0.338	0.477
1308.000	735.672	80.004	19.995	100.641	19.943	-0.213	0.497
1308.500	735.843	80.001	19.996	100.641	19.946	-0.346	0.500
1309.000	736.109	80.005	19.995	100.642	19.947	-0.429	0.454
1309.500	736.352	80.005	19.995	100.642	19.947	-0.426	0.473
1310.000	736.624	80.004	19.996	100.643	19.944	-0.276	0.512
1310.500	736.848	80.003	19.997	100.642	19.945	-0.332	0.505
1311.000	737.091	80.002	19.995	100.641	19.947	-0.469	0.481
1311.500	737.366	80.002	19.997	100.641	19.947	-0.429	0.493
1312.000	737.638	80.002	19.996	100.642	19.942	-0.116	0.533
1312.500	737.888	80.004	19.995	100.643	19.942	-0.127	0.534
1313.000	738.106	80.001	19.996	100.645	19.945	-0.297	0.495
1313.500	738.377	80.005	19.994	100.646	19.948	-0.506	0.478
1314.000	738.623	80.003	19.996	100.645	19.946	-0.396	0.503
1314.500	738.859	80.004	19.996	100.645	19.944	-0.227	0.500
1315.000	739.101	80.003	19.996	100.645	19.945	-0.281	0.480
1315.500	739.339	80.002	19.995	100.645	19.943	-0.192	0.479
1316.000	739.578	80.002	19.992	100.645	19.942	-0.127	0.479
1316.500	739.827	80.002	19.995	100.646	19.942	-0.102	0.482
1317.000	740.071	80.005	19.997	100.641	19.946	-0.406	0.491
1317.500	740.279	80.002	19.996	100.635	19.945	-0.334	0.473
1318.000	740.540	80.005	19.996	100.634	19.948	-0.482	0.460
1318.500	740.762	80.003	19.996	100.634	19.947	-0.452	0.476
1319.000	740.989	80.004	19.995	100.635	19.943	-0.188	0.466
1319.500	741.220	80.004	19.993	100.641	19.944	-0.246	0.453
1320.000	741.455	80.004	19.996	100.647	19.945	-0.297	0.462
1320.500	741.728	80.003	19.997	100.647	19.943	-0.190	0.487
1321.000	741.951	80.004	19.995	100.648	19.944	-0.264	0.502
1321.500	742.197	80.003	19.995	100.648	19.947	-0.447	0.482
1322.000	742.434	80.003	19.996	100.648	19.946	-0.362	0.476
1322.500	742.691	80.002	19.996	100.647	19.945	-0.297	0.488
1323.000	742.882	80.002	19.995	100.649	19.946	-0.350	0.471
1323.501	743.150	80.003	19.996	100.648	19.947	-0.473	0.454
1324.000	743.391	80.003	19.995	100.648	19.946	-0.373	0.484
1324.500	743.621	80.003	19.995	100.648	19.948	-0.499	0.490
1325.000	743.865	80.003	19.993	100.648	19.948	-0.520	0.472
