Sample ID:	C:\MCC\MCC Cal\Test\Gypsum_Wallboard_Paper_211001_R3.txt
Sample Weight (mg):	4.55
Heating Rate (C/s):	0.5
Combustor Temp (C):	900
N2 Flow Rate (cc/min):	80
O2 Flow Rate (cc/min):	20
Calibration File:	C:\MCC\MCC Cal\Coeff1 JN10440_30_210304.txt.txt
T Correction Coefficients:	0	1.024463	0
Time Shift (s):	14
*
Time (s)	Temperature (C)	N2 flow rate (cc/min)	O2 flow rate (cc/min)	Flow Rate (cc/min)	Oxygen (%)	HRR (W/g)	Heating rate (C/s)
0.000	109.722	80.001	19.997	100.563	20.081	-0.492	-0.007
0.500	109.722	80.001	19.996	100.566	20.080	-0.479	-0.027
1.000	109.732	80.002	19.998	100.567	20.076	-0.171	-0.006
1.500	109.731	80.001	19.997	100.570	20.077	-0.260	0.009
2.000	109.727	80.001	19.996	100.570	20.083	-0.641	0.002
2.500	109.656	80.001	19.996	100.568	20.077	-0.271	-0.040
3.000	109.679	80.001	19.995	100.566	20.080	-0.429	-0.061
3.500	109.743	80.001	19.996	100.566	20.078	-0.318	0.020
4.000	109.757	80.003	19.996	100.564	20.079	-0.379	0.083
4.500	109.716	80.001	19.995	100.562	20.077	-0.228	0.025
5.000	109.748	80.002	19.995	100.562	20.078	-0.336	-0.018
5.500	109.722	80.002	19.994	100.558	20.079	-0.379	-0.001
6.000	109.704	80.001	19.995	100.552	20.075	-0.130	-0.019
6.500	109.708	80.002	19.995	100.552	20.077	-0.253	-0.029
7.000	109.696	80.002	19.994	100.551	20.079	-0.390	-0.011
7.500	109.696	80.003	19.995	100.547	20.076	-0.150	-0.010
8.000	109.704	80.001	19.995	100.550	20.077	-0.271	-0.002
8.500	109.685	80.001	19.994	100.556	20.076	-0.162	-0.001
9.000	109.716	80.003	19.994	100.556	20.077	-0.212	0.000
9.500	109.681	80.002	19.993	100.554	20.072	0.095	0.004
10.000	109.717	80.002	19.994	100.558	20.075	-0.110	-0.001
10.500	109.705	80.002	19.993	100.558	20.075	-0.134	0.013
11.000	109.695	80.003	19.996	100.558	20.074	-0.061	0.001
11.500	109.700	80.001	19.994	100.560	20.070	0.234	-0.013
12.000	109.699	80.001	19.995	100.567	20.070	0.266	-0.000
12.500	109.705	80.001	19.994	100.570	20.070	0.219	0.005
13.000	109.686	80.001	19.994	100.572	20.074	-0.006	-0.004
13.500	109.698	80.002	19.994	100.572	20.070	0.227	-0.010
14.001	109.701	80.000	19.994	100.572	20.072	0.084	0.004
14.501	109.673	80.001	19.994	100.571	20.074	-0.056	-0.005
15.000	109.682	79.999	19.994	100.569	20.072	0.134	-0.022
15.500	109.670	80.000	19.995	100.568	20.073	0.022	-0.011
16.000	109.707	80.000	19.994	100.568	20.069	0.288	0.011
16.500	109.692	80.000	19.994	100.568	20.073	0.061	0.024
17.000	109.666	80.000	19.994	100.568	20.072	0.097	-0.010
17.500	109.681	80.000	19.994	100.567	20.070	0.236	-0.026
18.000	109.668	80.000	19.993	100.568	20.070	0.208	-0.004
18.500	109.669	80.000	19.995	100.574	20.072	0.130	-0.005
19.000	109.670	79.998	19.994	100.582	20.072	0.069	-0.005
19.500	109.711	79.999	19.994	100.588	20.070	0.253	0.022
20.000	109.675	80.000	19.994	100.596	20.071	0.179	0.023
20.500	109.663	80.000	19.995	100.604	20.067	0.470	-0.022
21.000	109.687	80.000	19.995	100.606	20.066	0.528	-0.018
21.500	109.703	80.000	19.994	100.606	20.068	0.411	0.026
22.000	109.704	80.001	19.994	100.609	20.064	0.679	0.028
22.500	109.695	80.000	19.994	100.612	20.065	0.586	0.005
23.000	109.691	80.000	19.994	100.618	20.064	0.675	-0.010
23.500	109.705	79.999	19.994	100.623	20.064	0.680	-0.002
24.000	109.701	79.999	19.994	100.631	20.064	0.639	0.010
24.500	109.774	80.001	19.994	100.637	20.064	0.623	0.040
25.000	109.716	80.001	19.994	100.637	20.063	0.734	0.043
25.500	109.734	80.001	19.994	100.636	20.063	0.706	-0.012
26.000	109.736	80.000	19.994	100.638	20.064	0.651	-0.010
26.500	109.739	79.999	19.994	100.638	20.063	0.736	0.012
27.000	109.799	80.000	19.993	100.639	20.062	0.783	0.034
27.500	109.794	79.999	19.994	100.644	20.060	0.902	0.059
28.000	109.809	80.000	19.995	100.646	20.061	0.836	0.033
28.500	109.857	79.998	19.995	100.650	20.059	1.000	0.036
29.000	109.894	80.000	19.996	100.658	20.060	0.955	0.074
29.500	109.916	79.999	19.995	100.664	20.058	1.091	0.072
30.000	109.912	79.999	19.995	100.671	20.056	1.193	0.039
30.500	109.942	80.000	19.995	100.678	20.056	1.231	0.022
31.000	109.955	79.999	19.996	100.683	20.053	1.403	0.034
31.500	110.054	79.999	19.994	100.681	20.056	1.238	0.078
32.000	110.010	80.001	19.995	100.678	20.056	1.182	0.083
32.500	110.053	80.000	19.994	100.671	20.057	1.108	0.027
33.000	110.114	79.999	19.994	100.663	20.058	1.080	0.051
33.500	110.142	80.000	19.995	100.655	20.060	0.900	0.097
34.000	110.143	80.000	19.995	100.647	20.053	1.424	0.059
34.500	110.198	80.000	19.995	100.640	20.057	1.121	0.042
35.001	110.220	79.999	19.995	100.636	20.058	1.082	0.067
35.501	110.259	79.999	19.995	100.637	20.059	1.032	0.069
36.000	110.308	79.998	19.995	100.639	20.056	1.177	0.074
36.500	110.302	79.999	19.998	100.642	20.058	1.082	0.065
37.000	110.355	80.000	19.997	100.649	20.058	1.071	0.045
37.500	110.442	79.998	19.997	100.654	20.057	1.158	0.094
38.000	110.433	80.000	19.995	100.654	20.059	1.023	0.110
38.500	110.485	79.999	19.995	100.652	20.056	1.205	0.061
39.000	110.531	79.999	19.996	100.650	20.058	1.064	0.070
39.500	110.584	80.000	19.996	100.648	20.057	1.116	0.098
40.000	110.633	79.999	19.995	100.647	20.057	1.155	0.100
40.500	110.698	79.999	19.994	100.647	20.059	1.010	0.108
41.001	110.698	79.999	19.995	100.647	20.056	1.232	0.090
41.501	110.733	80.000	19.994	100.648	20.057	1.155	0.050
42.000	110.786	80.000	19.994	100.649	20.057	1.122	0.062
42.500	110.840	79.999	19.995	100.650	20.056	1.239	0.098
43.000	110.867	79.998	19.995	100.652	20.056	1.237	0.094
43.500	110.929	80.000	19.994	100.653	20.056	1.226	0.085
44.000	110.936	79.999	19.994	100.658	20.055	1.272	0.079
44.500	110.975	79.999	19.994	100.660	20.056	1.230	0.057
45.000	111.017	79.999	19.994	100.660	20.059	0.969	0.063
45.500	111.059	79.999	19.995	100.657	20.056	1.233	0.083
46.000	111.132	79.999	19.994	100.657	20.054	1.323	0.100
46.500	111.191	79.999	19.994	100.659	20.051	1.524	0.123
47.000	111.235	80.001	19.996	100.664	20.051	1.535	0.117
47.500	111.312	80.000	19.995	100.672	20.055	1.287	0.112
48.000	111.340	80.000	19.995	100.679	20.048	1.775	0.113
48.500	111.388	80.001	19.995	100.687	20.050	1.630	0.091
49.000	111.478	80.000	19.995	100.694	20.050	1.620	0.107
49.500	111.525	80.000	19.995	100.701	20.046	1.866	0.137
50.000	111.553	79.998	19.995	100.710	20.043	2.073	0.106
50.500	111.598	79.997	19.994	100.719	20.046	1.874	0.074
51.000	111.683	79.998	19.994	100.727	20.044	2.010	0.102
51.500	111.757	79.998	19.996	100.729	20.044	2.032	0.145
52.000	111.796	79.999	19.994	100.729	20.042	2.140	0.136
52.500	111.880	79.999	19.995	100.729	20.043	2.135	0.118
53.000	111.983	79.999	19.995	100.728	20.042	2.196	0.155
53.500	112.025	80.000	19.994	100.728	20.042	2.157	0.166
54.000	112.121	79.999	19.995	100.730	20.041	2.248	0.142
54.501	112.177	80.000	19.994	100.731	20.039	2.367	0.146
55.001	112.224	79.999	19.995	100.732	20.040	2.343	0.127
55.500	112.323	80.000	19.994	100.734	20.040	2.337	0.124
56.000	112.389	80.000	19.994	100.737	20.039	2.395	0.156
56.500	112.437	79.999	19.994	100.736	20.038	2.455	0.140
57.000	112.528	80.000	19.995	100.735	20.038	2.453	0.126
57.500	112.596	79.999	19.995	100.734	20.037	2.516	0.148
58.000	112.663	79.999	19.995	100.733	20.040	2.312	0.147
58.500	112.743	80.000	19.994	100.730	20.038	2.438	0.141
59.000	112.865	80.001	19.995	100.729	20.037	2.542	0.174
59.500	112.935	80.000	19.995	100.730	20.037	2.540	0.197
60.000	112.984	80.001	19.995	100.735	20.039	2.393	0.156
60.500	113.069	80.001	19.995	100.741	20.036	2.604	0.126
61.000	113.138	80.000	19.995	100.747	20.037	2.542	0.144
61.500	113.273	80.000	19.995	100.753	20.036	2.598	0.180
62.000	113.316	80.001	19.995	100.759	20.035	2.671	0.191
62.500	113.457	80.001	19.996	100.762	20.032	2.836	0.180
63.000	113.580	80.001	19.995	100.764	20.037	2.494	0.224
63.500	113.615	80.000	19.995	100.765	20.038	2.444	0.211
64.000	113.716	80.001	19.995	100.768	20.036	2.591	0.147
64.500	113.807	80.001	19.995	100.768	20.037	2.553	0.164
65.000	113.909	80.001	19.995	100.769	20.033	2.825	0.192
65.500	113.979	80.001	19.996	100.768	20.035	2.660	0.182
66.000	114.103	80.001	19.996	100.768	20.035	2.634	0.183
66.500	114.216	80.001	19.995	100.768	20.032	2.842	0.216
67.000	114.319	79.999	19.996	100.772	20.033	2.816	0.227
67.500	114.436	80.000	19.995	100.775	20.034	2.723	0.218
68.000	114.506	80.000	19.996	100.776	20.034	2.732	0.203
68.500	114.675	80.000	19.996	100.778	20.037	2.535	0.213
69.000	114.760	80.001	19.996	100.778	20.031	2.920	0.247
69.500	114.872	80.000	19.995	100.773	20.030	2.994	0.225
70.000	114.958	79.999	19.996	100.769	20.031	2.946	0.197
70.500	115.132	79.999	19.995	100.768	20.031	2.957	0.230
71.000	115.191	79.999	19.995	100.767	20.032	2.892	0.247
71.500	115.330	80.001	19.996	100.765	20.031	2.967	0.215
72.001	115.454	79.999	19.996	100.766	20.032	2.885	0.231
72.502	115.566	80.000	19.995	100.766	20.031	2.939	0.249
73.001	115.710	80.000	19.995	100.770	20.032	2.892	0.246
73.500	115.819	80.000	19.994	100.772	20.032	2.864	0.254
74.000	115.981	79.999	19.996	100.773	20.031	2.941	0.262
74.500	116.086	79.999	19.996	100.773	20.030	3.006	0.269
75.000	116.210	79.999	19.995	100.772	20.030	3.017	0.248
75.500	116.363	80.000	19.996	100.771	20.033	2.796	0.253
76.000	116.532	79.999	19.996	100.770	20.031	2.904	0.299
76.500	116.637	79.999	19.995	100.773	20.031	2.958	0.298
77.000	116.744	79.999	19.995	100.776	20.032	2.898	0.243
77.500	116.896	80.000	19.994	100.777	20.035	2.641	0.236
78.000	117.038	80.000	19.995	100.776	20.034	2.712	0.277
78.500	117.180	80.000	19.995	100.773	20.032	2.839	0.289
79.000	117.296	80.000	19.994	100.769	20.035	2.649	0.271
79.500	117.455	80.001	19.994	100.766	20.032	2.854	0.266
80.000	117.613	80.001	19.993	100.765	20.032	2.839	0.296
80.501	117.729	80.001	19.994	100.766	20.031	2.943	0.296
81.001	117.868	79.999	19.994	100.769	20.031	2.930	0.264
81.500	118.028	80.002	19.994	100.771	20.034	2.694	0.277
82.000	118.173	80.001	19.995	100.771	20.035	2.679	0.303
82.500	118.350	80.002	19.994	100.772	20.034	2.707	0.314
83.000	118.453	80.002	19.995	100.772	20.030	3.038	0.301
83.500	118.601	80.002	19.994	100.770	20.030	3.018	0.265
84.000	118.725	80.002	19.995	100.770	20.028	3.131	0.261
84.500	118.900	80.001	19.995	100.774	20.031	2.912	0.286
85.001	119.032	80.002	19.994	100.780	20.031	2.962	0.303
85.501	119.168	80.002	19.994	100.784	20.033	2.826	0.287
86.000	119.337	80.002	19.995	100.783	20.033	2.800	0.287
86.500	119.481	80.003	19.995	100.785	20.032	2.880	0.309
87.000	119.608	80.002	19.995	100.785	20.031	2.910	0.292
87.500	119.780	80.002	19.995	100.784	20.030	2.999	0.285
88.000	119.943	80.002	19.996	100.785	20.029	3.055	0.317
88.500	120.119	80.004	19.995	100.792	20.025	3.323	0.337
89.000	120.265	80.004	19.996	100.796	20.030	2.979	0.330
89.500	120.419	80.003	19.996	100.798	20.029	3.103	0.311
90.000	120.596	80.003	19.996	100.798	20.028	3.176	0.316
90.500	120.752	80.001	19.995	100.794	20.029	3.102	0.332
91.000	120.934	80.002	19.994	100.793	20.030	3.033	0.336
91.500	121.098	80.002	19.995	100.791	20.027	3.210	0.342
92.000	121.273	80.001	19.996	100.790	20.025	3.368	0.342
92.501	121.424	80.002	19.994	100.792	20.025	3.366	0.333
93.001	121.614	80.001	19.995	100.795	20.029	3.076	0.334
93.500	121.757	80.001	19.996	100.797	20.029	3.087	0.337
94.000	121.923	80.002	19.995	100.799	20.028	3.169	0.321
94.500	122.113	80.001	19.994	100.801	20.026	3.292	0.333
95.000	122.228	80.001	19.995	100.801	20.024	3.398	0.331
95.500	122.425	79.999	19.995	100.801	20.028	3.139	0.309
96.001	122.627	79.999	19.995	100.801	20.027	3.206	0.355
96.501	122.754	79.999	19.995	100.800	20.030	2.988	0.364
97.000	122.946	79.999	19.995	100.800	20.027	3.178	0.325
97.500	123.078	79.998	19.995	100.801	20.025	3.355	0.322
98.000	123.276	79.997	19.995	100.801	20.029	3.098	0.327
98.500	123.435	80.000	19.994	100.801	20.027	3.204	0.343
99.000	123.655	80.000	19.996	100.803	20.028	3.148	0.368
99.500	123.829	80.000	19.996	100.803	20.028	3.176	0.386
100.000	123.999	80.000	19.994	100.803	20.028	3.156	0.369
100.500	124.121	80.000	19.995	100.804	20.028	3.154	0.318
101.000	124.341	79.999	19.994	100.805	20.029	3.053	0.318
101.500	124.532	79.999	19.996	100.806	20.028	3.128	0.377
102.000	124.648	79.998	19.995	100.805	20.030	3.039	0.359
102.500	124.904	79.999	19.994	100.806	20.028	3.149	0.339
103.000	125.052	79.998	19.994	100.806	20.025	3.370	0.388
103.500	125.247	79.999	19.994	100.806	20.026	3.315	0.374
104.000	125.445	79.998	19.994	100.806	20.023	3.506	0.368
104.500	125.647	79.998	19.995	100.807	20.029	3.045	0.396
105.000	125.828	79.998	19.995	100.807	20.031	2.954	0.391
105.500	126.017	80.000	19.995	100.812	20.025	3.330	0.376
106.000	126.186	79.999	19.996	100.812	20.025	3.369	0.364
106.500	126.368	79.998	19.994	100.812	20.027	3.227	0.355
107.000	126.629	79.998	19.995	100.811	20.025	3.359	0.397
107.500	126.788	79.999	19.994	100.811	20.028	3.147	0.431
108.000	126.913	80.000	19.994	100.806	20.026	3.309	0.352
108.500	127.134	79.999	19.996	100.806	20.028	3.167	0.315
109.000	127.295	79.998	19.994	100.806	20.024	3.450	0.364
109.500	127.494	79.998	19.994	100.806	20.026	3.300	0.371
110.000	127.724	79.999	19.993	100.807	20.026	3.281	0.395
110.501	127.966	79.999	19.994	100.807	20.029	3.108	0.451
111.001	128.121	79.998	19.994	100.808	20.030	3.039	0.434
111.500	128.330	79.999	19.995	100.809	20.028	3.171	0.380
112.000	128.510	80.000	19.995	100.809	20.029	3.106	0.377
112.500	128.723	79.999	19.995	100.810	20.027	3.235	0.391
113.000	128.951	79.999	19.996	100.813	20.030	3.017	0.417
113.500	129.154	79.999	19.995	100.817	20.029	3.069	0.436
114.000	129.365	79.999	19.994	100.818	20.030	3.018	0.423
114.500	129.568	79.999	19.995	100.825	20.031	2.953	0.414
115.000	129.786	79.999	19.994	100.830	20.027	3.178	0.417
115.500	129.969	79.999	19.996	100.833	20.029	3.071	0.410
116.000	130.214	79.999	19.995	100.833	20.028	3.175	0.414
116.501	130.408	80.000	19.995	100.834	20.029	3.065	0.434
117.001	130.577	79.998	19.995	100.831	20.030	2.998	0.401
117.500	130.808	80.000	19.994	100.824	20.030	3.031	0.381
118.000	131.012	80.000	19.994	100.820	20.029	3.087	0.418
118.500	131.220	80.000	19.994	100.817	20.027	3.210	0.424
119.000	131.497	79.999	19.995	100.817	20.024	3.402	0.449
119.500	131.657	79.999	19.995	100.818	20.027	3.214	0.461
120.000	131.869	79.999	19.994	100.821	20.026	3.262	0.405
120.500	132.073	79.998	19.994	100.824	20.029	3.091	0.394
121.000	132.290	80.000	19.994	100.826	20.025	3.340	0.418
121.500	132.502	79.999	19.995	100.827	20.029	3.044	0.425
122.000	132.726	80.000	19.995	100.827	20.027	3.242	0.433
122.500	132.917	79.999	19.994	100.830	20.028	3.171	0.425
123.000	133.138	80.000	19.994	100.833	20.026	3.279	0.413
123.500	133.367	79.999	19.994	100.833	20.028	3.171	0.431
124.001	133.592	79.998	19.995	100.828	20.021	3.610	0.452
124.501	133.839	79.998	19.995	100.823	20.024	3.437	0.463
125.000	134.082	80.000	19.994	100.819	20.027	3.229	0.481
125.500	134.254	79.999	19.995	100.816	20.027	3.238	0.453
126.000	134.494	80.001	19.994	100.820	20.025	3.378	0.413
126.500	134.766	79.998	19.995	100.825	20.027	3.240	0.462
127.000	134.967	79.998	19.996	100.828	20.026	3.309	0.493
127.500	135.209	79.999	19.996	100.831	20.025	3.342	0.458
128.000	135.413	79.999	19.996	100.828	20.028	3.134	0.444
128.500	135.606	79.999	19.995	100.823	20.026	3.309	0.421
129.000	135.832	79.999	19.995	100.820	20.027	3.227	0.408
129.500	136.064	80.000	19.995	100.818	20.025	3.355	0.439
130.000	136.335	79.999	19.996	100.813	20.028	3.160	0.481
130.500	136.529	79.997	19.996	100.814	20.025	3.375	0.484
131.000	136.723	79.999	19.995	100.813	20.025	3.347	0.427
131.500	136.981	79.999	19.995	100.815	20.024	3.435	0.420
132.000	137.199	79.999	19.995	100.815	20.025	3.346	0.464
132.500	137.429	79.999	19.995	100.815	20.026	3.277	0.462
133.000	137.671	80.000	19.995	100.814	20.026	3.270	0.460
133.500	137.855	79.998	19.994	100.814	20.026	3.279	0.449
134.000	138.147	79.999	19.994	100.813	20.025	3.346	0.451
134.500	138.354	79.999	19.996	100.815	20.026	3.312	0.488
135.000	138.567	80.000	19.995	100.820	20.028	3.139	0.460
135.500	138.810	79.998	19.996	100.820	20.026	3.249	0.438
136.000	139.029	79.998	19.995	100.818	20.024	3.422	0.459
136.500	139.248	80.000	19.996	100.816	20.025	3.329	0.450
137.000	139.470	80.000	19.995	100.817	20.029	3.103	0.439
137.500	139.709	80.000	19.996	100.812	20.025	3.319	0.450
138.000	139.923	80.000	19.995	100.812	20.025	3.347	0.457
138.500	140.197	80.000	19.996	100.815	20.024	3.444	0.471
139.000	140.406	79.999	19.994	100.822	20.025	3.357	0.485
139.500	140.672	79.999	19.994	100.821	20.026	3.252	0.479
140.000	140.886	79.999	19.994	100.821	20.025	3.338	0.478
140.500	141.119	80.001	19.995	100.820	20.026	3.288	0.464
141.000	141.333	80.000	19.995	100.817	20.025	3.368	0.447
141.500	141.622	80.001	19.995	100.810	20.023	3.511	0.475
142.000	141.853	80.001	19.995	100.808	20.021	3.617	0.511
142.500	142.108	80.001	19.995	100.808	20.023	3.496	0.503
143.000	142.353	80.002	19.995	100.811	20.023	3.483	0.494
143.500	142.604	80.002	19.994	100.817	20.028	3.170	0.499
144.000	142.860	80.001	19.995	100.817	20.025	3.345	0.502
144.500	143.061	80.001	19.994	100.816	20.029	3.090	0.482
145.000	143.347	80.002	19.995	100.815	20.026	3.314	0.472
145.500	143.543	80.001	19.994	100.812	20.025	3.334	0.485
146.000	143.773	80.000	19.995	100.806	20.027	3.198	0.455
146.500	144.047	80.001	19.995	100.805	20.027	3.245	0.465
147.000	144.311	80.001	19.995	100.806	20.027	3.180	0.521
147.500	144.558	80.001	19.995	100.805	20.025	3.383	0.524
148.000	144.788	80.001	19.994	100.802	20.026	3.290	0.494
148.500	145.026	80.001	19.997	100.802	20.029	3.092	0.472
149.000	145.279	80.001	19.997	100.802	20.025	3.351	0.480
149.500	145.494	79.999	19.996	100.804	20.024	3.385	0.479
150.000	145.743	79.999	19.994	100.806	20.026	3.293	0.466
150.500	146.022	80.000	19.995	100.806	20.023	3.483	0.496
151.000	146.268	80.000	19.995	100.807	20.022	3.526	0.526
151.500	146.494	80.000	19.995	100.809	20.022	3.532	0.499
152.000	146.699	79.999	19.996	100.809	20.023	3.513	0.452
152.500	146.992	79.998	19.995	100.807	20.022	3.565	0.464
153.000	147.223	80.000	19.994	100.808	20.022	3.558	0.511
153.500	147.475	79.998	19.996	100.807	20.022	3.537	0.503
154.000	147.666	79.999	19.996	100.805	20.022	3.558	0.463
154.500	147.925	79.999	19.995	100.803	20.024	3.437	0.446
155.000	148.199	79.999	19.995	100.803	20.024	3.405	0.492
155.500	148.433	79.999	19.996	100.802	20.022	3.524	0.521
156.000	148.687	80.000	19.996	100.802	20.023	3.496	0.498
156.500	148.927	79.999	19.995	100.801	20.022	3.572	0.491
157.000	149.181	79.998	19.995	100.802	20.023	3.518	0.494
157.500	149.451	80.000	19.996	100.802	20.024	3.396	0.509
158.000	149.766	79.999	19.996	100.802	20.022	3.556	0.554
158.500	149.965	79.998	19.997	100.804	20.021	3.621	0.550
159.000	150.203	80.000	19.995	100.805	20.023	3.513	0.476
159.500	150.454	79.999	19.995	100.806	20.022	3.569	0.463
160.000	150.731	79.999	19.995	100.807	20.024	3.453	0.509
160.500	150.957	80.000	19.996	100.806	20.022	3.546	0.516
161.000	151.234	80.000	19.995	100.804	20.023	3.476	0.503
161.500	151.455	79.999	19.996	100.804	20.021	3.615	0.500
162.000	151.684	80.000	19.995	100.802	20.024	3.422	0.474
162.500	151.975	80.000	19.995	100.802	20.023	3.506	0.485
163.000	152.232	79.998	19.994	100.803	20.024	3.405	0.534
163.500	152.449	79.999	19.995	100.804	20.022	3.580	0.511
164.000	152.704	79.999	19.995	100.805	20.020	3.664	0.473
164.500	152.937	80.000	19.995	100.805	20.022	3.580	0.480
165.000	153.162	80.001	19.994	100.804	20.021	3.628	0.473
165.500	153.416	79.999	19.994	100.804	20.023	3.498	0.469
166.000	153.655	80.001	19.994	100.804	20.023	3.511	0.486
166.500	153.900	80.000	19.995	100.804	20.022	3.591	0.488
167.000	154.164	80.001	19.994	100.802	20.022	3.548	0.497
167.500	154.395	80.002	19.995	100.800	20.024	3.409	0.502
168.000	154.662	80.001	19.994	100.800	20.024	3.437	0.496
168.500	154.937	80.001	19.995	100.799	20.021	3.610	0.520
169.000	155.152	80.001	19.994	100.798	20.024	3.446	0.516
169.500	155.397	80.002	19.995	100.800	20.024	3.422	0.475
170.000	155.658	80.001	19.993	100.802	20.024	3.405	0.483
170.500	155.889	80.001	19.995	100.802	20.025	3.332	0.499
171.000	156.150	80.001	19.995	100.802	20.022	3.578	0.492
171.500	156.417	80.002	19.994	100.802	20.024	3.390	0.510
172.000	156.659	80.002	19.994	100.802	20.024	3.448	0.519
172.500	156.879	80.002	19.994	100.801	20.024	3.416	0.486
173.000	157.167	80.002	19.994	100.802	20.024	3.390	0.485
173.500	157.422	80.001	19.993	100.802	20.024	3.438	0.525
174.000	157.652	80.001	19.994	100.802	20.022	3.561	0.514
174.500	157.951	80.001	19.994	100.802	20.021	3.612	0.508
175.000	158.171	80.001	19.994	100.802	20.020	3.681	0.524
175.500	158.406	80.001	19.994	100.803	20.022	3.532	0.487
176.000	158.686	80.001	19.994	100.802	20.025	3.327	0.485
176.500	158.925	80.000	19.994	100.802	20.024	3.399	0.517
177.000	159.172	80.000	19.995	100.802	20.023	3.500	0.503
177.500	159.401	79.999	19.994	100.802	20.023	3.481	0.481
178.000	159.668	80.000	19.995	100.801	20.026	3.304	0.486
178.500	159.917	80.000	19.994	100.800	20.023	3.472	0.506
179.000	160.143	79.998	19.994	100.800	20.025	3.317	0.495
179.500	160.451	79.999	19.994	100.799	20.028	3.126	0.505
180.000	160.693	79.999	19.994	100.800	20.025	3.336	0.542
180.500	160.942	79.999	19.994	100.801	20.030	2.987	0.520
181.000	161.196	79.998	19.995	100.802	20.025	3.328	0.497
181.500	161.478	80.000	19.994	100.802	20.025	3.365	0.520
182.000	161.748	79.999	19.994	100.803	20.030	3.013	0.544
182.500	161.946	79.999	19.994	100.801	20.025	3.338	0.510
183.000	162.215	79.999	19.994	100.798	20.026	3.252	0.467
183.500	162.478	79.998	19.994	100.797	20.026	3.258	0.499
184.000	162.767	79.998	19.995	100.797	20.022	3.554	0.542
184.500	162.991	79.997	19.994	100.797	20.029	3.051	0.532
185.000	163.228	79.998	19.995	100.800	20.026	3.247	0.487
185.500	163.445	79.998	19.994	100.803	20.024	3.403	0.457
186.000	163.751	80.000	19.994	100.804	20.026	3.304	0.488
186.500	163.998	79.999	19.995	100.804	20.026	3.295	0.538
187.000	164.239	80.000	19.994	100.803	20.027	3.215	0.521
187.500	164.499	79.998	19.994	100.803	20.027	3.243	0.494
188.000	164.755	80.000	19.994	100.802	20.026	3.311	0.508
188.500	164.992	80.000	19.993	100.803	20.027	3.209	0.505
189.000	165.240	80.001	19.994	100.802	20.026	3.259	0.489
189.500	165.504	79.999	19.995	100.801	20.024	3.410	0.499
190.000	165.760	79.999	19.995	100.798	20.027	3.177	0.516
190.500	166.070	80.000	19.993	100.796	20.027	3.244	0.543
191.000	166.329	79.999	19.994	100.788	20.026	3.272	0.567
191.500	166.545	79.999	19.995	100.783	20.025	3.326	0.522
192.000	166.814	80.000	19.995	100.783	20.026	3.263	0.480
192.500	167.084	79.999	19.995	100.781	20.025	3.332	0.512
193.000	167.327	80.000	19.994	100.783	20.028	3.168	0.526
193.500	167.589	80.000	19.994	100.789	20.026	3.311	0.509
194.000	167.838	80.000	19.995	100.793	20.026	3.293	0.508
194.500	168.087	79.998	19.995	100.792	20.031	2.935	0.504
195.000	168.343	80.000	19.994	100.796	20.029	3.099	0.501
195.500	168.603	79.999	19.994	100.796	20.027	3.239	0.511
196.000	168.844	80.002	19.995	100.795	20.028	3.122	0.509
196.500	169.086	80.000	19.995	100.797	20.027	3.215	0.492
197.000	169.366	80.001	19.994	100.795	20.026	3.267	0.502
197.500	169.648	80.000	19.994	100.792	20.031	2.935	0.542
198.000	169.844	80.001	19.995	100.793	20.027	3.233	0.520
198.500	170.107	79.999	19.994	100.791	20.025	3.337	0.469
199.000	170.380	80.001	19.996	100.789	20.029	3.082	0.498
199.500	170.591	80.000	19.995	100.789	20.029	3.097	0.510
200.000	170.865	80.001	19.994	100.788	20.027	3.200	0.484
200.500	171.070	80.000	19.995	100.786	20.024	3.439	0.482
201.000	171.353	80.000	19.994	100.783	20.028	3.117	0.484
201.500	171.591	80.001	19.994	100.781	20.027	3.237	0.505
202.000	171.848	80.000	19.995	100.782	20.023	3.460	0.508
202.500	172.124	80.000	19.994	100.786	20.027	3.229	0.514
203.000	172.341	80.000	19.993	100.785	20.028	3.123	0.513
203.500	172.609	80.000	19.994	100.785	20.025	3.357	0.489
204.000	172.885	80.000	19.995	100.789	20.026	3.300	0.515
204.500	173.126	79.999	19.994	100.788	20.026	3.302	0.530
205.000	173.408	80.001	19.995	100.785	20.027	3.177	0.520
205.500	173.651	80.001	19.995	100.788	20.027	3.203	0.524
206.000	173.862	80.000	19.994	100.791	20.031	2.965	0.490
206.500	174.134	80.000	19.994	100.790	20.027	3.182	0.469
207.000	174.416	80.000	19.994	100.789	20.031	2.950	0.518
207.500	174.634	80.000	19.994	100.788	20.028	3.130	0.527
208.000	174.935	80.000	19.995	100.783	20.028	3.116	0.510
208.500	175.179	80.000	19.994	100.785	20.032	2.857	0.532
209.000	175.386	80.000	19.995	100.785	20.031	2.918	0.498
209.500	175.711	80.001	19.994	100.784	20.031	2.933	0.492
210.000	175.901	80.000	19.995	100.786	20.030	3.000	0.523
210.500	176.169	79.999	19.995	100.787	20.030	3.017	0.486
211.000	176.424	80.000	19.995	100.781	20.030	2.978	0.491
211.500	176.688	79.999	19.995	100.777	20.029	3.106	0.521
212.000	176.897	80.000	19.995	100.776	20.026	3.274	0.496
212.500	177.168	80.000	19.995	100.773	20.029	3.089	0.477
213.000	177.405	80.000	19.993	100.773	20.030	3.032	0.494
213.500	177.624	80.000	19.994	100.772	20.029	3.039	0.482
214.000	177.881	79.999	19.994	100.773	20.029	3.059	0.466
214.500	178.138	80.001	19.994	100.772	20.030	3.030	0.495
215.000	178.423	79.999	19.994	100.770	20.030	3.017	0.528
215.500	178.654	80.000	19.995	100.771	20.027	3.199	0.529
216.000	178.900	79.999	19.995	100.772	20.028	3.121	0.497
216.500	179.138	80.000	19.994	100.771	20.026	3.264	0.481
217.000	179.429	80.000	19.995	100.771	20.029	3.061	0.506
217.500	179.667	79.999	19.995	100.771	20.027	3.221	0.529
218.000	179.903	80.000	19.995	100.772	20.031	2.948	0.502
218.500	180.166	79.999	19.995	100.775	20.025	3.366	0.487
219.000	180.447	80.000	19.995	100.776	20.030	2.979	0.521
219.500	180.697	79.999	19.994	100.777	20.029	3.050	0.537
220.000	180.902	79.999	19.994	100.778	20.029	3.056	0.493
220.500	181.200	80.000	19.995	100.779	20.027	3.240	0.479
221.000	181.462	80.000	19.995	100.775	20.031	2.951	0.532
221.500	181.727	80.000	19.995	100.775	20.033	2.818	0.543
222.000	181.963	80.000	19.995	100.776	20.030	3.007	0.514
222.500	182.260	80.001	19.995	100.774	20.030	2.994	0.517
223.000	182.476	80.000	19.994	100.771	20.031	2.957	0.523
223.500	182.739	80.000	19.994	100.770	20.031	2.961	0.496
224.000	182.974	80.001	19.995	100.769	20.029	3.086	0.488
224.500	183.207	79.999	19.995	100.766	20.031	2.955	0.483
225.000	183.482	79.999	19.995	100.766	20.029	3.089	0.488
225.500	183.681	80.001	19.995	100.765	20.028	3.119	0.491
226.000	183.914	80.000	19.996	100.765	20.030	3.018	0.453
226.500	184.213	80.000	19.995	100.767	20.026	3.247	0.482
227.000	184.429	80.001	19.995	100.767	20.028	3.136	0.524
227.500	184.705	80.001	19.995	100.767	20.029	3.086	0.503
228.000	184.943	79.999	19.997	100.767	20.028	3.115	0.502
228.500	185.163	80.000	19.996	100.766	20.025	3.342	0.486
229.000	185.435	80.001	19.995	100.765	20.028	3.115	0.475
229.500	185.664	80.001	19.995	100.765	20.029	3.074	0.497
230.000	185.968	80.000	19.995	100.765	20.028	3.134	0.517
230.500	186.159	80.000	19.994	100.766	20.027	3.179	0.514
231.000	186.437	79.999	19.995	100.765	20.027	3.199	0.482
231.500	186.703	79.999	19.994	100.765	20.027	3.207	0.507
232.000	186.947	79.999	19.995	100.764	20.028	3.169	0.527
232.500	187.217	80.000	19.995	100.766	20.029	3.097	0.512
233.000	187.469	79.999	19.994	100.767	20.024	3.421	0.518
233.500	187.687	79.999	19.994	100.768	20.028	3.175	0.496
234.000	187.964	80.001	19.995	100.769	20.024	3.411	0.483
234.500	188.227	80.000	19.995	100.769	20.025	3.346	0.518
235.000	188.453	80.001	19.995	100.768	20.028	3.117	0.514
235.500	188.705	80.000	19.996	100.766	20.030	3.035	0.483
236.000	188.949	80.000	19.996	100.765	20.028	3.145	0.487
236.500	189.213	80.000	19.995	100.765	20.024	3.441	0.502
237.000	189.454	80.000	19.995	100.765	20.026	3.303	0.506
237.500	189.748	80.000	19.995	100.765	20.025	3.374	0.520
238.000	189.934	80.001	19.996	100.765	20.028	3.156	0.507
238.500	190.181	80.001	19.994	100.765	20.026	3.290	0.457
239.000	190.445	80.000	19.995	100.766	20.026	3.294	0.472
239.500	190.675	80.000	19.994	100.766	20.025	3.368	0.502
240.000	190.917	80.000	19.995	100.766	20.029	3.106	0.483
240.500	191.170	80.000	19.994	100.765	20.025	3.344	0.484
241.000	191.429	80.000	19.995	100.766	20.026	3.298	0.504
241.500	191.691	80.000	19.994	100.766	20.027	3.233	0.516
242.000	191.911	80.000	19.994	100.766	20.027	3.208	0.501
242.500	192.163	79.999	19.995	100.766	20.030	2.998	0.477
243.000	192.403	80.000	19.995	100.767	20.030	3.005	0.482
243.500	192.683	80.000	19.995	100.767	20.028	3.173	0.505
244.000	192.942	79.999	19.994	100.767	20.026	3.294	0.530
244.500	193.148	80.001	19.994	100.768	20.030	3.009	0.502
245.000	193.370	80.000	19.994	100.767	20.030	3.024	0.446
245.500	193.653	80.001	19.994	100.767	20.030	3.033	0.466
246.000	193.871	80.000	19.993	100.767	20.030	3.013	0.503
246.500	194.111	80.000	19.996	100.767	20.031	2.922	0.480
247.000	194.366	80.000	19.994	100.766	20.030	2.985	0.477
247.500	194.639	80.001	19.995	100.766	20.031	2.910	0.512
248.000	194.851	80.000	19.995	100.766	20.031	2.916	0.506
248.500	195.065	80.001	19.994	100.766	20.032	2.862	0.456
249.000	195.333	80.000	19.994	100.765	20.030	2.974	0.454
249.500	195.604	80.001	19.995	100.764	20.033	2.765	0.510
250.000	195.841	80.001	19.994	100.764	20.031	2.951	0.524
250.500	196.050	80.001	19.995	100.764	20.030	2.998	0.478
251.000	196.300	80.000	19.995	100.764	20.032	2.866	0.453
251.500	196.561	80.001	19.995	100.764	20.032	2.838	0.485
252.000	196.809	80.002	19.995	100.765	20.026	3.312	0.510
252.500	197.037	80.001	19.995	100.765	20.031	2.961	0.492
253.000	197.302	80.001	19.996	100.765	20.032	2.849	0.484
253.500	197.526	80.000	19.995	100.764	20.029	3.067	0.491
254.000	197.771	80.001	19.995	100.763	20.032	2.890	0.479
254.501	198.010	80.000	19.994	100.763	20.034	2.734	0.477
255.001	198.251	80.000	19.995	100.763	20.030	3.024	0.482
255.500	198.525	80.002	19.994	100.765	20.029	3.097	0.497
256.000	198.772	80.001	19.996	100.765	20.031	2.912	0.518
256.500	199.020	80.001	19.995	100.764	20.032	2.851	0.508
257.000	199.264	79.999	19.995	100.764	20.032	2.886	0.494
257.500	199.470	80.000	19.995	100.763	20.030	3.028	0.471
258.000	199.746	80.000	19.996	100.761	20.029	3.106	0.466
258.501	199.987	80.000	19.995	100.760	20.029	3.093	0.499
259.001	200.255	80.000	19.994	100.760	20.029	3.050	0.513
259.500	200.481	80.000	19.995	100.760	20.028	3.149	0.502
260.000	200.719	79.999	19.995	100.760	20.028	3.112	0.480
260.500	200.991	79.999	19.994	100.760	20.027	3.201	0.487
261.000	201.244	79.998	19.995	100.761	20.027	3.221	0.517
261.500	201.518	79.999	19.995	100.760	20.027	3.216	0.525
262.000	201.727	80.000	19.995	100.761	20.027	3.193	0.505
262.500	201.982	80.000	19.995	100.761	20.026	3.266	0.474
263.000	202.262	80.000	19.995	100.761	20.030	3.011	0.499
263.500	202.500	79.999	19.994	100.761	20.027	3.219	0.526
264.000	202.709	79.999	19.995	100.762	20.028	3.163	0.482
264.500	202.997	79.998	19.995	100.762	20.027	3.227	0.472
265.000	203.236	79.999	19.995	100.763	20.025	3.366	0.512
265.500	203.437	79.999	19.996	100.763	20.029	3.085	0.484
266.000	203.704	80.000	19.995	100.761	20.026	3.264	0.454
266.500	203.949	79.998	19.995	100.760	20.030	3.013	0.490
267.000	204.225	79.998	19.994	100.760	20.028	3.165	0.516
267.500	204.432	79.999	19.993	100.760	20.027	3.186	0.502
268.000	204.656	79.999	19.995	100.760	20.030	2.974	0.457
268.500	204.882	80.000	19.995	100.763	20.032	2.899	0.440
269.000	205.171	80.000	19.994	100.764	20.032	2.864	0.483
269.500	205.406	79.999	19.995	100.763	20.031	2.964	0.520
270.000	205.646	80.001	19.995	100.763	20.025	3.331	0.499
270.500	205.927	79.999	19.996	100.764	20.029	3.069	0.498
271.000	206.143	80.000	19.995	100.763	20.030	3.031	0.509
271.500	206.431	79.999	19.994	100.763	20.027	3.188	0.500
272.000	206.634	79.998	19.994	100.763	20.026	3.297	0.497
272.500	206.865	79.999	19.995	100.763	20.026	3.271	0.463
273.000	207.150	79.999	19.994	100.763	20.028	3.117	0.475
273.500	207.339	79.999	19.994	100.763	20.026	3.251	0.495
274.000	207.609	79.999	19.995	100.763	20.026	3.273	0.466
274.500	207.835	80.000	19.995	100.761	20.027	3.227	0.477
275.000	208.086	79.999	19.993	100.759	20.026	3.296	0.486
275.500	208.351	80.000	19.994	100.757	20.026	3.253	0.496
276.000	208.595	79.999	19.994	100.756	20.027	3.212	0.513
276.500	208.816	79.998	19.995	100.757	20.025	3.333	0.487
277.000	209.112	79.999	19.994	100.758	20.026	3.281	0.491
277.500	209.346	80.000	19.994	100.762	20.027	3.208	0.524
278.000	209.595	80.001	19.995	100.763	20.026	3.264	0.506
278.500	209.845	80.001	19.995	100.762	20.027	3.236	0.491
279.000	210.065	80.000	19.994	100.760	20.025	3.357	0.485
279.500	210.316	80.000	19.994	100.760	20.027	3.219	0.470
280.000	210.545	80.000	19.995	100.757	20.023	3.474	0.475
280.500	210.817	80.000	19.994	100.758	20.020	3.668	0.490
281.000	211.083	80.002	19.994	100.759	20.022	3.528	0.519
281.500	211.337	79.999	19.995	100.759	20.025	3.378	0.529
282.000	211.596	80.000	19.994	100.758	20.021	3.595	0.517
282.500	211.843	80.000	19.995	100.760	20.022	3.582	0.510
283.000	212.091	80.000	19.995	100.760	20.024	3.428	0.501
283.501	212.330	80.000	19.993	100.760	20.022	3.545	0.491
284.000	212.559	80.000	19.994	100.759	20.019	3.746	0.477
284.500	212.784	80.001	19.996	100.761	20.022	3.547	0.461
285.000	213.062	79.999	19.994	100.760	20.023	3.461	0.479
285.500	213.280	80.000	19.994	100.760	20.022	3.545	0.500
286.000	213.526	80.002	19.995	100.761	20.020	3.686	0.480
286.500	213.792	80.000	19.993	100.761	20.019	3.778	0.488
287.000	214.068	80.000	19.994	100.760	20.020	3.668	0.527
287.500	214.282	80.000	19.996	100.759	20.019	3.787	0.516
288.000	214.540	80.001	19.995	100.756	20.020	3.681	0.481
288.500	214.776	80.001	19.995	100.755	20.019	3.765	0.483
289.000	215.000	79.999	19.995	100.756	20.020	3.726	0.477
289.500	215.237	79.999	19.994	100.757	20.023	3.469	0.461
290.000	215.507	79.999	19.994	100.758	20.021	3.616	0.484
290.500	215.752	79.999	19.994	100.761	20.020	3.668	0.511
291.000	215.990	80.000	19.996	100.762	20.019	3.791	0.499
291.500	216.274	79.999	19.993	100.762	20.017	3.910	0.502
292.000	216.502	79.998	19.995	100.762	20.018	3.843	0.516
292.500	216.751	79.999	19.994	100.763	20.017	3.898	0.494
293.000	216.969	80.000	19.993	100.763	20.018	3.822	0.472
293.500	217.216	79.999	19.993	100.763	20.015	4.017	0.466
294.000	217.439	79.999	19.995	100.763	20.017	3.878	0.467
294.500	217.699	79.999	19.994	100.763	20.014	4.086	0.477
295.000	217.923	79.999	19.994	100.762	20.015	4.038	0.483
295.500	218.156	79.998	19.994	100.761	20.014	4.143	0.470
296.000	218.421	79.999	19.994	100.760	20.015	4.027	0.477
296.500	218.689	79.999	19.994	100.761	20.015	4.053	0.516
297.000	218.915	80.001	19.993	100.761	20.014	4.124	0.514
297.500	219.145	79.998	19.994	100.762	20.013	4.189	0.476
298.000	219.435	80.000	19.994	100.763	20.014	4.117	0.488
298.500	219.643	79.999	19.995	100.764	20.011	4.288	0.509
299.000	219.909	79.999	19.995	100.763	20.014	4.126	0.485
299.500	220.148	80.000	19.994	100.762	20.012	4.232	0.489
300.000	220.421	80.000	19.994	100.761	20.013	4.189	0.509
300.500	220.593	79.999	19.993	100.762	20.008	4.496	0.478
301.000	220.847	80.000	19.994	100.762	20.010	4.368	0.436
301.500	221.094	80.001	19.993	100.764	20.010	4.381	0.463
302.000	221.353	79.999	19.994	100.765	20.010	4.385	0.503
302.500	221.619	80.001	19.994	100.766	20.012	4.269	0.516
303.000	221.857	79.999	19.995	100.762	20.011	4.319	0.515
303.500	222.094	80.000	19.994	100.758	20.015	4.064	0.490
304.000	222.364	80.000	19.994	100.757	20.008	4.492	0.491
304.500	222.607	80.000	19.993	100.754	20.009	4.470	0.510
305.000	222.846	80.001	19.994	100.754	20.014	4.129	0.497
305.500	223.068	80.000	19.994	100.758	20.010	4.379	0.472
306.000	223.307	80.000	19.994	100.762	20.012	4.249	0.461
306.500	223.546	80.000	19.994	100.764	20.015	4.035	0.469
307.000	223.806	80.000	19.994	100.767	20.012	4.236	0.489
307.500	224.026	80.001	19.994	100.767	20.011	4.297	0.490
308.000	224.289	80.000	19.995	100.767	20.008	4.504	0.481
308.500	224.529	80.001	19.993	100.767	20.012	4.228	0.493
309.000	224.758	80.000	19.994	100.767	20.011	4.306	0.486
309.500	224.996	80.001	19.994	100.766	20.011	4.325	0.468
310.001	225.257	80.000	19.994	100.766	20.012	4.260	0.483
310.500	225.516	80.002	19.995	100.766	20.008	4.492	0.509
311.000	225.755	80.000	19.994	100.766	20.009	4.446	0.509
311.500	226.004	80.000	19.995	100.766	20.007	4.580	0.493
312.000	226.236	79.998	19.996	100.766	20.009	4.438	0.484
312.500	226.486	79.999	19.994	100.766	20.007	4.582	0.482
313.000	226.755	80.001	19.993	100.766	20.010	4.355	0.501
313.500	227.005	80.000	19.994	100.766	20.010	4.366	0.519
314.000	227.236	80.000	19.995	100.766	20.010	4.366	0.499
314.500	227.468	79.999	19.994	100.766	20.012	4.258	0.472
315.000	227.709	79.999	19.995	100.766	20.011	4.347	0.469
315.500	227.977	79.999	19.994	100.765	20.009	4.442	0.492
316.000	228.228	80.000	19.996	100.764	20.012	4.276	0.514
316.500	228.512	80.000	19.995	100.764	20.007	4.582	0.527
317.000	228.727	80.001	19.996	100.765	20.010	4.386	0.516
317.501	228.989	79.999	19.995	100.764	20.008	4.492	0.488
318.001	229.253	80.000	19.995	100.766	20.009	4.436	0.502
318.500	229.518	79.999	19.994	100.766	20.004	4.775	0.528
319.000	229.793	80.001	19.995	100.766	20.007	4.617	0.534
319.500	230.025	80.000	19.995	100.765	20.007	4.620	0.523
320.000	230.283	80.000	19.994	100.765	20.007	4.606	0.499
320.500	230.538	80.000	19.995	100.764	20.004	4.833	0.501
321.000	230.777	80.000	19.995	100.764	20.004	4.780	0.503
321.500	231.030	79.999	19.994	100.764	20.003	4.842	0.494
322.000	231.285	80.001	19.995	100.764	20.003	4.866	0.500
322.500	231.524	80.000	19.995	100.763	20.004	4.809	0.501
323.000	231.762	80.000	19.995	100.763	20.002	4.913	0.486
323.500	232.010	80.001	19.996	100.762	20.003	4.862	0.481
324.000	232.234	80.002	19.996	100.763	20.003	4.835	0.479
324.500	232.482	80.000	19.995	100.762	20.004	4.820	0.472
325.000	232.735	80.002	19.995	100.762	20.000	5.078	0.487
325.500	232.993	80.002	19.995	100.761	20.000	5.060	0.506
326.000	233.255	80.001	19.996	100.761	20.003	4.890	0.515
326.500	233.461	80.000	19.995	100.762	20.000	5.090	0.494
327.000	233.719	80.001	19.993	100.762	20.000	5.095	0.466
327.500	234.000	80.001	19.995	100.762	19.997	5.281	0.502
328.000	234.227	80.000	19.995	100.759	20.000	5.043	0.524
328.500	234.497	80.002	19.995	100.758	20.000	5.049	0.503
329.000	234.725	80.000	19.996	100.759	19.997	5.250	0.497
329.500	235.001	80.001	19.995	100.757	19.999	5.177	0.501
330.000	235.266	80.001	19.995	100.756	19.999	5.164	0.523
330.500	235.497	80.002	19.996	100.757	20.000	5.067	0.519
331.000	235.742	80.003	19.995	100.757	20.000	5.110	0.486
331.500	235.992	80.002	19.993	100.755	19.996	5.333	0.485
332.000	236.218	80.002	19.995	100.756	19.997	5.304	0.485
332.500	236.445	80.002	19.995	100.757	19.998	5.205	0.464
333.000	236.712	80.002	19.993	100.760	19.997	5.257	0.474
333.500	236.954	80.003	19.996	100.760	19.997	5.298	0.502
334.000	237.219	80.003	19.995	100.761	19.997	5.272	0.508
334.500	237.463	80.003	19.995	100.760	19.995	5.422	0.508
335.000	237.696	80.002	19.994	100.760	19.995	5.391	0.493
335.500	237.972	80.001	19.994	100.758	19.997	5.298	0.493
336.000	238.191	80.002	19.994	100.759	19.994	5.493	0.502
336.500	238.419	80.002	19.994	100.759	19.996	5.326	0.470
337.000	238.679	80.002	19.995	100.759	19.992	5.637	0.467
337.500	238.971	80.003	19.994	100.760	19.993	5.538	0.520
338.000	239.205	80.001	19.994	100.761	19.992	5.622	0.539
338.500	239.444	80.000	19.994	100.761	19.996	5.331	0.500
339.000	239.679	80.001	19.995	100.760	19.995	5.391	0.474
339.500	239.898	80.002	19.995	100.760	19.993	5.525	0.464
340.001	240.170	80.000	19.995	100.760	19.995	5.402	0.472
340.501	240.377	80.002	19.995	100.759	19.993	5.528	0.485
341.000	240.689	80.001	19.996	100.760	19.992	5.644	0.499
341.500	240.914	80.001	19.995	100.761	19.994	5.500	0.528
342.000	241.158	80.000	19.995	100.761	19.992	5.616	0.503
342.500	241.407	80.000	19.995	100.761	19.993	5.580	0.481
343.000	241.629	80.000	19.995	100.761	19.994	5.491	0.482
343.500	241.936	79.999	19.996	100.761	19.992	5.642	0.500
344.000	242.188	80.001	19.996	100.761	19.993	5.572	0.544
344.500	242.465	79.999	19.995	100.761	19.993	5.540	0.544
345.000	242.678	80.000	19.996	100.758	19.988	5.931	0.509
345.500	242.915	79.999	19.995	100.757	19.989	5.815	0.469
346.000	243.199	79.999	19.995	100.756	19.988	5.907	0.486
346.500	243.442	79.998	19.994	100.756	19.984	6.180	0.525
347.000	243.701	79.999	19.995	100.757	19.985	6.105	0.515
347.500	243.961	79.998	19.996	100.759	19.988	5.893	0.510
348.000	244.206	79.999	19.995	100.760	19.989	5.860	0.512
348.500	244.443	79.997	19.996	100.760	19.988	5.934	0.493
349.000	244.658	80.000	19.995	100.759	19.983	6.221	0.467
349.500	244.928	79.999	19.995	100.758	19.985	6.083	0.469
350.000	245.191	79.998	19.996	100.758	19.985	6.085	0.509
350.500	245.447	79.998	19.995	100.759	19.985	6.113	0.526
351.000	245.673	80.000	19.995	100.759	19.984	6.193	0.501
351.500	245.942	79.997	19.995	100.756	19.984	6.176	0.488
352.000	246.161	79.999	19.996	100.754	19.979	6.521	0.491
352.500	246.415	80.000	19.995	100.753	19.980	6.491	0.481
353.000	246.673	79.998	19.996	100.753	19.976	6.757	0.493
353.500	246.914	79.999	19.995	100.753	19.978	6.565	0.505
354.000	247.206	79.999	19.995	100.757	19.975	6.807	0.516
354.500	247.459	79.999	19.995	100.759	19.975	6.796	0.539
355.000	247.692	79.999	19.995	100.760	19.974	6.898	0.515
355.500	247.954	79.999	19.996	100.761	19.975	6.809	0.490
356.000	248.161	79.999	19.994	100.761	19.974	6.873	0.482
356.500	248.465	80.000	19.994	100.763	19.972	6.982	0.491
357.000	248.700	80.000	19.995	100.761	19.975	6.826	0.525
357.500	248.951	79.999	19.994	100.760	19.973	6.921	0.512
358.000	249.210	80.000	19.994	100.758	19.974	6.886	0.498
358.500	249.469	79.999	19.994	100.755	19.971	7.048	0.514
359.000	249.688	79.999	19.993	100.754	19.969	7.204	0.498
359.500	249.964	80.001	19.994	100.756	19.970	7.139	0.486
360.000	250.201	79.999	19.993	100.758	19.968	7.275	0.504
360.500	250.441	80.000	19.995	100.759	19.968	7.304	0.495
361.000	250.659	80.000	19.993	100.760	19.966	7.433	0.468
361.500	250.973	79.999	19.995	100.762	19.966	7.414	0.495
362.000	251.221	80.001	19.993	100.762	19.969	7.247	0.547
362.500	251.443	79.999	19.995	100.762	19.964	7.585	0.516
363.000	251.727	80.000	19.994	100.761	19.962	7.729	0.488
363.500	251.992	80.000	19.994	100.764	19.964	7.556	0.527
364.000	252.230	80.000	19.994	100.763	19.963	7.634	0.526
364.500	252.475	80.001	19.995	100.763	19.961	7.768	0.493
365.000	252.704	79.999	19.995	100.762	19.963	7.652	0.479
365.500	252.946	80.000	19.995	100.763	19.958	7.974	0.473
366.000	253.199	80.000	19.994	100.762	19.955	8.160	0.483
366.500	253.421	80.000	19.994	100.763	19.955	8.175	0.485
367.000	253.705	79.999	19.994	100.764	19.959	7.943	0.491
367.500	253.915	80.000	19.994	100.764	19.955	8.153	0.500
368.000	254.145	80.000	19.994	100.765	19.955	8.204	0.467
368.500	254.415	80.000	19.994	100.765	19.952	8.382	0.470
369.000	254.661	80.001	19.994	100.765	19.953	8.330	0.508
369.500	254.891	79.999	19.994	100.766	19.955	8.187	0.496
370.000	255.134	79.999	19.994	100.765	19.951	8.476	0.474
370.500	255.415	79.997	19.993	100.766	19.951	8.468	0.499
371.000	255.663	80.000	19.996	100.766	19.949	8.615	0.527
371.500	255.888	80.000	19.996	100.766	19.951	8.479	0.501
372.000	256.175	80.001	19.995	100.766	19.948	8.671	0.493
372.500	256.373	80.001	19.995	100.766	19.951	8.453	0.498
373.000	256.622	79.998	19.994	100.766	19.947	8.714	0.466
373.500	256.881	79.999	19.995	100.766	19.946	8.784	0.477
374.000	257.122	79.999	19.995	100.766	19.946	8.801	0.504
374.500	257.353	79.999	19.994	100.766	19.947	8.758	0.486
375.000	257.605	79.998	19.994	100.766	19.947	8.734	0.478
375.500	257.838	79.999	19.996	100.766	19.947	8.716	0.484
376.000	258.090	79.998	19.995	100.765	19.943	8.984	0.485
376.500	258.342	79.998	19.994	100.766	19.943	9.034	0.495
377.000	258.623	79.998	19.996	100.766	19.944	8.965	0.518
377.500	258.831	79.997	19.995	100.767	19.944	8.941	0.511
378.000	259.102	79.998	19.995	100.768	19.944	8.980	0.484
378.500	259.381	79.997	19.994	100.769	19.940	9.200	0.515
379.000	259.616	79.999	19.994	100.771	19.940	9.190	0.532
379.500	259.825	79.999	19.994	100.773	19.943	9.023	0.479
380.000	260.110	79.999	19.994	100.773	19.937	9.438	0.469
380.500	260.316	79.998	19.993	100.774	19.937	9.396	0.493
381.000	260.582	79.998	19.996	100.774	19.938	9.333	0.482
381.500	260.821	79.998	19.995	100.772	19.935	9.594	0.488
382.000	261.048	79.998	19.994	100.774	19.937	9.419	0.485
382.500	261.305	79.998	19.994	100.773	19.937	9.451	0.475
383.000	261.579	79.998	19.994	100.771	19.934	9.626	0.508
383.500	261.802	79.999	19.995	100.771	19.931	9.818	0.514
384.000	262.033	79.999	19.994	100.771	19.933	9.709	0.475
384.500	262.309	79.999	19.994	100.769	19.933	9.740	0.480
385.000	262.536	80.000	19.994	100.770	19.931	9.817	0.505
385.500	262.790	79.999	19.996	100.771	19.927	10.101	0.492
386.000	263.067	80.000	19.995	100.772	19.923	10.425	0.506
386.500	263.285	80.000	19.993	100.774	19.927	10.108	0.513
387.001	263.527	80.000	19.995	100.773	19.926	10.179	0.477
387.500	263.797	80.000	19.994	100.776	19.925	10.285	0.486
388.000	264.074	80.000	19.995	100.775	19.927	10.121	0.530
388.500	264.321	80.001	19.994	100.774	19.924	10.317	0.536
389.000	264.542	80.001	19.994	100.774	19.922	10.469	0.496
389.500	264.816	80.002	19.995	100.776	19.926	10.194	0.482
390.000	265.039	80.000	19.995	100.771	19.921	10.568	0.496
390.500	265.284	80.001	19.995	100.771	19.919	10.642	0.482
391.000	265.540	80.000	19.995	100.771	19.919	10.657	0.484
391.500	265.812	80.002	19.995	100.769	19.918	10.713	0.515
392.000	266.012	80.001	19.994	100.767	19.918	10.732	0.501
392.500	266.280	80.001	19.994	100.768	19.918	10.775	0.470
393.000	266.548	80.003	19.993	100.773	19.915	10.981	0.502
393.500	266.822	80.002	19.994	100.776	19.912	11.191	0.539
394.000	267.053	80.001	19.994	100.780	19.910	11.299	0.524
394.500	267.285	80.001	19.995	100.782	19.910	11.281	0.484
395.000	267.594	80.003	19.994	100.785	19.908	11.468	0.502
395.500	267.821	80.002	19.993	100.784	19.908	11.454	0.538
396.000	268.042	80.002	19.994	100.786	19.907	11.536	0.492
396.500	268.303	80.000	19.993	100.783	19.901	11.927	0.465
397.000	268.542	80.001	19.994	100.782	19.905	11.646	0.491
397.500	268.808	80.002	19.994	100.777	19.898	12.122	0.502
398.000	269.085	80.001	19.995	100.775	19.898	12.098	0.524
398.500	269.332	80.002	19.994	100.774	19.898	12.115	0.534
399.000	269.536	80.000	19.994	100.780	19.896	12.299	0.487
399.500	269.788	80.000	19.994	100.785	19.894	12.372	0.453
400.000	270.069	80.000	19.995	100.791	19.894	12.372	0.494
400.500	270.309	80.000	19.994	100.793	19.891	12.578	0.527
401.000	270.520	80.000	19.994	100.792	19.895	12.362	0.486
401.500	270.879	79.999	19.995	100.790	19.894	12.394	0.511
402.000	271.109	80.001	19.995	100.791	19.892	12.542	0.579
402.500	271.396	80.002	19.997	100.792	19.895	12.363	0.553
403.000	271.585	80.000	19.994	100.794	19.893	12.480	0.497
403.500	271.846	80.001	19.995	100.796	19.890	12.698	0.463
404.000	272.108	79.999	19.994	100.798	19.885	13.001	0.486
404.500	272.381	80.002	19.993	100.794	19.888	12.813	0.529
405.000	272.607	79.999	19.994	100.793	19.883	13.135	0.517
405.500	272.841	80.000	19.994	100.794	19.883	13.161	0.479
406.000	273.108	80.001	19.995	100.791	19.883	13.199	0.480
406.500	273.360	80.000	19.995	100.792	19.879	13.435	0.510
407.000	273.568	79.999	19.995	100.793	19.882	13.244	0.490
407.500	273.838	79.999	19.994	100.794	19.880	13.354	0.469
408.000	274.062	80.000	19.993	100.794	19.879	13.447	0.486
408.500	274.325	80.000	19.995	100.797	19.878	13.543	0.491
409.000	274.542	80.000	19.995	100.797	19.876	13.644	0.483
409.500	274.838	80.000	19.994	100.799	19.874	13.759	0.496
410.000	275.047	80.002	19.995	100.797	19.874	13.793	0.509
410.500	275.274	80.001	19.995	100.794	19.870	14.039	0.470
411.000	275.542	80.001	19.995	100.793	19.866	14.353	0.465
411.500	275.801	80.001	19.995	100.794	19.869	14.155	0.511
412.000	276.057	80.001	19.994	100.794	19.868	14.236	0.521
412.500	276.277	80.002	19.995	100.796	19.868	14.215	0.496
413.000	276.548	80.002	19.996	100.799	19.866	14.335	0.483
413.500	276.794	80.002	19.994	100.802	19.865	14.430	0.504
414.000	277.007	80.002	19.995	100.801	19.860	14.778	0.488
414.500	277.269	80.002	19.996	100.799	19.862	14.640	0.467
415.000	277.529	80.003	19.996	100.797	19.856	15.046	0.499
415.500	277.766	80.002	19.995	100.796	19.855	15.111	0.509
416.000	278.055	80.001	19.993	100.796	19.853	15.268	0.511
416.500	278.295	80.003	19.996	100.796	19.853	15.260	0.527
417.000	278.583	80.003	19.995	100.798	19.852	15.305	0.529
417.500	278.777	80.004	19.994	100.799	19.847	15.653	0.505
418.000	279.047	80.003	19.994	100.800	19.847	15.625	0.473
418.500	279.293	80.003	19.995	100.801	19.845	15.771	0.490
419.000	279.556	80.003	19.994	100.801	19.842	15.996	0.512
419.500	279.803	80.001	19.994	100.801	19.841	16.089	0.510
420.000	280.027	80.002	19.994	100.802	19.842	16.012	0.491
420.500	280.266	80.002	19.994	100.801	19.840	16.137	0.467
421.000	280.517	80.000	19.994	100.800	19.835	16.457	0.477
421.500	280.767	80.002	19.995	100.801	19.838	16.254	0.495
422.000	280.991	80.002	19.994	100.799	19.835	16.474	0.487
422.500	281.250	80.001	19.993	100.798	19.830	16.837	0.479
423.000	281.463	80.000	19.995	100.798	19.830	16.848	0.478
423.500	281.724	80.000	19.995	100.799	19.828	16.974	0.473
424.000	281.964	80.001	19.995	100.800	19.829	16.892	0.488
424.500	282.205	80.001	19.995	100.802	19.829	16.926	0.491
425.000	282.431	80.000	19.996	100.804	19.824	17.268	0.474
425.500	282.688	79.999	19.994	100.805	19.823	17.291	0.475
426.000	282.885	79.999	19.995	100.805	19.822	17.350	0.469
426.500	283.151	79.998	19.995	100.804	19.815	17.836	0.458
427.000	283.409	79.999	19.995	100.804	19.817	17.697	0.493
427.500	283.623	79.998	19.995	100.804	19.813	18.028	0.498
428.000	283.921	79.999	19.995	100.804	19.813	17.974	0.492
428.500	284.108	80.000	19.996	100.804	19.810	18.209	0.499
429.000	284.361	79.999	19.995	100.805	19.810	18.237	0.463
429.500	284.588	80.000	19.995	100.805	19.805	18.582	0.460
430.000	284.786	79.998	19.995	100.804	19.810	18.203	0.452
430.500	285.039	79.999	19.997	100.805	19.807	18.434	0.438
431.000	285.280	79.999	19.996	100.804	19.806	18.476	0.473
431.500	285.497	79.999	19.995	100.804	19.805	18.529	0.476
432.000	285.738	80.000	19.994	100.803	19.803	18.704	0.458
432.500	285.960	79.998	19.995	100.804	19.803	18.700	0.461
433.000	286.190	79.999	19.995	100.804	19.799	18.962	0.458
433.500	286.442	79.999	19.994	100.804	19.798	19.061	0.466
434.000	286.688	80.000	19.994	100.805	19.794	19.349	0.490
434.500	286.939	80.000	19.995	100.807	19.795	19.276	0.498
435.000	287.159	79.998	19.995	100.809	19.790	19.582	0.484
435.500	287.403	79.999	19.994	100.809	19.790	19.572	0.468
436.000	287.636	79.999	19.994	100.810	19.792	19.474	0.470
436.500	287.854	79.998	19.995	100.810	19.786	19.857	0.464
437.000	288.115	79.997	19.996	100.809	19.785	19.966	0.465
437.500	288.346	79.998	19.996	100.809	19.784	20.030	0.485
438.000	288.598	79.998	19.995	100.813	19.778	20.417	0.488
438.500	288.827	79.999	19.995	100.812	19.779	20.368	0.482
439.000	289.085	79.999	19.995	100.811	19.777	20.508	0.484
439.500	289.294	80.000	19.996	100.812	19.775	20.643	0.477
440.000	289.540	79.999	19.995	100.811	19.774	20.678	0.461
440.500	289.725	79.999	19.995	100.808	19.772	20.840	0.443
441.000	289.985	80.000	19.995	100.808	19.771	20.922	0.439
441.500	290.232	80.000	19.994	100.812	19.770	20.989	0.476
442.000	290.459	79.998	19.994	100.815	19.765	21.333	0.490
442.500	290.707	79.998	19.995	100.819	19.763	21.436	0.475
443.000	291.001	79.999	19.995	100.822	19.762	21.521	0.509
443.500	291.182	80.000	19.996	100.822	19.760	21.700	0.508
444.000	291.413	79.998	19.995	100.820	19.759	21.756	0.443
444.500	291.727	79.998	19.994	100.817	19.756	21.978	0.478
445.000	291.953	79.999	19.994	100.813	19.752	22.229	0.543
445.500	292.185	79.998	19.996	100.815	19.749	22.408	0.499
446.000	292.435	80.000	19.995	100.818	19.752	22.219	0.470
446.500	292.641	79.999	19.996	100.821	19.747	22.567	0.469
447.000	292.909	80.001	19.996	100.827	19.750	22.396	0.464
447.500	293.136	79.999	19.994	100.831	19.747	22.562	0.484
448.000	293.351	79.999	19.996	100.830	19.747	22.579	0.469
448.500	293.588	80.000	19.996	100.833	19.743	22.855	0.447
449.000	293.809	80.000	19.996	100.837	19.739	23.144	0.455
449.500	294.097	80.000	19.994	100.838	19.733	23.569	0.484
450.000	294.333	79.999	19.996	100.839	19.731	23.680	0.516
450.500	294.568	80.001	19.995	100.843	19.732	23.624	0.497
451.000	294.818	79.999	19.996	100.843	19.729	23.797	0.478
451.500	295.044	80.000	19.995	100.842	19.729	23.811	0.481
452.000	295.241	80.001	19.994	100.842	19.727	23.986	0.450
452.500	295.478	80.000	19.995	100.841	19.725	24.121	0.429
453.000	295.743	80.000	19.995	100.840	19.724	24.187	0.468
453.500	295.977	79.999	19.995	100.840	19.723	24.215	0.501
454.000	296.221	80.000	19.995	100.840	19.717	24.650	0.488
454.500	296.454	80.001	19.997	100.840	19.716	24.721	0.478
455.000	296.730	79.999	19.994	100.839	19.716	24.725	0.493
455.500	296.953	80.000	19.994	100.840	19.715	24.797	0.504
456.000	297.165	80.000	19.995	100.840	19.715	24.756	0.467
456.500	297.406	79.999	19.995	100.840	19.707	25.328	0.444
457.000	297.664	79.999	19.995	100.837	19.707	25.364	0.476
457.500	297.909	79.999	19.996	100.837	19.703	25.613	0.500
458.000	298.166	80.000	19.994	100.837	19.702	25.701	0.502
458.500	298.383	80.000	19.994	100.837	19.701	25.784	0.488
459.000	298.616	80.000	19.994	100.838	19.697	26.049	0.462
459.500	298.845	80.001	19.995	100.841	19.694	26.245	0.456
460.000	299.126	80.001	19.995	100.842	19.692	26.391	0.486
460.500	299.357	80.000	19.994	100.844	19.689	26.607	0.511
461.000	299.592	79.999	19.995	100.847	19.687	26.744	0.489
461.500	299.842	80.000	19.995	100.847	19.688	26.664	0.475
462.000	300.081	79.999	19.994	100.847	19.688	26.658	0.487
462.500	300.321	80.000	19.994	100.849	19.684	26.906	0.484
463.000	300.569	79.998	19.996	100.849	19.689	26.566	0.483
463.500	300.774	79.999	19.994	100.847	19.682	27.091	0.470
464.000	301.014	80.001	19.993	100.850	19.677	27.425	0.449
464.500	301.241	79.999	19.995	100.849	19.677	27.426	0.456
465.000	301.537	79.999	19.995	100.848	19.678	27.353	0.495
465.500	301.788	80.000	19.995	100.848	19.674	27.640	0.535
466.000	302.008	80.000	19.995	100.848	19.672	27.762	0.509
466.500	302.278	80.000	19.995	100.845	19.672	27.771	0.480
467.000	302.513	80.000	19.994	100.846	19.668	28.059	0.497
467.500	302.722	80.001	19.994	100.845	19.664	28.319	0.474
468.000	303.000	80.001	19.994	100.851	19.663	28.381	0.466
468.500	303.228	80.000	19.995	100.855	19.663	28.388	0.497
469.000	303.544	80.001	19.995	100.857	19.658	28.727	0.525
469.500	303.724	80.002	19.995	100.861	19.660	28.605	0.520
470.000	303.955	80.001	19.995	100.862	19.658	28.763	0.454
470.500	304.176	80.001	19.995	100.863	19.654	29.016	0.431
471.000	304.467	80.001	19.994	100.861	19.651	29.195	0.482
471.500	304.671	80.002	19.996	100.859	19.650	29.308	0.503
472.001	304.908	80.001	19.995	100.861	19.648	29.400	0.468
472.501	305.152	80.001	19.996	100.865	19.643	29.793	0.461
473.001	305.387	80.003	19.995	100.861	19.640	29.972	0.480
473.500	305.683	80.001	19.996	100.863	19.643	29.779	0.505
474.000	305.924	80.001	19.995	100.865	19.636	30.249	0.534
474.500	306.179	80.001	19.995	100.865	19.632	30.557	0.517
475.001	306.374	80.002	19.995	100.867	19.632	30.541	0.473
475.501	306.691	80.002	19.995	100.870	19.631	30.634	0.481
476.000	306.895	80.002	19.994	100.869	19.630	30.709	0.517
476.500	307.180	80.002	19.994	100.870	19.626	30.978	0.505
477.000	307.454	80.002	19.995	100.872	19.623	31.134	0.524
477.500	307.687	80.002	19.994	100.873	19.618	31.512	0.533
478.000	307.929	80.002	19.994	100.875	19.619	31.421	0.490
478.500	308.170	80.002	19.995	100.878	19.616	31.629	0.479
479.000	308.389	80.001	19.994	100.881	19.614	31.758	0.472
479.500	308.658	80.002	19.994	100.881	19.613	31.823	0.474
480.000	308.913	80.001	19.994	100.880	19.608	32.192	0.506
480.500	309.182	80.001	19.995	100.876	19.605	32.395	0.524
481.000	309.406	80.001	19.994	100.874	19.605	32.378	0.509
481.500	309.686	80.001	19.995	100.873	19.604	32.453	0.498
482.000	309.896	80.001	19.994	100.873	19.601	32.716	0.497
482.500	310.160	80.001	19.996	100.872	19.599	32.822	0.482
483.000	310.431	80.002	19.995	100.874	19.596	33.065	0.505
483.500	310.667	80.002	19.995	100.876	19.596	33.001	0.521
484.000	310.950	80.000	19.995	100.876	19.597	32.965	0.513
484.500	311.152	80.001	19.995	100.877	19.594	33.199	0.502
485.000	311.391	80.000	19.996	100.879	19.590	33.451	0.463
485.500	311.671	80.002	19.995	100.881	19.591	33.379	0.480
486.000	311.895	80.000	19.994	100.882	19.586	33.716	0.511
486.500	312.188	80.001	19.994	100.883	19.585	33.798	0.510
487.000	312.424	80.001	19.993	100.886	19.580	34.143	0.523
487.500	312.660	80.002	19.995	100.886	19.575	34.453	0.501
488.000	312.881	80.001	19.995	100.886	19.574	34.521	0.465
488.500	313.129	80.002	19.994	100.886	19.572	34.690	0.463
489.000	313.418	79.999	19.994	100.885	19.571	34.760	0.503
489.500	313.667	80.001	19.994	100.883	19.569	34.917	0.538
490.000	313.887	80.001	19.993	100.883	19.566	35.089	0.504
490.500	314.162	80.000	19.994	100.883	19.563	35.307	0.482
491.000	314.369	80.000	19.994	100.883	19.563	35.293	0.488
491.500	314.662	80.001	19.994	100.884	19.562	35.402	0.491
492.000	314.899	80.001	19.995	100.884	19.555	35.901	0.515
492.500	315.149	80.002	19.994	100.884	19.554	35.961	0.509
493.000	315.410	80.000	19.995	100.885	19.552	36.064	0.499
493.500	315.673	80.003	19.993	100.885	19.547	36.431	0.517
494.000	315.885	80.001	19.994	100.887	19.550	36.190	0.500
494.500	316.159	80.001	19.993	100.889	19.545	36.537	0.481
495.000	316.396	80.001	19.993	100.895	19.543	36.727	0.498
495.500	316.659	80.003	19.994	100.898	19.540	36.913	0.505
496.000	316.912	80.002	19.994	100.898	19.536	37.190	0.508
496.500	317.114	80.002	19.993	100.897	19.535	37.256	0.486
497.000	317.394	80.003	19.993	100.894	19.529	37.677	0.469
497.500	317.664	80.003	19.995	100.891	19.527	37.840	0.516
498.000	317.909	80.003	19.995	100.890	19.525	37.989	0.532
498.500	318.185	80.004	19.994	100.892	19.523	38.124	0.518
499.000	318.433	80.003	19.993	100.894	19.519	38.385	0.523
499.500	318.696	80.002	19.994	100.899	19.515	38.642	0.517
500.000	318.905	80.001	19.995	100.902	19.513	38.768	0.491
500.500	319.170	80.003	19.994	100.904	19.512	38.865	0.473
501.000	319.394	80.003	19.994	100.905	19.507	39.218	0.481
501.500	319.637	80.003	19.994	100.906	19.505	39.317	0.478
502.000	319.866	80.001	19.994	100.908	19.502	39.563	0.470
502.500	320.146	80.003	19.993	100.910	19.502	39.567	0.491
503.000	320.368	80.001	19.993	100.910	19.498	39.815	0.505
503.500	320.657	80.002	19.995	100.914	19.496	39.964	0.507
504.000	320.888	80.001	19.994	100.917	19.488	40.503	0.516
504.500	321.146	80.001	19.995	100.916	19.490	40.387	0.505
505.000	321.412	80.000	19.994	100.910	19.484	40.827	0.506
505.500	321.681	80.000	19.994	100.909	19.485	40.733	0.529
506.000	321.881	80.000	19.995	100.909	19.481	40.974	0.502
506.500	322.159	79.999	19.995	100.909	19.477	41.302	0.473
507.000	322.384	80.001	19.994	100.908	19.477	41.299	0.490
507.500	322.635	79.998	19.994	100.915	19.468	41.916	0.490
508.000	322.888	80.000	19.995	100.919	19.466	42.060	0.491
508.500	323.128	79.999	19.995	100.920	19.470	41.787	0.498
509.000	323.380	79.999	19.996	100.920	19.462	42.340	0.492
509.500	323.587	79.999	19.995	100.922	19.462	42.324	0.475
510.000	323.842	80.000	19.996	100.922	19.456	42.762	0.461
510.500	324.102	79.999	19.995	100.921	19.450	43.175	0.489
511.000	324.355	80.000	19.995	100.921	19.454	42.900	0.514
511.500	324.542	79.998	19.995	100.921	19.451	43.065	0.476
512.000	324.817	80.000	19.994	100.922	19.442	43.729	0.451
512.501	325.071	80.000	19.995	100.922	19.445	43.520	0.496
513.001	325.321	80.000	19.995	100.923	19.436	44.130	0.517
513.500	325.565	79.999	19.995	100.923	19.437	44.075	0.499
514.000	325.806	80.000	19.996	100.923	19.436	44.124	0.490
514.500	326.063	79.999	19.993	100.924	19.428	44.699	0.492
515.000	326.304	79.999	19.993	100.925	19.428	44.690	0.498
515.500	326.559	79.999	19.994	100.927	19.423	45.051	0.497
516.000	326.784	79.999	19.994	100.929	19.424	44.968	0.488
516.500	327.091	80.000	19.994	100.934	19.416	45.511	0.506
517.000	327.327	80.000	19.994	100.936	19.421	45.172	0.537
517.500	327.544	79.999	19.994	100.935	19.416	45.521	0.498
518.000	327.800	80.000	19.995	100.934	19.413	45.708	0.463
518.500	328.047	79.999	19.995	100.935	19.411	45.857	0.488
519.000	328.269	80.000	19.993	100.930	19.408	46.066	0.486
519.500	328.541	80.000	19.996	100.928	19.406	46.205	0.482
520.000	328.772	80.000	19.995	100.932	19.402	46.517	0.499
520.500	328.997	80.001	19.994	100.937	19.397	46.861	0.479
521.000	329.250	80.000	19.994	100.941	19.396	46.924	0.467
521.500	329.575	80.000	19.995	100.948	19.390	47.334	0.528
522.000	329.688	80.001	19.995	100.951	19.390	47.302	0.508
522.500	330.068	80.001	19.995	100.954	19.389	47.416	0.465
523.000	330.161	80.000	19.995	100.954	19.384	47.708	0.483
523.500	330.513	80.000	19.995	100.953	19.379	48.053	0.459
524.000	330.755	80.001	19.994	100.953	19.377	48.243	0.520
524.500	330.878	80.000	19.994	100.956	19.371	48.666	0.479
525.000	331.228	80.001	19.995	100.954	19.365	49.035	0.419
525.500	331.640	80.003	19.995	100.954	19.364	49.127	0.618
526.000	331.606	80.001	19.994	100.954	19.362	49.287	0.570
526.500	332.221	80.000	19.994	100.954	19.358	49.546	0.479
527.000	332.034	80.000	19.994	100.955	19.356	49.697	0.505
527.500	332.671	80.000	19.995	100.957	19.350	50.110	0.439
528.000	332.531	80.000	19.996	100.958	19.351	50.060	0.473
528.500	333.034	80.000	19.996	100.958	19.343	50.577	0.430
529.000	333.427	80.000	19.995	100.959	19.337	51.021	0.630
529.500	333.481	80.000	19.995	100.960	19.335	51.168	0.671
530.000	333.726	80.000	19.996	100.960	19.332	51.328	0.373
530.500	334.006	80.001	19.996	100.962	19.328	51.604	0.412
531.000	334.272	80.000	19.997	100.962	19.322	52.016	0.535
531.500	334.398	80.000	19.996	100.961	19.319	52.259	0.469
532.000	334.981	79.999	19.996	100.960	19.317	52.415	0.550
532.500	334.955	80.000	19.996	100.960	19.312	52.717	0.633
533.000	335.289	80.000	19.996	100.959	19.308	52.999	0.433
533.500	335.568	80.000	19.996	100.963	19.307	53.113	0.461
534.000	335.830	80.000	19.995	100.970	19.302	53.433	0.577
534.500	335.977	79.998	19.997	100.974	19.300	53.582	0.475
535.000	336.304	80.000	19.996	100.977	19.295	53.904	0.442
535.500	336.592	79.999	19.996	100.980	19.295	53.925	0.544
536.000	336.717	80.000	19.997	100.980	19.287	54.478	0.514
536.500	337.021	80.000	19.996	100.981	19.282	54.816	0.422
537.000	337.302	80.000	19.996	100.983	19.278	55.131	0.507
537.500	337.536	80.000	19.996	100.987	19.273	55.424	0.549
538.000	337.800	79.998	19.996	100.987	19.269	55.706	0.506
538.500	338.001	79.999	19.995	100.989	19.267	55.888	0.482
539.000	338.296	80.000	19.994	100.990	19.258	56.496	0.481
539.500	338.543	79.999	19.996	100.991	19.257	56.547	0.519
540.000	338.795	80.000	19.996	100.991	19.255	56.673	0.520
540.500	339.060	79.999	19.996	100.994	19.249	57.137	0.508
541.000	339.305	79.999	19.996	100.996	19.245	57.407	0.513
541.500	339.543	80.000	19.995	100.996	19.242	57.571	0.497
542.000	339.737	79.999	19.996	100.996	19.236	57.997	0.458
542.500	340.032	80.001	19.996	100.997	19.233	58.211	0.460
543.000	340.274	80.000	19.996	100.998	19.232	58.270	0.513
543.500	340.509	79.999	19.997	101.001	19.227	58.629	0.507
544.000	340.755	79.999	19.995	101.003	19.223	58.957	0.480
544.500	341.050	80.000	19.996	101.003	19.219	59.166	0.511
545.000	341.261	80.001	19.996	101.006	19.214	59.535	0.523
545.500	341.510	80.000	19.996	101.009	19.208	59.933	0.482
546.000	341.794	80.001	19.995	101.010	19.207	60.007	0.497
546.500	342.080	80.000	19.996	101.015	19.202	60.360	0.552
547.000	342.282	80.001	19.995	101.020	19.197	60.700	0.529
547.500	342.561	80.000	19.995	101.020	19.196	60.776	0.484
548.000	342.793	80.001	19.995	101.023	19.191	61.110	0.496
548.500	343.067	79.999	19.995	101.023	19.189	61.270	0.509
549.000	343.319	80.000	19.995	101.020	19.182	61.755	0.516
549.500	343.575	80.000	19.994	101.019	19.180	61.925	0.517
550.000	343.798	80.000	19.996	101.022	19.176	62.201	0.494
550.500	344.067	80.001	19.994	101.019	19.171	62.554	0.485
551.000	344.303	80.002	19.995	101.025	19.164	62.978	0.498
551.500	344.526	80.002	19.994	101.027	19.157	63.515	0.482
552.000	344.807	80.001	19.995	101.027	19.153	63.799	0.481
552.500	345.031	80.001	19.994	101.029	19.150	64.012	0.505
553.000	345.271	80.001	19.995	101.033	19.142	64.514	0.485
553.500	345.559	80.001	19.995	101.032	19.143	64.491	0.496
554.000	345.807	80.003	19.994	101.034	19.136	64.973	0.532
554.500	346.105	80.001	19.995	101.038	19.133	65.144	0.541
555.000	346.348	80.002	19.994	101.039	19.126	65.656	0.544
555.500	346.574	80.001	19.994	101.038	19.120	66.093	0.505
556.000	346.852	80.001	19.993	101.037	19.119	66.153	0.486
556.500	347.107	80.002	19.994	101.038	19.110	66.789	0.518
557.000	347.392	80.001	19.993	101.038	19.107	66.964	0.536
557.500	347.620	80.002	19.994	101.038	19.099	67.494	0.527
558.001	347.896	80.001	19.994	101.039	19.097	67.627	0.509
558.500	348.161	80.001	19.993	101.040	19.093	67.950	0.523
559.000	348.379	80.001	19.994	101.040	19.089	68.208	0.512
559.500	348.643	80.001	19.995	101.040	19.081	68.760	0.483
560.000	348.925	80.000	19.994	101.039	19.080	68.801	0.514
560.500	349.178	80.001	19.994	101.038	19.077	69.036	0.541
561.000	349.411	80.001	19.994	101.037	19.074	69.223	0.511
561.500	349.715	80.002	19.995	101.038	19.068	69.654	0.511
562.000	349.990	80.001	19.995	101.038	19.065	69.845	0.558
562.500	350.210	80.002	19.995	101.040	19.059	70.272	0.537
563.000	350.514	80.002	19.995	101.043	19.054	70.651	0.509
563.500	350.737	80.000	19.994	101.044	19.050	70.921	0.526
564.000	350.994	80.000	19.994	101.044	19.048	71.020	0.504
564.501	351.252	80.000	19.995	101.044	19.044	71.292	0.498
565.001	351.466	80.001	19.994	101.044	19.041	71.542	0.494
565.500	351.686	80.002	19.994	101.043	19.038	71.735	0.453
566.000	351.981	80.001	19.995	101.041	19.034	72.018	0.474
566.500	352.211	80.001	19.995	101.042	19.032	72.175	0.520
567.000	352.447	80.001	19.994	101.042	19.027	72.487	0.496
567.500	352.736	80.000	19.993	101.045	19.022	72.826	0.495
568.000	352.979	80.000	19.995	101.043	19.023	72.761	0.528
568.500	353.231	79.999	19.994	101.044	19.019	73.024	0.514
569.000	353.471	79.999	19.996	101.044	19.017	73.192	0.494
569.500	353.717	80.000	19.995	101.045	19.013	73.485	0.489
570.000	353.947	80.001	19.996	101.042	19.011	73.606	0.481
570.500	354.227	80.000	19.994	101.042	19.009	73.769	0.493
571.000	354.456	79.998	19.996	101.042	19.005	74.009	0.510
571.500	354.701	80.002	19.997	101.042	19.005	74.039	0.492
572.000	354.969	80.000	19.997	101.040	19.001	74.290	0.494
572.500	355.233	80.001	19.996	101.040	18.999	74.408	0.522
573.000	355.461	79.999	19.995	101.040	18.998	74.512	0.511
573.500	355.722	80.000	19.994	101.040	18.994	74.760	0.491
574.000	355.978	80.001	19.995	101.040	18.997	74.532	0.503
574.500	356.199	79.999	19.995	101.040	18.991	74.989	0.497
575.000	356.517	80.000	19.995	101.040	18.990	75.004	0.507
575.500	356.773	80.000	19.994	101.040	18.991	74.944	0.557
576.000	357.034	80.002	19.997	101.039	18.990	75.027	0.546
576.500	357.261	80.000	19.995	101.035	18.987	75.236	0.502
577.001	357.499	80.001	19.995	101.034	18.988	75.138	0.476
577.501	357.757	80.001	19.994	101.035	18.984	75.455	0.481
578.001	358.039	80.001	19.995	101.035	18.983	75.505	0.518
578.500	358.287	80.001	19.995	101.032	18.985	75.350	0.535
579.000	358.531	80.002	19.995	101.035	18.985	75.352	0.511
579.500	358.784	80.003	19.994	101.034	18.986	75.304	0.495
580.000	359.021	80.003	19.993	101.032	18.987	75.232	0.493
580.500	359.284	80.002	19.995	101.027	18.987	75.223	0.495
581.000	359.519	80.002	19.995	101.026	18.989	75.100	0.499
581.500	359.763	80.003	19.994	101.020	18.989	75.074	0.488
582.000	360.039	80.003	19.994	101.014	18.991	74.918	0.500
582.500	360.277	80.001	19.993	101.009	18.993	74.814	0.517
583.000	360.549	80.003	19.994	101.005	18.994	74.694	0.512
583.500	360.820	80.002	19.994	101.000	18.998	74.466	0.527
584.000	361.069	80.003	19.996	100.998	18.998	74.432	0.531
584.500	361.343	80.001	19.994	100.998	19.000	74.273	0.521
585.000	361.567	80.003	19.994	100.997	19.003	74.089	0.511
585.500	361.806	80.003	19.994	100.997	19.008	73.736	0.481
586.000	362.061	80.002	19.994	100.997	19.009	73.669	0.479
586.500	362.381	80.002	19.994	100.996	19.015	73.217	0.534
587.000	362.580	80.002	19.995	100.995	19.020	72.888	0.547
587.500	362.867	80.002	19.995	100.993	19.022	72.741	0.503
588.000	363.129	80.001	19.994	100.989	19.027	72.377	0.518
588.500	363.354	80.000	19.994	100.982	19.030	72.208	0.518
589.000	363.561	80.002	19.995	100.975	19.035	71.804	0.459
589.500	363.843	80.001	19.995	100.968	19.041	71.383	0.461
590.000	364.122	80.002	19.995	100.963	19.048	70.908	0.525
590.500	364.358	80.000	19.994	100.959	19.050	70.792	0.538
591.000	364.629	80.001	19.994	100.955	19.060	70.071	0.511
591.500	364.871	80.001	19.995	100.953	19.063	69.902	0.510
592.000	365.130	80.001	19.995	100.951	19.070	69.390	0.507
592.500	365.347	80.002	19.995	100.948	19.079	68.749	0.488
593.001	365.614	80.000	19.996	100.946	19.084	68.406	0.479
593.501	365.877	80.000	19.995	100.942	19.090	68.009	0.507
594.000	366.145	80.000	19.995	100.937	19.100	67.280	0.531
594.500	366.395	80.000	19.995	100.930	19.107	66.832	0.525
595.000	366.644	80.000	19.995	100.926	19.115	66.244	0.508
595.500	366.885	80.000	19.995	100.919	19.121	65.844	0.494
596.000	367.158	80.000	19.993	100.915	19.132	65.098	0.502
596.500	367.426	79.999	19.995	100.914	19.139	64.610	0.527
597.000	367.655	80.001	19.995	100.908	19.147	64.026	0.519
597.500	367.927	79.999	19.995	100.900	19.159	63.211	0.499
598.000	368.184	80.000	19.995	100.893	19.167	62.621	0.515
598.500	368.444	79.999	19.994	100.888	19.176	62.012	0.523
599.000	368.693	80.001	19.996	100.879	19.186	61.342	0.513
599.500	368.965	80.001	19.997	100.876	19.193	60.832	0.515
600.000	369.232	80.000	19.996	100.872	19.206	59.955	0.530
600.500	369.468	80.001	19.995	100.864	19.214	59.359	0.521
601.000	369.716	80.000	19.995	100.858	19.229	58.337	0.494
601.500	369.989	80.000	19.996	100.853	19.239	57.620	0.502
602.000	370.221	80.000	19.995	100.845	19.249	56.965	0.513
602.500	370.483	80.000	19.995	100.840	19.260	56.217	0.499
603.000	370.742	80.001	19.995	100.837	19.272	55.353	0.507
603.500	370.972	79.999	19.996	100.830	19.282	54.642	0.505
604.000	371.265	80.001	19.996	100.823	19.291	54.032	0.506
604.500	371.505	80.001	19.996	100.816	19.305	53.060	0.528
605.001	371.779	80.001	19.997	100.810	19.318	52.200	0.523
605.500	372.017	80.000	19.995	100.805	19.328	51.475	0.513
606.000	372.272	79.998	19.995	100.802	19.342	50.489	0.503
606.500	372.526	80.000	19.995	100.795	19.352	49.834	0.501
607.000	372.789	80.000	19.996	100.787	19.362	49.172	0.513
607.500	373.033	80.000	19.995	100.784	19.373	48.380	0.512
608.000	373.250	80.001	19.995	100.779	19.387	47.428	0.484
608.500	373.550	80.000	19.995	100.772	19.397	46.691	0.489
609.000	373.780	80.001	19.994	100.770	19.410	45.795	0.523
609.500	374.060	80.001	19.995	100.769	19.423	44.945	0.520
610.000	374.303	80.001	19.995	100.765	19.438	43.888	0.517
610.500	374.551	80.001	19.996	100.762	19.447	43.282	0.506
611.000	374.848	80.000	19.996	100.762	19.455	42.680	0.518
611.500	375.101	79.999	19.996	100.760	19.469	41.728	0.548
612.000	375.346	80.002	19.996	100.756	19.483	40.754	0.524
612.500	375.599	80.001	19.995	100.750	19.493	40.062	0.498
613.000	375.871	80.000	19.996	100.747	19.505	39.248	0.511
613.500	376.136	80.001	19.996	100.742	19.516	38.484	0.531
614.000	376.371	80.000	19.996	100.738	19.533	37.316	0.518
614.500	376.639	80.000	19.996	100.734	19.541	36.741	0.501
615.000	376.890	80.002	19.995	100.734	19.552	36.026	0.511
615.500	377.190	80.001	19.995	100.729	19.565	35.106	0.535
616.000	377.439	80.001	19.994	100.727	19.578	34.179	0.550
616.500	377.691	80.001	19.995	100.727	19.587	33.608	0.525
617.000	377.943	80.000	19.997	100.726	19.600	32.682	0.503
617.500	378.219	80.001	19.995	100.726	19.608	32.137	0.516
618.000	378.445	80.000	19.995	100.726	19.621	31.227	0.514
618.500	378.701	80.001	19.994	100.726	19.629	30.712	0.492
619.000	378.998	80.000	19.996	100.727	19.642	29.820	0.518
619.500	379.184	79.999	19.994	100.726	19.652	29.101	0.518
620.000	379.494	80.001	19.995	100.724	19.664	28.255	0.489
620.500	379.781	79.999	19.995	100.720	19.672	27.715	0.547
621.000	380.021	80.000	19.996	100.715	19.683	26.942	0.562
621.500	380.256	80.000	19.997	100.711	19.694	26.212	0.501
622.000	380.524	80.000	19.997	100.705	19.707	25.325	0.489
622.500	380.776	79.999	19.998	100.700	19.713	24.913	0.512
623.000	381.018	79.999	19.996	100.698	19.720	24.384	0.507
623.500	381.294	79.998	19.996	100.697	19.731	23.672	0.506
624.000	381.528	79.999	19.996	100.693	19.739	23.071	0.514
624.500	381.799	79.999	19.995	100.693	19.747	22.547	0.507
625.000	382.072	80.000	19.996	100.694	19.759	21.732	0.524
625.500	382.341	79.998	19.995	100.693	19.765	21.306	0.543
626.000	382.559	79.998	19.996	100.691	19.775	20.620	0.515
626.500	382.838	80.000	19.996	100.690	19.782	20.129	0.492
627.000	383.129	79.999	19.996	100.690	19.791	19.518	0.533
627.500	383.343	79.998	19.996	100.689	19.797	19.120	0.538
628.000	383.620	79.999	19.996	100.688	19.804	18.594	0.498
628.500	383.870	79.998	19.998	100.688	19.810	18.188	0.509
629.000	384.156	79.997	19.996	100.688	19.817	17.697	0.531
629.500	384.404	79.999	19.996	100.688	19.823	17.260	0.535
630.000	384.700	79.999	19.995	100.689	19.830	16.829	0.539
630.500	384.919	79.998	19.996	100.690	19.837	16.305	0.529
631.000	385.157	79.998	19.996	100.690	19.842	16.013	0.486
631.500	385.438	79.998	19.997	100.690	19.845	15.782	0.488
632.000	385.688	79.999	19.996	100.690	19.853	15.230	0.526
632.500	385.929	79.999	19.996	100.688	19.859	14.835	0.511
633.000	386.198	79.998	19.995	100.688	19.862	14.610	0.500
633.500	386.501	79.998	19.995	100.688	19.864	14.443	0.541
634.000	386.759	80.000	19.997	100.688	19.869	14.108	0.566
634.500	386.997	79.999	19.996	100.686	19.875	13.727	0.528
635.000	387.217	80.000	19.995	100.687	19.879	13.459	0.477
635.500	387.554	80.000	19.996	100.686	19.885	12.987	0.508
636.000	387.789	80.000	19.996	100.685	19.887	12.888	0.564
636.500	388.050	80.000	19.997	100.685	19.889	12.723	0.534
637.000	388.283	80.000	19.995	100.687	19.893	12.466	0.495
637.500	388.542	80.001	19.996	100.687	19.893	12.448	0.493
638.000	388.784	80.002	19.994	100.687	19.899	12.055	0.497
638.500	389.052	80.001	19.995	100.688	19.901	11.891	0.506
639.000	389.360	80.001	19.995	100.688	19.905	11.599	0.543
639.500	389.617	80.001	19.994	100.688	19.908	11.427	0.570
640.000	389.862	80.001	19.994	100.687	19.912	11.118	0.534
640.500	390.114	80.002	19.995	100.687	19.911	11.209	0.500
641.000	390.378	80.001	19.994	100.688	19.915	10.952	0.507
641.500	390.619	80.002	19.993	100.688	19.917	10.796	0.511
642.000	390.928	80.001	19.993	100.688	19.921	10.508	0.527
642.500	391.151	80.001	19.994	100.688	19.923	10.365	0.541
643.000	391.431	80.002	19.994	100.688	19.922	10.432	0.518
643.500	391.673	80.001	19.995	100.686	19.924	10.292	0.513
644.000	391.944	80.001	19.994	100.686	19.926	10.168	0.517
644.500	392.212	80.001	19.995	100.686	19.930	9.937	0.526
645.000	392.474	80.001	19.996	100.686	19.931	9.835	0.535
645.500	392.711	80.000	19.993	100.686	19.930	9.893	0.514
646.000	392.944	80.001	19.994	100.688	19.931	9.865	0.485
646.500	393.230	80.001	19.993	100.688	19.930	9.930	0.494
647.000	393.476	80.002	19.994	100.687	19.932	9.800	0.525
647.500	393.765	80.001	19.996	100.687	19.935	9.584	0.534
648.000	394.016	80.000	19.995	100.687	19.936	9.506	0.538
648.500	394.277	80.002	19.995	100.686	19.933	9.668	0.526
649.000	394.525	80.003	19.996	100.685	19.934	9.614	0.510
649.500	394.785	80.001	19.994	100.685	19.938	9.337	0.509
650.000	395.049	80.002	19.994	100.684	19.937	9.402	0.516
650.500	395.280	80.000	19.994	100.684	19.941	9.169	0.510
651.000	395.568	80.000	19.996	100.684	19.944	8.961	0.507
651.500	395.771	80.002	19.995	100.684	19.945	8.862	0.505
652.000	396.053	80.000	19.994	100.685	19.945	8.847	0.488
652.500	396.319	80.002	19.994	100.685	19.946	8.801	0.517
653.000	396.563	80.001	19.995	100.685	19.946	8.790	0.529
653.500	396.854	80.001	19.996	100.685	19.945	8.857	0.522
654.000	397.082	80.001	19.994	100.685	19.945	8.857	0.527
654.500	397.317	80.000	19.995	100.684	19.946	8.814	0.491
655.000	397.601	80.002	19.995	100.684	19.945	8.851	0.491
655.500	397.838	80.000	19.996	100.686	19.947	8.749	0.520
656.000	398.099	80.001	19.995	100.687	19.948	8.647	0.509
656.500	398.380	80.000	19.995	100.687	19.948	8.686	0.520
657.000	398.599	80.002	19.995	100.687	19.949	8.570	0.521
657.500	398.907	80.000	19.996	100.687	19.950	8.507	0.513
658.000	399.144	80.003	19.995	100.686	19.951	8.473	0.536
658.500	399.415	80.002	19.996	100.685	19.951	8.479	0.526
659.000	399.666	80.002	19.996	100.685	19.952	8.375	0.515
659.500	399.911	80.002	19.995	100.687	19.950	8.548	0.509
660.000	400.167	80.003	19.994	100.686	19.950	8.518	0.498
660.500	400.397	80.002	19.995	100.686	19.952	8.392	0.494
661.000	400.676	80.003	19.995	100.686	19.953	8.299	0.498
661.500	400.928	80.002	19.994	100.686	19.950	8.509	0.520
662.000	401.194	80.002	19.995	100.684	19.954	8.236	0.525
662.500	401.415	80.002	19.994	100.684	19.953	8.303	0.503
663.000	401.689	80.002	19.995	100.684	19.953	8.349	0.491
663.500	401.977	80.003	19.994	100.684	19.954	8.238	0.528
664.000	402.215	80.002	19.995	100.684	19.953	8.332	0.543
664.500	402.476	80.002	19.994	100.684	19.956	8.126	0.512
665.000	402.757	80.004	19.995	100.684	19.953	8.288	0.521
665.500	403.035	80.002	19.993	100.684	19.952	8.420	0.551
666.000	403.264	80.002	19.995	100.684	19.952	8.370	0.533
666.500	403.510	80.003	19.995	100.686	19.953	8.351	0.491
667.000	403.789	80.003	19.994	100.686	19.953	8.305	0.500
667.500	404.057	80.003	19.994	100.686	19.950	8.494	0.536
668.000	404.305	80.002	19.993	100.685	19.950	8.548	0.531
668.500	404.533	80.005	19.994	100.682	19.953	8.344	0.496
669.000	404.781	80.003	19.995	100.681	19.953	8.312	0.476
669.500	405.066	80.003	19.993	100.681	19.951	8.472	0.505
670.000	405.307	80.002	19.993	100.680	19.952	8.381	0.529
670.500	405.558	80.003	19.995	100.682	19.948	8.656	0.509
671.000	405.825	80.001	19.994	100.685	19.952	8.361	0.505
671.500	406.083	80.000	19.996	100.685	19.948	8.669	0.521
672.000	406.341	80.002	19.994	100.685	19.953	8.325	0.521
672.500	406.592	80.001	19.994	100.685	19.950	8.530	0.513
673.000	406.842	80.002	19.995	100.685	19.952	8.400	0.505
673.500	407.109	80.000	19.994	100.685	19.951	8.463	0.509
674.000	407.380	80.001	19.995	100.685	19.952	8.401	0.527
674.500	407.643	80.001	19.995	100.685	19.951	8.448	0.536
675.000	407.929	80.001	19.995	100.686	19.954	8.277	0.542
675.500	408.148	80.002	19.995	100.685	19.951	8.483	0.527
676.000	408.408	80.001	19.994	100.685	19.953	8.322	0.492
676.500	408.652	80.000	19.995	100.685	19.948	8.628	0.492
677.000	408.942	80.001	19.995	100.685	19.954	8.258	0.519
677.500	409.194	80.001	19.995	100.687	19.950	8.519	0.538
678.000	409.431	80.001	19.994	100.687	19.950	8.554	0.515
678.500	409.675	80.001	19.994	100.687	19.949	8.560	0.485
679.000	409.962	80.000	19.994	100.688	19.952	8.387	0.506
679.500	410.189	80.000	19.995	100.688	19.952	8.396	0.523
680.001	410.450	80.001	19.995	100.686	19.949	8.591	0.501
680.501	410.731	80.000	19.995	100.687	19.950	8.535	0.515
681.000	410.984	79.999	19.994	100.687	19.952	8.411	0.538
681.500	411.229	80.000	19.996	100.688	19.953	8.321	0.516
682.000	411.472	80.001	19.995	100.688	19.951	8.422	0.493
682.500	411.724	80.000	19.995	100.688	19.947	8.747	0.491
683.000	411.989	79.999	19.995	100.688	19.953	8.314	0.506
683.500	412.240	79.999	19.995	100.688	19.953	8.350	0.517
684.000	412.506	79.999	19.994	100.687	19.955	8.149	0.516
684.500	412.747	79.999	19.996	100.687	19.953	8.335	0.512
685.000	413.009	80.000	19.994	100.687	19.957	8.058	0.505
685.500	413.231	80.000	19.995	100.687	19.955	8.145	0.493
686.000	413.499	80.000	19.995	100.688	19.953	8.322	0.487
686.500	413.751	80.000	19.995	100.687	19.953	8.316	0.505
687.000	413.995	80.001	19.994	100.688	19.952	8.405	0.508
687.500	414.265	79.999	19.994	100.688	19.956	8.121	0.505
688.000	414.547	80.000	19.995	100.688	19.956	8.106	0.533
688.500	414.763	80.000	19.996	100.688	19.956	8.100	0.525
689.000	415.006	80.001	19.996	100.689	19.958	7.966	0.479
689.500	415.253	80.001	19.996	100.688	19.957	8.029	0.474
690.000	415.515	80.001	19.995	100.688	19.953	8.284	0.499
690.500	415.774	79.999	19.996	100.688	19.956	8.104	0.515
691.000	416.063	80.000	19.996	100.688	19.953	8.322	0.535
691.500	416.295	79.999	19.994	100.688	19.952	8.368	0.535
692.000	416.543	80.001	19.996	100.688	19.958	7.974	0.500
692.500	416.778	80.000	19.996	100.687	19.955	8.147	0.481
693.000	417.050	80.001	19.995	100.687	19.956	8.132	0.495
693.500	417.292	79.999	19.996	100.687	19.956	8.137	0.511
694.000	417.565	80.000	19.996	100.688	19.958	7.946	0.515
694.500	417.773	80.001	19.994	100.690	19.957	8.024	0.498
695.000	418.048	80.000	19.997	100.691	19.956	8.089	0.482
695.500	418.313	79.999	19.995	100.690	19.958	8.000	0.511
696.000	418.571	80.000	19.995	100.690	19.957	8.045	0.531
696.500	418.812	80.000	19.994	100.689	19.957	8.020	0.511
697.000	419.082	80.000	19.996	100.688	19.955	8.147	0.506
697.500	419.332	80.000	19.996	100.688	19.955	8.195	0.516
698.000	419.605	79.999	19.996	100.688	19.955	8.145	0.521
698.500	419.856	79.999	19.997	100.689	19.957	8.065	0.523
699.000	420.096	79.999	19.995	100.687	19.957	8.048	0.507
699.500	420.370	80.000	19.995	100.686	19.959	7.901	0.502
700.000	420.636	79.998	19.994	100.686	19.958	7.951	0.527
700.500	420.874	79.999	19.995	100.686	19.955	8.210	0.522
701.000	421.124	80.000	19.996	100.686	19.955	8.167	0.496
701.500	421.379	79.999	19.995	100.688	19.958	7.946	0.497
702.000	421.658	80.000	19.995	100.688	19.955	8.187	0.519
702.500	421.909	79.999	19.994	100.689	19.955	8.171	0.532
703.000	422.162	79.999	19.995	100.689	19.955	8.146	0.517
703.500	422.408	79.998	19.996	100.688	19.955	8.148	0.502
704.000	422.681	79.999	19.994	100.687	19.956	8.109	0.509
704.500	422.915	79.999	19.995	100.688	19.955	8.200	0.513
705.000	423.152	79.998	19.995	100.688	19.955	8.167	0.489
705.500	423.415	79.999	19.995	100.688	19.954	8.240	0.485
706.000	423.658	79.998	19.996	100.689	19.955	8.152	0.503
706.500	423.929	80.000	19.996	100.690	19.957	8.059	0.510
707.000	424.163	79.997	19.995	100.689	19.957	8.040	0.510
707.500	424.431	79.999	19.994	100.689	19.957	8.072	0.504
708.000	424.668	80.000	19.995	100.686	19.959	7.910	0.504
708.500	424.910	79.998	19.994	100.686	19.963	7.607	0.492
709.000	425.177	79.999	19.995	100.686	19.961	7.789	0.494
709.500	425.460	79.998	19.995	100.686	19.957	8.022	0.529
710.000	425.685	79.998	19.995	100.685	19.961	7.774	0.529
710.500	425.954	80.000	19.996	100.688	19.960	7.813	0.501
711.000	426.220	79.998	19.995	100.686	19.963	7.597	0.515
711.500	426.436	79.998	19.995	100.686	19.961	7.774	0.509
712.000	426.686	80.000	19.995	100.686	19.959	7.875	0.474
712.500	426.953	80.001	19.995	100.686	19.961	7.789	0.491
713.000	427.214	79.999	19.995	100.683	19.960	7.811	0.522
713.500	427.457	80.000	19.996	100.684	19.962	7.706	0.516
714.000	427.737	79.999	19.995	100.683	19.960	7.854	0.514
714.500	427.942	79.999	19.996	100.682	19.962	7.663	0.504
715.000	428.202	80.000	19.995	100.682	19.961	7.793	0.475
715.500	428.426	79.999	19.995	100.686	19.959	7.910	0.474
716.000	428.697	79.998	19.997	100.685	19.963	7.646	0.489
716.500	428.972	79.999	19.995	100.687	19.962	7.704	0.520
717.000	429.215	79.998	19.996	100.686	19.962	7.665	0.532
717.500	429.453	80.000	19.996	100.686	19.963	7.611	0.499
718.000	429.722	79.999	19.995	100.685	19.960	7.814	0.494
718.500	429.919	80.001	19.995	100.684	19.965	7.481	0.487
719.000	430.179	79.999	19.997	100.684	19.961	7.791	0.462
719.500	430.476	80.000	19.996	100.684	19.963	7.657	0.507
720.000	430.702	80.001	19.996	100.684	19.963	7.633	0.540
720.500	430.965	80.001	19.997	100.684	19.965	7.496	0.506
721.000	431.224	80.001	19.997	100.682	19.964	7.525	0.506
721.500	431.510	80.001	19.996	100.681	19.967	7.336	0.533
722.000	431.794	80.001	19.997	100.679	19.961	7.741	0.557
722.500	432.027	80.001	19.995	100.679	19.962	7.668	0.543
723.000	432.304	80.000	19.995	100.679	19.961	7.789	0.514
723.500	432.523	80.001	19.995	100.681	19.963	7.605	0.503
724.000	432.800	80.001	19.996	100.681	19.963	7.629	0.496
724.500	433.033	80.002	19.994	100.683	19.961	7.758	0.503
725.000	433.294	80.001	19.996	100.683	19.962	7.700	0.502
725.500	433.507	80.002	19.995	100.683	19.962	7.676	0.484
726.000	433.803	80.001	19.997	100.683	19.963	7.624	0.491
726.500	434.061	80.000	19.996	100.682	19.964	7.577	0.531
727.000	434.295	80.001	19.996	100.682	19.961	7.741	0.524
727.500	434.545	80.000	19.996	100.683	19.964	7.553	0.488
728.000	434.816	80.001	19.995	100.683	19.966	7.429	0.502
728.500	435.107	80.001	19.996	100.683	19.969	7.232	0.542
729.000	435.326	80.000	19.995	100.684	19.964	7.527	0.536
729.500	435.545	80.000	19.996	100.684	19.969	7.237	0.474
730.000	435.799	80.000	19.997	100.684	19.967	7.330	0.455
730.500	436.051	80.000	19.996	100.684	19.969	7.213	0.490
731.000	436.275	80.000	19.996	100.684	19.968	7.254	0.491
731.500	436.540	80.000	19.996	100.685	19.970	7.176	0.482
732.000	436.807	80.001	19.996	100.685	19.969	7.181	0.510
732.500	437.082	80.000	19.994	100.685	19.969	7.228	0.537
733.001	437.367	80.000	19.995	100.684	19.968	7.302	0.551
733.500	437.604	80.002	19.996	100.682	19.969	7.182	0.541
734.000	437.839	80.000	19.994	100.682	19.971	7.068	0.497
734.500	438.085	80.001	19.995	100.682	19.974	6.878	0.476
735.000	438.337	80.000	19.995	100.682	19.972	6.979	0.489
735.500	438.606	80.002	19.996	100.683	19.973	6.941	0.510
736.000	438.841	80.001	19.996	100.685	19.973	6.904	0.512
736.500	439.062	80.002	19.996	100.685	19.973	6.950	0.480
737.000	439.300	80.002	19.995	100.684	19.972	7.021	0.458
737.500	439.583	80.000	19.994	100.684	19.972	7.006	0.490
738.000	439.825	80.002	19.994	100.684	19.972	6.978	0.523
738.500	440.100	80.000	19.995	100.684	19.971	7.080	0.521
739.000	440.335	80.002	19.995	100.684	19.973	6.937	0.513
739.500	440.616	80.003	19.995	100.686	19.975	6.803	0.513
740.000	440.840	80.001	19.995	100.685	19.978	6.617	0.511
740.500	441.118	80.001	19.995	100.685	19.977	6.694	0.503
741.000	441.334	80.001	19.996	100.685	19.975	6.816	0.498
741.500	441.576	80.001	19.994	100.684	19.976	6.753	0.476
742.000	441.839	80.002	19.995	100.684	19.976	6.699	0.481
742.500	442.095	80.002	19.994	100.684	19.980	6.470	0.512
743.000	442.354	80.000	19.993	100.684	19.974	6.846	0.517
743.500	442.573	80.001	19.994	100.686	19.979	6.496	0.496
744.000	442.827	80.002	19.993	100.687	19.976	6.757	0.475
744.500	443.128	80.002	19.994	100.687	19.978	6.564	0.515
745.000	443.349	80.002	19.994	100.686	19.977	6.638	0.538
745.500	443.593	80.002	19.995	100.685	19.981	6.400	0.493
746.000	443.830	80.001	19.994	100.683	19.977	6.673	0.473
746.500	444.108	80.002	19.995	100.683	19.976	6.727	0.498
747.000	444.363	80.002	19.995	100.679	19.978	6.617	0.524
747.500	444.627	80.001	19.995	100.677	19.978	6.560	0.526
748.000	444.863	80.002	19.995	100.673	19.981	6.400	0.510
748.500	445.126	80.001	19.996	100.673	19.980	6.463	0.499
749.000	445.356	80.002	19.995	100.669	19.980	6.465	0.496
749.500	445.602	80.003	19.994	100.669	19.980	6.452	0.485
750.000	445.874	80.002	19.994	100.672	19.983	6.253	0.497
750.500	446.111	80.003	19.995	100.676	19.982	6.296	0.514
751.000	446.366	80.003	19.994	100.674	19.985	6.116	0.501
751.500	446.599	80.003	19.995	100.675	19.982	6.290	0.490
752.000	446.850	80.002	19.994	100.673	19.983	6.212	0.486
752.500	447.085	80.000	19.995	100.671	19.982	6.329	0.485
753.000	447.308	80.001	19.994	100.672	19.985	6.125	0.472
753.500	447.603	80.001	19.995	100.668	19.982	6.290	0.488
754.000	447.851	80.001	19.995	100.669	19.982	6.305	0.530
754.500	448.086	80.001	19.995	100.675	19.985	6.138	0.513
755.000	448.340	80.001	19.995	100.676	19.984	6.188	0.486
755.500	448.604	80.001	19.995	100.678	19.984	6.144	0.504
756.000	448.854	80.001	19.995	100.680	19.986	6.064	0.516
756.500	449.076	79.999	19.994	100.680	19.987	5.978	0.493
757.000	449.321	80.000	19.994	100.675	19.984	6.178	0.470
757.500	449.595	80.001	19.995	100.674	19.986	6.044	0.493
758.000	449.806	80.000	19.994	100.673	19.986	6.048	0.502
758.500	450.105	80.000	19.995	100.675	19.984	6.143	0.498
759.000	450.273	80.000	19.995	100.676	19.983	6.233	0.488
759.500	450.547	79.998	19.995	100.680	19.987	5.980	0.454
760.000	450.791	79.999	19.995	100.679	19.985	6.130	0.480
760.500	451.040	80.000	19.995	100.680	19.984	6.145	0.506
761.000	451.266	79.999	19.995	100.680	19.985	6.126	0.484
761.500	451.555	80.000	19.994	100.682	19.987	5.942	0.495
762.000	451.792	79.999	19.994	100.684	19.987	5.980	0.521
762.500	452.030	80.000	19.994	100.681	19.989	5.842	0.500
763.000	452.298	80.000	19.995	100.679	19.987	5.954	0.490
763.500	452.536	80.001	19.994	100.678	19.988	5.913	0.506
764.000	452.769	80.001	19.996	100.675	19.987	5.937	0.489
764.500	453.021	79.999	19.995	100.675	19.986	6.034	0.478
765.000	453.275	79.998	19.994	100.678	19.991	5.695	0.496
765.500	453.500	79.997	19.995	100.681	19.990	5.773	0.493
766.000	453.776	80.000	19.996	100.684	19.990	5.793	0.490
766.500	454.014	79.999	19.995	100.687	19.988	5.888	0.507
767.000	454.229	80.000	19.995	100.681	19.987	5.964	0.483
767.500	454.471	80.000	19.995	100.677	19.986	6.007	0.455
768.000	454.734	79.999	19.994	100.673	19.987	5.959	0.481
768.500	455.006	79.999	19.995	100.672	19.992	5.634	0.520
769.000	455.244	79.999	19.994	100.673	19.988	5.928	0.522
769.500	455.491	79.998	19.995	100.678	19.990	5.787	0.497
770.000	455.759	80.000	19.995	100.682	19.990	5.749	0.500
770.500	456.005	80.000	19.994	100.681	19.989	5.833	0.515
771.000	456.252	80.000	19.995	100.679	19.991	5.665	0.504
771.500	456.468	80.001	19.994	100.675	19.991	5.663	0.477
772.000	456.704	79.999	19.995	100.675	19.992	5.606	0.457
772.500	456.975	80.000	19.995	100.676	19.994	5.515	0.479
773.000	457.226	80.000	19.993	100.681	19.991	5.660	0.514
773.500	457.468	80.000	19.995	100.679	19.994	5.484	0.508
774.000	457.723	80.001	19.995	100.682	19.993	5.528	0.495
774.500	457.965	80.001	19.994	100.679	19.993	5.589	0.497
775.000	458.205	80.001	19.993	100.678	19.991	5.678	0.490
775.500	458.475	80.001	19.994	100.676	19.993	5.546	0.496
776.000	458.695	80.000	19.994	100.681	19.992	5.609	0.500
776.500	458.947	80.002	19.994	100.677	19.993	5.579	0.481
777.000	459.196	80.000	19.995	100.673	19.992	5.624	0.487
777.500	459.432	80.001	19.995	100.670	19.996	5.339	0.493
778.001	459.709	79.999	19.995	100.666	19.993	5.577	0.499
778.501	459.947	80.000	19.995	100.664	19.992	5.610	0.514
779.000	460.235	80.001	19.995	100.668	19.994	5.466	0.520
779.500	460.455	80.001	19.994	100.675	19.995	5.430	0.517
780.000	460.652	80.001	19.995	100.678	19.992	5.618	0.462
780.500	460.960	79.999	19.995	100.683	19.997	5.306	0.461
781.000	461.180	80.000	19.995	100.680	19.995	5.418	0.517
781.500	461.422	80.001	19.995	100.673	19.994	5.486	0.496
782.000	461.659	80.000	19.995	100.673	19.993	5.527	0.471
782.500	461.953	80.001	19.995	100.672	19.998	5.176	0.504
783.000	462.184	80.002	19.995	100.673	19.995	5.421	0.527
783.500	462.406	80.000	19.996	100.676	19.995	5.389	0.489
784.000	462.686	79.999	19.996	100.682	19.992	5.637	0.477
784.500	462.910	79.999	19.995	100.682	19.991	5.674	0.503
785.000	463.206	80.000	19.995	100.681	19.993	5.581	0.512
785.500	463.465	79.999	19.995	100.680	19.992	5.656	0.538
786.000	463.706	80.000	19.995	100.675	19.996	5.317	0.527
786.500	463.903	79.999	19.996	100.672	19.994	5.468	0.469
787.000	464.151	79.999	19.995	100.671	19.993	5.535	0.442
787.500	464.423	80.000	19.995	100.664	19.994	5.466	0.482
788.000	464.633	80.000	19.995	100.659	19.996	5.377	0.501
788.500	464.909	79.998	19.995	100.660	19.997	5.293	0.484
789.000	465.155	79.999	19.995	100.658	19.997	5.295	0.504
789.500	465.357	80.000	19.996	100.655	19.998	5.207	0.485
790.000	465.638	79.999	19.996	100.660	20.000	5.090	0.465
790.500	465.886	80.001	19.995	100.662	19.998	5.205	0.506
791.000	466.136	80.000	19.995	100.664	20.000	5.090	0.514
791.500	466.359	80.000	19.996	100.668	19.999	5.172	0.485
792.000	466.638	79.999	19.996	100.671	20.000	5.075	0.487
792.500	466.859	79.999	19.996	100.666	19.997	5.285	0.501
793.000	467.129	80.000	19.995	100.666	20.001	4.975	0.495
793.500	467.341	80.000	19.996	100.664	19.999	5.118	0.486
794.000	467.648	80.000	19.995	100.657	20.001	4.977	0.501
794.500	467.851	79.999	19.995	100.659	19.997	5.302	0.515
795.000	468.084	80.001	19.995	100.664	19.996	5.348	0.473
795.500	468.332	80.000	19.996	100.664	19.998	5.242	0.458
796.000	468.606	80.001	19.994	100.665	19.998	5.201	0.501
796.500	468.828	80.001	19.995	100.669	20.002	4.960	0.509
797.000	469.079	80.001	19.995	100.668	19.998	5.216	0.485
797.500	469.328	80.001	19.994	100.668	20.000	5.082	0.486
798.000	469.571	80.001	19.995	100.672	20.001	5.026	0.496
798.500	469.828	80.002	19.995	100.673	19.999	5.108	0.496
799.000	470.057	80.002	19.994	100.672	19.999	5.140	0.493
799.500	470.305	80.002	19.994	100.670	20.003	4.878	0.482
800.000	470.562	80.001	19.995	100.666	20.002	4.962	0.491
800.500	470.814	80.002	19.995	100.661	20.001	4.990	0.506
801.000	471.045	80.002	19.995	100.660	20.001	4.968	0.496
801.500	471.257	80.001	19.994	100.657	20.002	4.912	0.464
802.000	471.557	80.002	19.994	100.654	20.004	4.794	0.478
802.500	471.811	80.001	19.994	100.656	20.002	4.955	0.533
803.000	472.040	80.002	19.995	100.658	20.002	4.920	0.519
803.500	472.268	80.002	19.994	100.660	20.003	4.896	0.470
804.000	472.521	80.002	19.995	100.661	20.002	4.902	0.468
804.500	472.752	80.002	19.995	100.664	20.002	4.920	0.483
805.000	472.993	80.002	19.995	100.661	20.003	4.887	0.479
805.500	473.276	80.002	19.995	100.658	20.004	4.768	0.498
806.000	473.521	80.000	19.995	100.657	20.002	4.939	0.525
806.500	473.750	80.001	19.996	100.657	20.003	4.866	0.501
807.000	474.023	80.002	19.995	100.655	20.001	5.035	0.489
807.500	474.290	79.999	19.994	100.655	19.998	5.176	0.521
808.000	474.513	80.001	19.996	100.657	20.001	4.972	0.515
808.500	474.776	80.002	19.996	100.654	20.002	4.942	0.488
809.000	474.992	80.001	19.995	100.653	20.002	4.935	0.482
809.500	475.236	80.001	19.997	100.652	20.003	4.838	0.469
810.000	475.482	80.001	19.995	100.652	20.002	4.913	0.475
810.500	475.725	80.001	19.997	100.654	20.001	5.017	0.490
811.000	475.991	80.001	19.996	100.657	19.999	5.147	0.500
811.500	476.225	80.000	19.997	100.663	19.997	5.260	0.505
812.000	476.473	79.999	19.995	100.670	19.998	5.214	0.490
812.500	476.714	79.999	19.996	100.676	20.001	5.013	0.485
813.000	476.948	80.000	19.996	100.679	20.000	5.039	0.482
813.500	477.224	80.000	19.996	100.682	20.000	5.054	0.492
814.000	477.483	80.001	19.996	100.684	20.003	4.853	0.523
814.500	477.690	80.001	19.995	100.684	20.001	4.985	0.501
815.000	477.989	79.999	19.996	100.685	20.003	4.831	0.486
815.500	478.209	80.000	19.996	100.683	20.001	5.028	0.513
816.000	478.481	80.000	19.996	100.681	20.002	4.924	0.506
816.500	478.791	80.001	19.997	100.681	20.003	4.885	0.537
817.000	478.999	80.000	19.996	100.678	20.001	5.026	0.550
817.500	479.218	80.000	19.996	100.678	20.003	4.885	0.472
818.000	479.494	80.000	19.996	100.680	20.004	4.829	0.461
818.500	479.741	80.002	19.996	100.678	20.001	5.024	0.510
819.000	480.029	79.999	19.996	100.676	20.002	4.916	0.529
819.500	480.242	80.001	19.995	100.678	20.000	5.039	0.517
820.000	480.520	80.000	19.996	100.678	19.999	5.137	0.496
820.500	480.738	80.001	19.996	100.679	20.000	5.082	0.494
821.000	481.006	80.000	19.996	100.683	20.002	4.940	0.491
821.500	481.289	80.003	19.996	100.684	20.001	5.018	0.518
822.000	481.550	80.001	19.996	100.682	20.001	4.979	0.548
822.500	481.799	80.001	19.996	100.682	19.999	5.115	0.527
823.000	482.074	80.001	19.996	100.680	20.001	5.016	0.517
823.500	482.331	80.002	19.995	100.678	20.003	4.896	0.528
824.000	482.588	80.001	19.995	100.679	20.000	5.043	0.523
824.500	482.861	80.002	19.995	100.682	20.001	5.015	0.522
825.000	483.134	80.002	19.995	100.682	20.002	4.953	0.537
825.500	483.389	80.003	19.994	100.684	20.000	5.044	0.537
826.000	483.628	80.001	19.995	100.686	19.998	5.191	0.511
826.500	483.914	80.003	19.994	100.685	19.997	5.310	0.510
827.000	484.179	80.001	19.994	100.685	20.000	5.095	0.538
827.500	484.425	80.004	19.994	100.685	19.999	5.136	0.530
828.000	484.717	80.002	19.994	100.682	19.999	5.126	0.524
828.500	484.995	80.002	19.994	100.680	20.000	5.063	0.554
829.000	485.252	80.002	19.994	100.678	19.999	5.167	0.553
829.500	485.534	80.002	19.994	100.675	19.998	5.192	0.537
830.000	485.829	80.002	19.994	100.676	19.999	5.112	0.558
830.500	486.104	80.002	19.994	100.676	20.000	5.061	0.574
831.000	486.358	80.003	19.993	100.677	19.998	5.182	0.550
831.500	486.626	80.003	19.994	100.676	19.995	5.385	0.525
832.000	486.903	80.003	19.994	100.674	19.995	5.435	0.534
832.500	487.196	80.002	19.994	100.670	20.002	4.905	0.558
833.000	487.463	80.002	19.994	100.669	20.001	5.003	0.564
833.500	487.665	80.003	19.993	100.668	20.001	5.013	0.514
834.000	487.984	80.003	19.993	100.672	20.000	5.056	0.495
834.500	488.243	80.003	19.994	100.675	19.999	5.156	0.549
835.000	488.524	80.002	19.995	100.678	19.995	5.399	0.559
835.500	488.826	80.002	19.994	100.675	20.002	4.933	0.562
836.000	489.057	80.001	19.995	100.670	19.997	5.273	0.558
836.500	489.334	80.001	19.994	100.670	19.998	5.237	0.520
837.000	489.616	80.000	19.993	100.671	20.003	4.864	0.534
837.500	489.882	80.000	19.994	100.672	20.002	4.935	0.554
838.000	490.151	79.999	19.994	100.675	19.999	5.115	0.542
838.500	490.446	80.000	19.996	100.681	20.001	5.000	0.549
839.000	490.705	80.001	19.995	100.681	20.003	4.894	0.559
839.500	490.978	80.000	19.995	100.679	20.002	4.920	0.543
840.000	491.215	80.000	19.995	100.680	20.005	4.723	0.521
840.500	491.494	80.001	19.995	100.683	20.006	4.641	0.513
841.000	491.776	80.001	19.995	100.683	20.005	4.756	0.538
841.500	492.054	80.001	19.995	100.683	20.005	4.710	0.561
842.001	492.332	80.001	19.996	100.686	20.005	4.708	0.558
842.501	492.631	80.000	19.995	100.680	20.006	4.626	0.566
843.000	492.938	80.000	19.994	100.679	20.006	4.637	0.591
843.500	493.190	80.000	19.994	100.676	20.004	4.762	0.583
844.000	493.473	79.999	19.994	100.674	20.005	4.756	0.547
844.500	493.740	80.000	19.996	100.674	20.004	4.773	0.542
845.000	494.019	80.001	19.995	100.679	20.004	4.821	0.548
845.500	494.291	79.999	19.995	100.675	20.005	4.725	0.549
846.000	494.546	79.999	19.996	100.675	20.004	4.806	0.539
846.500	494.882	79.999	19.994	100.677	20.007	4.600	0.559
847.000	495.155	80.000	19.994	100.674	20.002	4.905	0.600
847.500	495.438	79.999	19.995	100.670	20.003	4.844	0.583
848.000	495.748	80.000	19.995	100.670	20.004	4.806	0.575
848.500	495.986	80.000	19.994	100.673	20.007	4.589	0.571
849.000	496.242	79.999	19.995	100.674	20.004	4.800	0.521
849.500	496.525	80.000	19.995	100.677	20.002	4.929	0.516
850.000	496.839	80.001	19.994	100.682	20.004	4.768	0.568
850.500	497.099	79.999	19.994	100.685	20.005	4.711	0.585
851.000	497.367	80.000	19.994	100.681	20.005	4.694	0.551
851.500	497.659	80.000	19.994	100.679	20.004	4.815	0.544
852.000	497.933	80.000	19.996	100.678	20.004	4.782	0.563
852.500	498.214	80.000	19.993	100.673	20.003	4.893	0.560
853.000	498.502	79.999	19.995	100.671	20.003	4.882	0.562
853.500	498.800	80.001	19.995	100.674	20.001	5.020	0.578
854.000	499.134	80.000	19.994	100.675	20.002	4.921	0.609
854.500	499.390	80.001	19.995	100.675	20.004	4.798	0.611
855.000	499.666	80.001	19.994	100.678	20.003	4.841	0.561
855.500	499.956	80.000	19.995	100.679	20.006	4.625	0.549
856.000	500.223	80.001	19.995	100.675	20.006	4.635	0.562
856.500	500.528	80.002	19.994	100.676	20.004	4.789	0.564
857.000	500.806	80.002	19.995	100.677	20.001	4.983	0.577
857.500	501.084	80.000	19.994	100.674	20.009	4.425	0.570
858.000	501.351	80.000	19.994	100.673	20.002	4.929	0.551
858.500	501.624	80.001	19.994	100.676	20.004	4.828	0.542
859.000	501.909	79.999	19.994	100.674	20.003	4.867	0.549
859.500	502.193	80.001	19.995	100.672	20.007	4.558	0.563
860.000	502.446	80.000	19.994	100.667	20.005	4.694	0.553
860.500	502.724	80.000	19.995	100.664	20.006	4.651	0.534
861.000	502.996	80.000	19.994	100.661	20.004	4.792	0.541
861.500	503.281	79.999	19.995	100.658	20.004	4.766	0.554
862.000	503.563	80.000	19.995	100.654	20.008	4.510	0.562
862.500	503.815	80.001	19.993	100.659	20.009	4.454	0.550
863.000	504.104	80.000	19.994	100.664	20.009	4.428	0.537
863.500	504.367	80.001	19.994	100.667	20.006	4.686	0.547
864.000	504.620	80.002	19.994	100.673	20.008	4.545	0.534
864.500	504.902	80.000	19.995	100.674	20.007	4.558	0.525
865.000	505.222	80.000	19.995	100.669	20.007	4.555	0.568
865.500	505.489	80.001	19.994	100.664	20.007	4.592	0.595
866.000	505.759	80.000	19.995	100.659	20.007	4.568	0.562
866.500	506.050	79.999	19.995	100.658	20.011	4.345	0.549
867.000	506.299	80.000	19.995	100.661	20.007	4.583	0.550
867.501	506.591	80.000	19.996	100.667	20.009	4.443	0.540
868.001	506.855	79.999	19.995	100.673	20.006	4.677	0.549
868.501	507.128	80.000	19.994	100.676	20.009	4.465	0.547
869.001	507.404	80.000	19.996	100.675	20.007	4.586	0.543
869.501	507.685	80.001	19.996	100.671	20.007	4.568	0.553
870.000	507.992	80.000	19.996	100.666	20.007	4.557	0.572
870.500	508.261	80.000	19.995	100.662	20.005	4.732	0.582
871.000	508.495	79.999	19.994	100.661	20.008	4.514	0.539
871.500	508.755	80.000	19.995	100.657	20.005	4.730	0.499
872.000	509.066	80.001	19.995	100.656	20.007	4.615	0.533
872.500	509.319	79.999	19.995	100.654	20.007	4.616	0.568
873.000	509.629	79.999	19.995	100.652	20.008	4.546	0.564
873.500	509.861	80.000	19.995	100.647	20.005	4.718	0.552
874.000	510.172	80.002	19.995	100.649	20.007	4.599	0.543
874.500	510.400	79.999	19.994	100.650	20.008	4.493	0.542
875.000	510.648	79.998	19.995	100.653	20.005	4.753	0.507
875.500	510.926	80.000	19.995	100.655	20.005	4.709	0.501
876.000	511.243	79.999	19.996	100.660	20.006	4.623	0.561
876.500	511.491	80.000	19.996	100.664	20.006	4.655	0.580
877.000	511.778	79.999	19.995	100.665	20.006	4.681	0.550
877.500	512.005	80.000	19.995	100.663	20.008	4.515	0.524
878.000	512.297	79.999	19.996	100.660	20.005	4.709	0.516
878.501	512.573	79.998	19.996	100.658	20.007	4.603	0.544
879.001	512.826	79.998	19.996	100.652	20.007	4.590	0.549
879.500	513.101	80.001	19.995	100.651	20.007	4.573	0.529
880.000	513.353	80.001	19.995	100.655	20.007	4.599	0.527
880.500	513.612	80.000	19.996	100.661	20.005	4.738	0.519
881.000	513.888	79.999	19.997	100.665	20.009	4.476	0.523
881.501	514.132	80.001	19.996	100.670	20.007	4.566	0.528
882.001	514.404	80.000	19.995	100.672	20.006	4.623	0.518
882.500	514.706	79.999	19.995	100.675	20.008	4.541	0.545
883.000	514.931	80.001	19.996	100.671	20.011	4.305	0.551
883.500	515.184	80.000	19.996	100.667	20.012	4.227	0.503
884.001	515.485	80.000	19.995	100.664	20.012	4.275	0.516
884.500	515.748	80.000	19.996	100.661	20.010	4.372	0.559
885.000	516.012	79.999	19.995	100.656	20.012	4.214	0.546
885.500	516.250	80.000	19.995	100.656	20.012	4.259	0.514
886.000	516.551	80.001	19.996	100.655	20.014	4.125	0.520
886.500	516.765	80.001	19.995	100.655	20.012	4.255	0.527
887.000	517.054	80.000	19.995	100.654	20.013	4.192	0.510
887.500	517.300	79.999	19.996	100.655	20.013	4.179	0.519
888.000	517.561	80.002	19.995	100.652	20.017	3.872	0.521
888.500	517.844	80.001	19.994	100.653	20.017	3.897	0.525
889.000	518.092	80.001	19.995	100.653	20.013	4.206	0.538
889.500	518.305	80.000	19.996	100.653	20.017	3.930	0.496
890.000	518.559	79.999	19.995	100.653	20.017	3.919	0.464
890.500	518.818	80.000	19.995	100.655	20.015	4.044	0.490
891.000	519.128	80.002	19.995	100.656	20.016	3.995	0.540
891.500	519.326	80.003	19.995	100.655	20.016	3.997	0.539
892.000	519.579	80.000	19.995	100.655	20.014	4.131	0.480
892.500	519.867	80.000	19.995	100.655	20.015	4.032	0.496
893.000	520.075	80.000	19.995	100.653	20.013	4.173	0.518
893.500	520.366	80.000	19.994	100.650	20.011	4.307	0.498
894.000	520.637	80.002	19.995	100.650	20.013	4.142	0.531
894.500	520.840	80.000	19.995	100.651	20.009	4.423	0.518
895.000	521.139	79.999	19.996	100.651	20.012	4.231	0.488
895.500	521.370	79.999	19.995	100.651	20.011	4.328	0.516
896.000	521.628	80.000	19.996	100.652	20.012	4.220	0.509
896.500	521.876	79.999	19.995	100.653	20.013	4.198	0.498
897.000	522.127	79.999	19.996	100.653	20.012	4.246	0.503
897.500	522.398	80.000	19.995	100.654	20.011	4.279	0.510
898.000	522.627	79.999	19.994	100.658	20.013	4.166	0.510
898.500	522.894	79.999	19.996	100.660	20.012	4.249	0.498
899.000	523.158	80.000	19.995	100.663	20.009	4.417	0.514
899.500	523.412	80.000	19.995	100.667	20.014	4.108	0.525
900.000	523.632	80.000	19.996	100.670	20.011	4.290	0.496
900.500	523.874	80.000	19.995	100.669	20.013	4.143	0.468
901.000	524.153	80.001	19.995	100.668	20.015	4.067	0.491
901.500	524.413	80.000	19.995	100.667	20.013	4.145	0.530
902.000	524.691	79.999	19.996	100.663	20.011	4.286	0.539
902.500	524.926	79.999	19.996	100.661	20.013	4.201	0.526
903.000	525.195	79.998	19.995	100.658	20.010	4.376	0.509
903.500	525.473	80.000	19.996	100.658	20.012	4.260	0.525
904.000	525.720	80.000	19.995	100.658	20.010	4.367	0.536
904.500	525.915	80.001	19.995	100.660	20.012	4.233	0.484
905.000	526.184	80.001	19.995	100.662	20.009	4.432	0.453
905.500	526.403	80.002	19.995	100.661	20.010	4.389	0.476
906.000	526.654	80.001	19.996	100.662	20.009	4.454	0.479
906.500	526.880	80.002	19.995	100.663	20.012	4.244	0.473
907.000	527.137	80.002	19.995	100.660	20.012	4.242	0.479
907.500	527.388	80.002	19.994	100.656	20.013	4.175	0.495
908.000	527.654	80.001	19.995	100.654	20.014	4.084	0.513
908.500	527.886	80.001	19.994	100.653	20.014	4.117	0.507
909.000	528.137	80.003	19.995	100.648	20.010	4.363	0.490
909.500	528.395	80.002	19.994	100.650	20.013	4.205	0.496
910.000	528.643	80.001	19.995	100.653	20.012	4.249	0.508
910.500	528.866	80.001	19.995	100.654	20.013	4.183	0.489
911.000	529.193	80.002	19.995	100.653	20.010	4.374	0.510
911.500	529.356	80.002	19.996	100.653	20.010	4.397	0.520
912.000	529.647	80.001	19.996	100.649	20.014	4.110	0.472
912.500	529.877	80.001	19.995	100.645	20.011	4.339	0.487
913.000	530.122	80.002	19.995	100.644	20.010	4.414	0.498
913.500	530.378	80.002	19.996	100.645	20.011	4.326	0.488
914.000	530.652	80.002	19.995	100.646	20.014	4.088	0.515
914.500	530.872	80.002	19.996	100.649	20.011	4.313	0.512
915.000	531.130	80.002	19.995	100.652	20.012	4.269	0.486
915.500	531.415	80.001	19.994	100.653	20.011	4.295	0.510
916.000	531.616	80.001	19.996	100.652	20.011	4.308	0.515
916.500	531.904	80.001	19.996	100.651	20.010	4.384	0.488
917.000	532.101	80.000	19.996	100.649	20.012	4.269	0.487
917.500	532.368	80.001	19.995	100.647	20.009	4.442	0.474
918.000	532.610	79.999	19.994	100.648	20.012	4.274	0.486
918.500	532.843	80.001	19.995	100.648	20.009	4.456	0.492
919.000	533.083	80.000	19.995	100.649	20.012	4.226	0.474
919.500	533.368	80.000	19.994	100.651	20.013	4.199	0.498
920.000	533.585	79.999	19.995	100.650	20.012	4.214	0.514
920.500	533.857	80.000	19.993	100.650	20.014	4.077	0.496
921.000	534.087	80.000	19.994	100.651	20.013	4.201	0.496
921.500	534.370	80.000	19.994	100.653	20.012	4.235	0.507
922.000	534.574	79.999	19.994	100.654	20.012	4.218	0.500
922.500	534.847	79.999	19.995	100.658	20.015	4.066	0.482
923.000	535.078	79.999	19.993	100.661	20.013	4.183	0.490
923.500	535.344	79.999	19.995	100.662	20.013	4.187	0.501
924.000	535.641	79.999	19.995	100.665	20.012	4.268	0.530
924.500	535.846	79.999	19.994	100.668	20.015	4.023	0.532
925.000	536.088	80.000	19.995	100.671	20.012	4.211	0.474
925.500	536.357	79.999	19.994	100.667	20.018	3.844	0.479
926.000	536.597	80.000	19.994	100.666	20.016	3.982	0.510
926.500	536.816	80.000	19.995	100.663	20.015	4.056	0.484
927.000	537.072	80.000	19.993	100.663	20.012	4.216	0.467
927.500	537.335	79.999	19.994	100.663	20.011	4.340	0.497
928.000	537.543	79.999	19.995	100.667	20.016	4.000	0.495
928.500	537.795	80.000	19.996	100.670	20.013	4.142	0.466
929.000	538.045	79.999	19.995	100.668	20.016	3.995	0.481
929.500	538.312	80.000	19.995	100.665	20.015	4.037	0.509
930.000	538.524	79.998	19.996	100.660	20.015	4.043	0.498
930.500	538.758	79.999	19.997	100.657	20.015	4.047	0.462
931.000	539.063	80.001	19.995	100.653	20.015	4.066	0.493
931.500	539.277	80.000	19.995	100.652	20.011	4.300	0.529
932.000	539.519	80.000	19.995	100.650	20.017	3.930	0.488
932.500	539.770	80.000	19.995	100.655	20.015	4.016	0.475
933.000	540.016	80.001	19.995	100.660	20.014	4.111	0.495
933.500	540.267	79.999	19.995	100.660	20.015	4.014	0.497
934.000	540.518	80.000	19.994	100.661	20.015	4.032	0.499
934.500	540.767	80.001	19.995	100.663	20.015	4.019	0.501
935.000	541.032	80.000	19.995	100.658	20.015	4.056	0.507
935.500	541.236	80.000	19.995	100.654	20.014	4.090	0.491
936.000	541.509	80.000	19.995	100.655	20.016	3.986	0.473
936.500	541.774	79.999	19.995	100.656	20.015	4.034	0.508
937.000	542.024	80.000	19.994	100.655	20.016	3.993	0.527
937.500	542.264	80.001	19.995	100.655	20.016	3.956	0.502
938.000	542.512	80.001	19.994	100.653	20.016	3.992	0.488
938.500	542.762	80.001	19.994	100.651	20.018	3.828	0.493
939.000	542.989	80.000	19.995	100.652	20.015	4.033	0.488
939.500	543.281	80.000	19.994	100.653	20.014	4.109	0.498
940.000	543.500	80.000	19.995	100.651	20.015	4.049	0.515
940.500	543.736	79.999	19.994	100.651	20.016	3.954	0.483
941.000	544.010	80.000	19.995	100.654	20.012	4.246	0.482
941.500	544.218	79.999	19.994	100.656	20.014	4.094	0.496
942.000	544.452	80.000	19.995	100.660	20.017	3.869	0.462
942.500	544.711	80.001	19.995	100.667	20.016	3.956	0.467
943.000	544.995	79.999	19.995	100.670	20.016	3.986	0.518
943.500	545.208	80.000	19.995	100.669	20.015	4.031	0.520
944.000	545.443	80.001	19.994	100.666	20.015	4.066	0.473
944.500	545.701	80.000	19.995	100.663	20.011	4.328	0.470
945.000	545.920	80.000	19.995	100.658	20.013	4.140	0.485
945.500	546.201	80.001	19.996	100.655	20.012	4.209	0.489
946.000	546.450	79.999	19.993	100.656	20.013	4.203	0.515
946.500	546.706	79.999	19.996	100.656	20.013	4.149	0.518
947.000	546.935	80.001	19.994	100.655	20.015	4.021	0.495
947.500	547.193	80.000	19.995	100.658	20.012	4.274	0.486
948.000	547.459	80.000	19.995	100.663	20.014	4.123	0.506
948.500	547.729	80.000	19.995	100.667	20.014	4.120	0.530
949.000	547.983	80.000	19.994	100.672	20.014	4.101	0.530
949.500	548.230	80.001	19.995	100.672	20.012	4.221	0.512
950.000	548.492	79.999	19.995	100.667	20.014	4.107	0.505
950.500	548.712	80.000	19.994	100.667	20.011	4.321	0.496
951.000	548.938	80.000	19.994	100.669	20.012	4.248	0.464
951.500	549.234	79.999	19.995	100.664	20.013	4.174	0.484
952.000	549.470	79.999	19.995	100.664	20.011	4.308	0.527
952.500	549.738	80.001	19.994	100.672	20.011	4.345	0.518
953.000	549.985	80.000	19.994	100.671	20.013	4.163	0.509
953.500	550.249	79.999	19.996	100.664	20.013	4.148	0.513
954.000	550.473	79.999	19.996	100.666	20.012	4.257	0.499
954.500	550.728	79.999	19.994	100.665	20.013	4.159	0.483
955.000	551.011	80.000	19.995	100.658	20.012	4.224	0.509
955.500	551.256	80.000	19.993	100.658	20.015	4.059	0.534
956.000	551.470	79.999	19.994	100.659	20.012	4.224	0.494
956.500	551.734	79.999	19.995	100.661	20.011	4.323	0.468
957.000	551.962	79.999	19.995	100.662	20.011	4.289	0.485
957.500	552.230	80.000	19.995	100.662	20.011	4.324	0.494
958.000	552.475	80.000	19.994	100.659	20.014	4.112	0.505
958.500	552.744	80.000	19.994	100.659	20.013	4.162	0.513
959.000	552.995	79.998	19.995	100.660	20.011	4.328	0.516
959.500	553.240	79.999	19.993	100.664	20.013	4.159	0.508
960.000	553.474	80.000	19.995	100.668	20.013	4.153	0.488
960.500	553.737	80.001	19.994	100.672	20.014	4.137	0.488
961.000	553.986	80.001	19.995	100.675	20.013	4.185	0.505
961.500	554.271	80.000	19.992	100.674	20.014	4.114	0.523
962.000	554.535	80.001	19.995	100.671	20.012	4.226	0.541
962.500	554.768	80.001	19.994	100.668	20.015	4.064	0.523
963.000	555.029	80.001	19.995	100.667	20.017	3.917	0.496
963.500	555.278	80.001	19.994	100.664	20.013	4.144	0.502
964.000	555.501	80.001	19.994	100.665	20.012	4.276	0.491
964.500	555.759	80.001	19.995	100.662	20.014	4.110	0.476
965.000	555.981	80.000	19.994	100.660	20.017	3.926	0.481
965.500	556.300	80.001	19.994	100.660	20.017	3.915	0.511
966.000	556.512	80.002	19.994	100.663	20.015	4.040	0.536
966.500	556.778	80.002	19.995	100.666	20.016	3.988	0.504
967.000	557.005	80.003	19.994	100.669	20.014	4.087	0.485
967.500	557.280	80.001	19.995	100.671	20.017	3.871	0.497
968.000	557.569	80.002	19.994	100.670	20.018	3.826	0.534
968.500	557.791	80.002	19.994	100.667	20.018	3.856	0.538
969.000	558.060	80.002	19.996	100.661	20.015	4.053	0.501
969.500	558.310	80.002	19.995	100.659	20.017	3.906	0.505
970.000	558.569	80.002	19.995	100.660	20.015	4.017	0.514
970.500	558.804	80.001	19.995	100.661	20.015	4.058	0.501
971.000	559.032	80.002	19.995	100.662	20.013	4.164	0.478
971.500	559.310	80.001	19.995	100.666	20.015	4.043	0.485
972.000	559.539	80.001	19.995	100.667	20.015	4.019	0.506
972.500	559.794	80.000	19.994	100.666	20.015	4.006	0.496
973.000	560.046	79.999	19.996	100.665	20.015	4.066	0.496
973.500	560.319	80.000	19.996	100.664	20.015	4.059	0.516
974.000	560.581	80.001	19.995	100.661	20.017	3.912	0.530
974.500	560.845	80.000	19.995	100.660	20.015	4.008	0.531
975.000	561.097	80.001	19.996	100.658	20.018	3.846	0.521
975.500	561.355	80.000	19.996	100.657	20.015	4.042	0.514
976.000	561.622	80.000	19.995	100.657	20.013	4.183	0.518
976.500	561.922	80.001	19.996	100.658	20.015	4.060	0.545
977.000	562.157	80.000	19.996	100.661	20.020	3.679	0.551
977.500	562.357	80.000	19.995	100.667	20.017	3.885	0.485
978.000	562.650	80.001	19.996	100.670	20.016	3.967	0.464
978.500	562.920	80.000	19.996	100.673	20.017	3.902	0.528
979.000	563.152	80.001	19.996	100.673	20.018	3.813	0.533
979.500	563.416	80.000	19.995	100.670	20.017	3.924	0.499
980.000	563.717	80.000	19.995	100.665	20.016	3.932	0.531
980.500	563.924	80.001	19.995	100.662	20.017	3.878	0.536
981.000	564.173	80.000	19.995	100.659	20.015	4.060	0.482
981.500	564.450	80.001	19.995	100.655	20.019	3.768	0.492
982.000	564.679	80.001	19.996	100.655	20.020	3.712	0.516
982.500	564.960	80.000	19.995	100.657	20.019	3.774	0.507
983.000	565.179	80.001	19.996	100.658	20.016	3.963	0.505
983.500	565.461	80.001	19.995	100.663	20.015	4.057	0.501
984.000	565.706	80.002	19.994	100.669	20.014	4.114	0.514
984.500	565.966	80.001	19.995	100.669	20.017	3.910	0.516
985.000	566.206	80.001	19.995	100.669	20.015	4.012	0.503
985.500	566.481	80.001	19.994	100.667	20.015	4.069	0.507
986.000	566.729	80.001	19.995	100.662	20.017	3.919	0.519
986.500	566.965	80.001	19.995	100.662	20.013	4.166	0.504
987.000	567.230	80.001	19.995	100.660	20.014	4.084	0.493
987.500	567.442	80.000	19.994	100.663	20.014	4.090	0.489
988.000	567.731	80.001	19.994	100.664	20.015	4.049	0.489
988.500	567.999	80.002	19.996	100.662	20.013	4.153	0.529
989.000	568.227	80.001	19.995	100.658	20.014	4.096	0.526
989.500	568.494	80.001	19.994	100.661	20.016	3.997	0.495
990.000	568.733	80.002	19.995	100.661	20.012	4.242	0.501
990.500	569.014	80.002	19.994	100.661	20.012	4.257	0.513
991.000	569.250	80.003	19.996	100.664	20.011	4.335	0.518
991.500	569.506	80.000	19.994	100.666	20.011	4.322	0.505
992.000	569.791	80.002	19.994	100.661	20.011	4.341	0.516
992.500	570.005	80.002	19.995	100.658	20.010	4.382	0.520
993.000	570.321	80.001	19.995	100.657	20.009	4.447	0.515
993.500	570.539	80.002	19.995	100.660	20.014	4.125	0.532
994.000	570.806	80.002	19.996	100.660	20.010	4.376	0.509
994.500	571.073	80.002	19.995	100.663	20.013	4.172	0.509
995.000	571.299	80.002	19.994	100.664	20.014	4.114	0.514
995.500	571.575	80.002	19.996	100.665	20.015	4.012	0.498
996.000	571.826	80.004	19.995	100.659	20.013	4.200	0.514
996.500	572.090	80.002	19.995	100.658	20.011	4.294	0.520
997.000	572.311	80.002	19.995	100.660	20.012	4.250	0.500
997.500	572.551	80.002	19.995	100.662	20.012	4.255	0.474
998.000	572.825	80.002	19.995	100.662	20.011	4.315	0.488
998.500	573.092	80.002	19.996	100.666	20.014	4.129	0.527
999.000	573.348	80.002	19.996	100.669	20.016	3.995	0.532
999.500	573.585	80.002	19.995	100.666	20.014	4.079	0.508
1000.000	573.926	80.000	19.996	100.662	20.014	4.121	0.536
1000.500	574.133	80.000	19.995	100.660	20.012	4.270	0.563
1001.000	574.407	80.000	19.996	100.658	20.012	4.211	0.514
1001.500	574.675	80.000	19.996	100.658	20.012	4.226	0.512
1002.000	574.951	79.999	19.995	100.659	20.010	4.410	0.543
1002.500	575.179	79.998	19.997	100.662	20.008	4.553	0.524
1003.000	575.463	79.999	19.996	100.665	20.015	4.060	0.508
1003.500	575.691	79.999	19.995	100.666	20.011	4.300	0.512
1004.000	575.951	79.998	19.998	100.667	20.009	4.422	0.500
1004.500	576.219	79.999	19.996	100.666	20.011	4.313	0.508
1005.000	576.467	79.998	19.997	100.664	20.013	4.189	0.522
1005.500	576.683	79.999	19.995	100.662	20.011	4.345	0.490
1006.000	576.954	79.999	19.996	100.663	20.013	4.168	0.475
1006.500	577.200	79.998	19.995	100.661	20.012	4.269	0.502
1007.000	577.434	79.998	19.996	100.659	20.011	4.339	0.498
1007.500	577.697	79.999	19.996	100.658	20.010	4.365	0.488
1008.000	577.990	79.999	19.998	100.657	20.009	4.453	0.527
1008.500	578.238	79.999	19.995	100.658	20.010	4.369	0.549
1009.000	578.489	80.000	19.997	100.654	20.011	4.345	0.520
1009.500	578.759	79.998	19.996	100.654	20.010	4.366	0.510
1010.000	579.022	79.998	19.995	100.653	20.007	4.579	0.527
1010.500	579.255	79.998	19.997	100.656	20.010	4.412	0.514
1011.000	579.518	79.998	19.995	100.655	20.011	4.308	0.496
1011.500	579.772	79.998	19.996	100.660	20.008	4.525	0.507
1012.000	580.066	79.999	19.995	100.663	20.010	4.410	0.532
1012.500	580.288	79.998	19.995	100.663	20.013	4.176	0.532
1013.000	580.542	79.999	19.995	100.659	20.010	4.378	0.496
1013.500	580.818	79.998	19.996	100.657	20.008	4.490	0.503
1014.000	581.064	80.000	19.995	100.652	20.007	4.607	0.526
1014.500	581.296	79.999	19.994	100.650	20.006	4.651	0.500
1015.000	581.542	80.000	19.995	100.652	20.009	4.434	0.479
1015.500	581.763	80.000	19.995	100.658	20.009	4.425	0.473
1016.000	582.065	79.999	19.995	100.663	20.012	4.213	0.495
1016.501	582.306	80.001	19.995	100.668	20.007	4.589	0.533
1017.001	582.568	79.999	19.995	100.671	20.009	4.451	0.523
1017.500	582.793	80.000	19.996	100.672	20.010	4.356	0.495
1018.000	583.084	80.000	19.996	100.669	20.009	4.455	0.501
1018.500	583.355	79.998	19.995	100.668	20.009	4.419	0.539
1019.000	583.577	80.000	19.995	100.670	20.011	4.304	0.528
1019.500	583.842	80.000	19.994	100.673	20.011	4.344	0.490
1020.000	584.083	80.000	19.994	100.675	20.012	4.220	0.497
1020.500	584.343	80.000	19.995	100.676	20.008	4.545	0.504
1021.000	584.604	79.999	19.995	100.673	20.008	4.512	0.511
1021.500	584.887	80.001	19.995	100.670	20.011	4.291	0.532
1022.000	585.069	79.998	19.995	100.668	20.005	4.707	0.504
1022.500	585.369	79.998	19.995	100.667	20.008	4.553	0.474
1023.000	585.654	79.999	19.994	100.669	20.009	4.430	0.534
1023.500	585.871	79.998	19.996	100.668	20.007	4.582	0.543
1024.000	586.129	79.998	19.995	100.666	20.004	4.770	0.489
1024.500	586.375	80.000	19.995	100.661	20.009	4.432	0.490
1025.000	586.652	79.999	19.996	100.660	20.007	4.588	0.513
1025.500	586.903	80.000	19.994	100.657	20.009	4.443	0.525
1026.000	587.164	79.999	19.995	100.662	20.007	4.613	0.520
1026.500	587.375	79.999	19.994	100.663	20.006	4.657	0.493
1027.000	587.637	79.999	19.994	100.668	20.008	4.505	0.473
1027.500	587.903	79.999	19.996	100.671	20.004	4.776	0.500
1028.000	588.119	80.000	19.996	100.675	20.007	4.579	0.505
1028.500	588.381	79.999	19.995	100.670	20.003	4.843	0.480
1029.000	588.661	79.999	19.995	100.668	20.005	4.707	0.510
1029.500	588.916	80.000	19.995	100.663	20.008	4.518	0.538
1030.000	589.169	79.998	19.996	100.658	20.008	4.520	0.522
1030.500	589.427	79.999	19.995	100.653	20.012	4.258	0.509
1031.000	589.702	80.000	19.994	100.656	20.012	4.237	0.522
1031.500	589.951	80.000	19.994	100.658	20.006	4.624	0.529
1032.000	590.224	79.997	19.994	100.663	20.008	4.507	0.523
1032.500	590.514	80.000	19.995	100.665	20.010	4.374	0.543
1033.000	590.719	80.000	19.994	100.665	20.007	4.610	0.529
1033.500	590.988	79.998	19.994	100.661	20.008	4.508	0.484
1034.000	591.262	79.998	19.995	100.660	20.006	4.674	0.509
1034.500	591.539	79.997	19.994	100.655	20.010	4.361	0.547
1035.000	591.759	79.998	19.995	100.656	20.006	4.641	0.524
1035.500	591.986	79.999	19.995	100.658	20.006	4.628	0.472
1036.000	592.215	80.000	19.995	100.661	20.006	4.681	0.452
1036.500	592.471	80.000	19.995	100.667	20.008	4.547	0.471
1037.000	592.736	79.999	19.995	100.670	20.011	4.345	0.503
1037.500	593.040	80.000	19.995	100.669	20.009	4.439	0.545
1038.000	593.266	79.998	19.996	100.669	20.009	4.417	0.549
1038.500	593.563	80.000	19.995	100.669	20.008	4.517	0.526
1039.000	593.798	79.998	19.995	100.664	20.009	4.430	0.528
1039.500	594.037	79.998	19.996	100.660	20.011	4.326	0.503
1040.001	594.308	80.000	19.996	100.661	20.010	4.408	0.492
1040.501	594.613	79.998	19.995	100.662	20.012	4.258	0.543
1041.001	594.831	79.999	19.996	100.666	20.015	4.047	0.549
1041.500	595.128	80.001	19.995	100.672	20.013	4.157	0.518
1042.000	595.335	79.998	19.996	100.673	20.011	4.298	0.509
1042.500	595.615	80.001	19.994	100.671	20.010	4.399	0.496
1043.000	595.849	79.999	19.995	100.667	20.017	3.910	0.500
1043.500	596.134	80.001	19.996	100.661	20.014	4.103	0.516
1044.000	596.376	80.001	19.995	100.657	20.012	4.271	0.523
1044.500	596.675	80.000	19.995	100.658	20.012	4.237	0.534
1045.001	596.928	80.001	19.996	100.660	20.013	4.187	0.547
1045.501	597.151	79.999	19.995	100.663	20.014	4.116	0.514
1046.001	597.438	80.001	19.995	100.668	20.012	4.277	0.493
1046.500	597.670	80.001	19.994	100.668	20.017	3.903	0.515
1047.000	597.942	80.002	19.994	100.666	20.017	3.884	0.512
1047.500	598.192	80.001	19.993	100.665	20.012	4.245	0.513
1048.000	598.444	80.001	19.996	100.660	20.012	4.231	0.512
1048.500	598.670	80.002	19.995	100.653	20.005	4.698	0.489
1049.000	598.961	80.001	19.994	100.652	20.012	4.210	0.497
1049.500	599.160	80.001	19.996	100.657	20.011	4.294	0.504
1050.000	599.419	80.002	19.995	100.660	20.014	4.108	0.474
1050.500	599.681	80.001	19.995	100.662	20.013	4.188	0.489
1051.000	599.935	80.003	19.995	100.664	20.012	4.250	0.518
1051.500	600.186	80.001	19.995	100.667	20.012	4.272	0.511
1052.000	600.421	80.002	19.995	100.665	20.014	4.121	0.495
1052.500	600.694	80.000	19.995	100.660	20.014	4.082	0.497
1053.000	600.914	80.002	19.995	100.661	20.007	4.571	0.501
1053.500	601.184	80.002	19.995	100.663	20.011	4.314	0.491
1054.000	601.461	80.002	19.994	100.665	20.013	4.175	0.519
1054.500	601.660	80.001	19.995	100.664	20.012	4.223	0.511
1055.001	601.946	80.003	19.996	100.668	20.011	4.292	0.480
1055.501	602.181	80.001	19.996	100.670	20.009	4.431	0.503
1056.000	602.455	80.001	19.995	100.673	20.011	4.340	0.515
1056.500	602.699	80.000	19.994	100.674	20.008	4.532	0.513
1057.000	602.948	80.001	19.995	100.680	20.011	4.339	0.505
1057.500	603.190	80.001	19.995	100.681	20.013	4.145	0.492
1058.001	603.453	80.002	19.995	100.676	20.012	4.221	0.498
1058.501	603.682	80.001	19.995	100.671	20.011	4.279	0.498
1059.000	603.933	80.000	19.995	100.664	20.006	4.682	0.486
1059.500	604.188	80.001	19.994	100.656	20.011	4.301	0.493
1060.000	604.459	80.001	19.995	100.651	20.009	4.455	0.516
1060.500	604.681	80.001	19.996	100.649	20.007	4.571	0.509
1061.000	604.900	80.002	19.996	100.649	20.013	4.139	0.467
1061.500	605.159	80.001	19.996	100.652	20.013	4.184	0.460
1062.000	605.391	80.000	19.994	100.655	20.009	4.474	0.484
1062.500	605.641	80.000	19.995	100.654	20.010	4.348	0.486
1063.001	605.885	80.001	19.996	100.654	20.010	4.355	0.488
1063.501	606.105	80.001	19.996	100.652	20.010	4.350	0.479
1064.000	606.382	80.001	19.995	100.649	20.010	4.407	0.480
1064.500	606.634	80.000	19.995	100.647	20.008	4.524	0.513
1065.000	606.880	80.001	19.995	100.648	20.007	4.584	0.514
1065.500	607.143	79.999	19.994	100.647	20.016	3.952	0.504
1066.000	607.359	80.001	19.996	100.646	20.008	4.530	0.494
1066.500	607.623	80.001	19.996	100.647	20.010	4.354	0.479
1067.000	607.911	80.000	19.995	100.647	20.008	4.506	0.516
1067.500	608.148	80.002	19.995	100.650	20.014	4.134	0.539
1068.000	608.385	80.001	19.995	100.650	20.015	4.047	0.500
1068.500	608.617	80.001	19.996	100.651	20.009	4.430	0.471
1069.000	608.882	79.999	19.995	100.650	20.014	4.127	0.483
1069.500	609.105	80.000	19.996	100.649	20.012	4.253	0.493
1070.000	609.364	80.000	19.995	100.646	20.013	4.187	0.485
1070.500	609.622	80.000	19.996	100.646	20.014	4.079	0.500
1071.000	609.844	80.001	19.995	100.645	20.011	4.278	0.498
1071.500	610.118	80.000	19.996	100.645	20.011	4.287	0.488
1072.000	610.362	80.003	19.996	100.645	20.014	4.127	0.507
1072.500	610.600	80.001	19.995	100.645	20.012	4.216	0.500
1073.001	610.847	80.001	19.995	100.645	20.013	4.203	0.483
1073.501	611.082	80.002	19.996	100.645	20.012	4.275	0.483
1074.000	611.344	80.002	19.996	100.646	20.012	4.266	0.490
1074.500	611.589	80.003	19.994	100.646	20.011	4.318	0.502
1075.000	611.824	80.002	19.997	100.649	20.009	4.482	0.493
1075.500	612.081	80.002	19.995	100.650	20.011	4.344	0.486
1076.000	612.337	80.000	19.993	100.650	20.013	4.195	0.503
1076.500	612.601	80.002	19.995	100.650	20.007	4.558	0.516
1077.000	612.899	80.002	19.995	100.651	20.006	4.688	0.541
1077.500	613.110	80.002	19.994	100.652	20.009	4.432	0.536
1078.000	613.365	80.001	19.995	100.653	20.010	4.368	0.487
1078.500	613.607	80.003	19.995	100.654	20.016	3.971	0.481
1079.000	613.846	80.001	19.994	100.654	20.013	4.177	0.489
1079.501	614.095	80.001	19.996	100.655	20.012	4.251	0.485
1080.001	614.350	80.002	19.994	100.654	20.011	4.311	0.496
1080.500	614.590	80.003	19.996	100.658	20.013	4.181	0.499
1081.000	614.833	80.000	19.995	100.660	20.014	4.123	0.489
1081.500	615.127	80.002	19.995	100.661	20.014	4.138	0.510
1082.000	615.360	80.002	19.996	100.663	20.012	4.224	0.532
1082.500	615.578	80.000	19.994	100.661	20.012	4.250	0.489
1083.000	615.864	80.000	19.995	100.656	20.014	4.136	0.478
1083.500	616.075	79.999	19.994	100.653	20.012	4.235	0.500
1084.000	616.342	80.000	19.994	100.653	20.012	4.272	0.488
1084.500	616.610	80.001	19.995	100.649	20.013	4.147	0.506
1085.000	616.852	79.998	19.996	100.648	20.007	4.586	0.522
1085.500	617.090	79.998	19.996	100.649	20.013	4.151	0.495
1086.000	617.342	79.999	19.997	100.649	20.012	4.224	0.485
1086.500	617.610	79.998	19.995	100.649	20.011	4.296	0.505
1087.000	617.819	80.000	19.995	100.650	20.016	3.949	0.499
1087.500	618.103	79.999	19.995	100.650	20.014	4.114	0.485
1088.000	618.344	79.998	19.994	100.650	20.014	4.099	0.509
1088.500	618.583	79.999	19.995	100.651	20.013	4.162	0.503
1089.000	618.813	80.000	19.996	100.651	20.015	4.067	0.475
1089.500	619.072	79.999	19.994	100.650	20.015	4.024	0.479
1090.000	619.309	80.002	19.995	100.650	20.014	4.129	0.492
1090.500	619.553	80.000	19.995	100.652	20.014	4.080	0.489
1091.000	619.792	79.998	19.994	100.653	20.012	4.272	0.482
1091.500	620.021	79.999	19.993	100.655	20.013	4.168	0.475
1092.000	620.310	79.999	19.994	100.656	20.011	4.279	0.493
1092.501	620.564	79.999	19.995	100.658	20.010	4.350	0.530
1093.001	620.819	79.999	19.996	100.657	20.011	4.333	0.526
1093.500	621.078	80.000	19.995	100.654	20.010	4.400	0.512
1094.000	621.326	79.999	19.995	100.653	20.008	4.500	0.510
1094.501	621.571	79.999	19.996	100.652	20.013	4.197	0.500
1095.001	621.849	79.998	19.995	100.650	20.011	4.299	0.508
1095.500	622.115	79.998	19.997	100.650	20.010	4.380	0.533
1096.000	622.358	79.999	19.996	100.654	20.010	4.409	0.527
1096.501	622.581	79.999	19.996	100.657	20.012	4.220	0.488
1097.001	622.843	80.000	19.996	100.659	20.013	4.166	0.476
1097.500	623.100	79.999	19.995	100.664	20.015	4.034	0.502
1098.000	623.348	80.001	19.996	100.665	20.013	4.175	0.512
1098.500	623.596	80.000	19.994	100.662	20.007	4.586	0.500
1099.000	623.854	80.000	19.996	100.659	20.013	4.179	0.501
1099.501	624.082	80.001	19.996	100.656	20.014	4.082	0.496
1100.001	624.353	80.000	19.996	100.652	20.012	4.211	0.493
1100.500	624.618	79.999	19.996	100.650	20.014	4.080	0.518
1101.000	624.872	80.000	19.997	100.651	20.009	4.476	0.527
1101.500	625.118	80.000	19.998	100.655	20.008	4.500	0.509
1102.000	625.393	79.999	19.996	100.657	20.014	4.121	0.511
1102.500	625.610	80.000	19.996	100.656	20.013	4.141	0.507
1103.000	625.875	79.999	19.996	100.655	20.012	4.208	0.487
1103.500	626.105	80.000	19.996	100.653	20.016	3.952	0.488
1104.001	626.374	79.999	19.996	100.648	20.012	4.270	0.497
1104.501	626.607	80.002	19.996	100.645	20.012	4.244	0.501
1105.000	626.845	79.999	19.995	100.647	20.014	4.138	0.487
1105.500	627.137	79.999	19.997	100.647	20.011	4.339	0.500
1106.000	627.352	80.001	19.996	100.648	20.011	4.320	0.519
1106.500	627.602	79.999	19.996	100.651	20.015	4.002	0.486
1107.000	627.888	80.000	19.995	100.654	20.014	4.080	0.500
1107.500	628.112	79.999	19.996	100.659	20.012	4.214	0.522
1108.000	628.371	80.001	19.997	100.663	20.011	4.298	0.496
1108.500	628.586	80.001	19.997	100.663	20.013	4.147	0.478
1109.000	628.883	80.002	19.996	100.661	20.011	4.340	0.493
1109.500	629.166	80.001	19.996	100.663	20.010	4.353	0.546
1110.000	629.393	80.000	19.995	100.658	20.012	4.231	0.545
1110.500	629.638	80.001	19.995	100.654	20.011	4.296	0.491
1111.000	629.925	80.000	19.995	100.657	20.011	4.340	0.502
1111.501	630.166	80.001	19.996	100.656	20.011	4.316	0.529
1112.001	630.414	80.001	19.996	100.651	20.009	4.480	0.508
1112.500	630.639	79.999	19.994	100.650	20.012	4.240	0.481
1113.000	630.928	79.999	19.996	100.650	20.011	4.331	0.494
1113.500	631.202	79.999	19.995	100.648	20.009	4.465	0.538
1114.000	631.449	80.000	19.996	100.647	20.007	4.555	0.542
1114.500	631.691	79.999	19.994	100.649	20.008	4.529	0.506
1115.000	631.962	79.999	19.995	100.653	20.013	4.186	0.502
1115.500	632.216	79.999	19.994	100.653	20.005	4.737	0.519
1116.000	632.456	80.000	19.994	100.652	20.011	4.296	0.509
1116.500	632.699	80.000	19.996	100.652	20.010	4.355	0.488
1117.000	632.971	80.000	19.994	100.650	20.006	4.645	0.499
1117.500	633.217	80.001	19.996	100.648	20.012	4.244	0.517
1118.000	633.510	79.999	19.994	100.649	20.010	4.366	0.529
1118.500	633.758	80.000	19.995	100.650	20.011	4.300	0.540
1119.000	634.016	79.998	19.994	100.650	20.011	4.341	0.524
1119.500	634.242	80.001	19.995	100.650	20.012	4.257	0.495
1120.000	634.558	80.000	19.995	100.649	20.013	4.197	0.512
1120.500	634.776	80.000	19.997	100.648	20.008	4.510	0.538
1121.000	635.073	79.999	19.995	100.648	20.012	4.227	0.525
1121.500	635.299	80.000	19.996	100.648	20.009	4.433	0.519
1122.000	635.576	80.000	19.994	100.647	20.014	4.091	0.513
1122.500	635.833	80.000	19.996	100.647	20.012	4.259	0.519
1123.000	636.098	80.000	19.996	100.647	20.014	4.108	0.528
1123.500	636.307	80.003	19.994	100.649	20.012	4.257	0.498
1124.000	636.582	80.001	19.995	100.652	20.010	4.389	0.479
1124.500	636.849	79.999	19.995	100.656	20.012	4.264	0.513
1125.000	637.099	80.002	19.994	100.659	20.010	4.406	0.530
1125.500	637.349	80.002	19.995	100.659	20.013	4.186	0.509
1126.000	637.587	80.000	19.994	100.658	20.012	4.249	0.494
1126.500	637.871	80.003	19.995	100.656	20.013	4.140	0.505
1127.000	638.123	80.002	19.994	100.652	20.014	4.082	0.528
1127.500	638.385	80.000	19.994	100.648	20.011	4.292	0.525
1128.000	638.710	80.003	19.994	100.648	20.014	4.134	0.551
1128.500	638.887	80.003	19.996	100.652	20.015	4.015	0.544
1129.000	639.200	80.002	19.995	100.650	20.012	4.242	0.496
1129.500	639.437	80.001	19.995	100.652	20.011	4.320	0.520
1130.000	639.675	80.001	19.995	100.653	20.011	4.328	0.513
1130.500	639.956	80.002	19.996	100.653	20.008	4.553	0.497
1131.000	640.163	80.003	19.996	100.649	20.014	4.109	0.503
1131.501	640.430	80.001	19.995	100.648	20.013	4.200	0.481
1132.001	640.678	80.003	19.996	100.647	20.013	4.166	0.495
1132.500	640.961	80.001	19.995	100.647	20.011	4.344	0.523
1133.000	641.218	80.003	19.996	100.650	20.014	4.103	0.535
1133.500	641.478	80.002	19.995	100.653	20.010	4.355	0.528
1134.000	641.738	80.002	19.996	100.653	20.016	3.978	0.519
1134.500	641.983	80.001	19.994	100.657	20.014	4.101	0.513
1135.000	642.224	80.004	19.994	100.657	20.019	3.757	0.495
1135.500	642.501	80.003	19.996	100.657	20.012	4.242	0.502
1136.001	642.738	80.003	19.995	100.655	20.017	3.900	0.516
1136.501	643.008	80.001	19.994	100.655	20.010	4.372	0.511
1137.000	643.252	80.001	19.994	100.651	20.016	3.937	0.510
1137.500	643.514	80.002	19.996	100.651	20.017	3.917	0.510
1138.001	643.794	80.002	19.995	100.651	20.017	3.870	0.524
1138.501	644.041	80.000	19.996	100.650	20.013	4.146	0.535
1139.000	644.263	80.004	19.995	100.653	20.016	3.997	0.498
1139.500	644.522	80.003	19.996	100.654	20.014	4.134	0.475
1140.000	644.781	80.000	19.996	100.655	20.017	3.919	0.499
1140.501	645.073	80.003	19.995	100.655	20.014	4.130	0.535
1141.001	645.297	80.001	19.995	100.662	20.014	4.119	0.534
1141.500	645.565	80.000	19.995	100.663	20.013	4.162	0.504
1142.000	645.836	80.002	19.995	100.662	20.017	3.874	0.516
1142.500	646.074	80.001	19.995	100.663	20.016	3.974	0.524
1143.000	646.331	80.000	19.994	100.662	20.016	3.984	0.502
1143.500	646.568	80.004	19.994	100.655	20.016	3.954	0.494
1144.000	646.866	80.001	19.995	100.652	20.015	4.058	0.514
1144.500	647.104	80.001	19.995	100.651	20.017	3.881	0.536
1145.000	647.365	80.003	19.996	100.651	20.015	4.060	0.518
1145.500	647.626	80.002	19.996	100.653	20.017	3.898	0.510
1146.000	647.871	80.002	19.994	100.654	20.013	4.147	0.514
1146.500	648.145	80.001	19.993	100.654	20.017	3.905	0.513
1147.000	648.366	80.002	19.996	100.657	20.014	4.123	0.507
1147.500	648.635	80.002	19.994	100.658	20.017	3.904	0.492
1148.000	648.917	80.002	19.995	100.658	20.017	3.892	0.520
1148.500	649.138	80.002	19.994	100.658	20.015	4.019	0.527
1149.000	649.399	80.001	19.994	100.659	20.012	4.257	0.492
1149.500	649.696	80.002	19.994	100.657	20.013	4.199	0.520
1150.000	649.954	80.002	19.996	100.655	20.013	4.145	0.557
1150.500	650.259	80.002	19.994	100.655	20.012	4.266	0.559
1151.000	650.498	80.003	19.995	100.654	20.012	4.212	0.553
1151.500	650.720	80.003	19.994	100.653	20.009	4.441	0.502
1152.000	650.979	80.005	19.994	100.653	20.018	3.859	0.471
1152.500	651.275	80.002	19.996	100.652	20.020	3.714	0.518
1153.000	651.531	80.001	19.994	100.652	20.018	3.820	0.554
1153.500	651.789	80.003	19.995	100.653	20.017	3.887	0.533
1154.000	652.049	80.002	19.995	100.653	20.018	3.837	0.516
1154.500	652.290	80.001	19.994	100.652	20.014	4.118	0.509
1155.001	652.542	80.003	19.994	100.652	20.010	4.371	0.496
1155.501	652.806	80.001	19.995	100.651	20.009	4.417	0.504
1156.000	653.099	80.003	19.994	100.650	20.010	4.388	0.537
1156.500	653.317	80.001	19.995	100.651	20.014	4.129	0.534
1157.000	653.596	80.002	19.995	100.651	20.008	4.519	0.504
1157.500	653.807	80.002	19.994	100.651	20.009	4.419	0.494
1158.000	654.043	80.002	19.995	100.650	20.009	4.454	0.469
1158.500	654.353	80.002	19.996	100.650	20.005	4.707	0.496
1159.000	654.593	80.002	19.995	100.649	20.005	4.729	0.548
1159.500	654.856	80.001	19.995	100.648	20.007	4.614	0.526
1160.001	655.151	80.003	19.995	100.650	20.007	4.593	0.530
1160.501	655.374	80.003	19.995	100.650	20.008	4.497	0.538
1161.001	655.651	80.003	19.995	100.650	20.007	4.599	0.509
1161.501	655.920	80.002	19.995	100.651	20.007	4.621	0.523
1162.000	656.181	80.002	19.995	100.651	20.009	4.428	0.538
1162.500	656.444	80.003	19.996	100.651	20.009	4.459	0.527
1163.000	656.676	80.001	19.995	100.650	20.008	4.487	0.510
1163.500	656.898	80.001	19.994	100.650	20.011	4.285	0.474
1164.000	657.153	80.001	19.996	100.650	20.007	4.597	0.465
1164.501	657.420	80.000	19.994	100.650	20.007	4.573	0.500
1165.001	657.656	80.000	19.996	100.653	20.009	4.450	0.512
1165.500	657.914	79.999	19.995	100.656	20.011	4.287	0.498
1166.000	658.204	80.001	19.996	100.663	20.009	4.459	0.521
1166.500	658.436	80.001	19.997	100.668	20.012	4.266	0.535
1167.000	658.724	80.001	19.997	100.667	20.008	4.550	0.521
1167.500	658.931	80.000	19.997	100.663	20.007	4.604	0.507
1168.000	659.210	80.001	19.998	100.659	20.010	4.402	0.490
1168.500	659.433	80.001	19.998	100.653	20.011	4.339	0.494
1169.000	659.625	80.000	19.998	100.650	20.014	4.110	0.459
1169.500	659.923	80.000	19.998	100.651	20.012	4.274	0.452
1170.000	660.169	80.001	19.998	100.651	20.011	4.287	0.517
1170.500	660.431	80.001	19.996	100.651	20.010	4.374	0.527
1171.000	660.682	80.000	19.996	100.651	20.011	4.277	0.511
1171.501	660.932	80.000	19.995	100.649	20.015	4.045	0.507
1172.001	661.158	80.000	19.996	100.649	20.015	4.037	0.488
1172.500	661.411	80.000	19.996	100.649	20.011	4.342	0.477
1173.000	661.681	80.000	19.994	100.649	20.017	3.915	0.501
1173.500	661.932	79.999	19.994	100.649	20.011	4.281	0.522
1174.000	662.173	80.000	19.995	100.649	20.014	4.134	0.506
1174.500	662.431	80.000	19.996	100.649	20.009	4.480	0.496
1175.000	662.689	80.001	19.996	100.652	20.013	4.190	0.508
1175.500	662.922	80.001	19.995	100.653	20.014	4.084	0.504
1176.000	663.220	80.000	19.994	100.651	20.015	4.058	0.511
1176.500	663.510	79.999	19.995	100.652	20.013	4.186	0.560
1177.000	663.648	80.001	19.994	100.651	20.011	4.324	0.508
1177.500	664.028	80.000	19.995	100.648	20.010	4.379	0.473
1178.000	664.170	79.999	19.994	100.650	20.014	4.104	0.520
1178.500	664.480	79.999	19.994	100.652	20.014	4.089	0.486
1179.001	664.738	80.002	19.995	100.653	20.011	4.283	0.510
1179.501	664.979	79.999	19.995	100.653	20.014	4.099	0.534
1180.000	665.232	80.000	19.994	100.656	20.013	4.190	0.497
1180.500	665.464	80.001	19.996	100.654	20.012	4.208	0.490
1181.000	665.711	80.001	19.995	100.652	20.013	4.195	0.482
1181.500	665.953	79.999	19.995	100.649	20.011	4.324	0.484
1182.001	666.259	80.001	19.995	100.648	20.009	4.458	0.518
1182.502	666.498	80.000	19.996	100.648	20.011	4.285	0.546
1183.001	666.752	80.000	19.996	100.648	20.011	4.302	0.519
1183.500	667.003	80.000	19.997	100.651	20.012	4.212	0.499
1184.000	667.242	80.000	19.995	100.653	20.013	4.140	0.497
1184.500	667.513	80.002	19.995	100.653	20.014	4.073	0.500
1185.000	667.834	80.000	19.995	100.652	20.013	4.149	0.551
1185.500	668.043	80.001	19.997	100.652	20.014	4.134	0.561
1186.000	668.303	80.000	19.996	100.651	20.013	4.160	0.500
1186.500	668.574	80.002	19.996	100.650	20.018	3.840	0.500
1187.000	668.842	80.001	19.996	100.650	20.018	3.857	0.535
1187.500	669.057	80.001	19.995	100.649	20.016	3.950	0.511
1188.000	669.303	80.000	19.995	100.649	20.016	3.937	0.473
1188.500	669.585	79.999	19.994	100.648	20.014	4.112	0.494
1189.000	669.811	79.999	19.996	100.647	20.017	3.868	0.517
1189.500	670.081	79.999	19.996	100.649	20.015	4.006	0.502
1190.000	670.296	80.000	19.996	100.649	20.019	3.749	0.491
1190.500	670.582	80.000	19.996	100.648	20.017	3.879	0.492
1191.000	670.803	79.999	19.997	100.647	20.015	4.015	0.504
1191.500	671.082	79.999	19.995	100.648	20.016	3.967	0.504
1192.000	671.357	79.999	19.996	100.647	20.018	3.814	0.528
1192.500	671.612	80.000	19.998	100.653	20.017	3.930	0.542
1193.000	671.850	80.000	19.996	100.655	20.017	3.878	0.511
1193.500	672.104	79.999	19.996	100.654	20.015	4.062	0.492
1194.000	672.350	80.000	19.996	100.655	20.015	4.011	0.496
1194.500	672.600	79.999	19.997	100.657	20.014	4.128	0.498
1195.000	672.859	79.999	19.995	100.651	20.015	4.062	0.503
1195.500	673.091	79.999	19.996	100.649	20.017	3.904	0.500
1196.000	673.330	79.999	19.996	100.649	20.013	4.190	0.481
1196.500	673.600	79.999	19.996	100.647	20.014	4.082	0.490
1197.001	673.894	80.000	19.996	100.645	20.014	4.082	0.536
1197.501	674.138	80.000	19.996	100.645	20.018	3.805	0.551
1198.000	674.379	80.000	19.996	100.645	20.013	4.180	0.512
1198.500	674.655	79.999	19.996	100.650	20.017	3.887	0.501
1199.000	674.883	80.000	19.995	100.654	20.013	4.145	0.511
1199.501	675.188	79.999	19.995	100.655	20.016	3.933	0.518
1200.001	675.429	80.000	19.996	100.655	20.022	3.565	0.539
1200.500	675.708	80.000	19.995	100.656	20.018	3.861	0.533
1201.000	675.999	79.999	19.995	100.652	20.018	3.859	0.545
1201.500	676.216	79.999	19.995	100.649	20.018	3.829	0.539
1202.000	676.464	79.998	19.996	100.650	20.015	4.011	0.486
1202.500	676.759	80.001	19.996	100.651	20.014	4.073	0.504
1203.000	676.947	79.999	19.996	100.650	20.013	4.192	0.513
1203.500	677.250	80.001	19.995	100.651	20.019	3.762	0.487
1204.000	677.515	80.000	19.995	100.650	20.016	3.967	0.529
1204.500	677.742	80.000	19.995	100.649	20.018	3.807	0.530
1205.000	678.043	79.999	19.994	100.647	20.018	3.853	0.510
1205.500	678.201	80.001	19.995	100.647	20.011	4.311	0.494
1206.000	678.476	79.999	19.995	100.649	20.016	3.985	0.446
1206.500	678.728	79.999	19.997	100.649	20.016	3.939	0.480
1207.000	678.982	80.002	19.997	100.648	20.015	4.054	0.517
1207.500	679.272	80.001	19.995	100.646	20.014	4.115	0.525
1208.000	679.530	80.000	19.996	100.647	20.016	3.967	0.546
1208.500	679.788	80.000	19.995	100.645	20.015	4.052	0.532
1209.000	680.042	80.001	19.995	100.643	20.015	4.069	0.514
1209.500	680.288	80.001	19.995	100.643	20.013	4.158	0.506
1210.000	680.539	80.000	19.995	100.647	20.015	4.019	0.498
1210.500	680.834	80.001	19.995	100.647	20.014	4.099	0.521
1211.000	681.069	80.002	19.994	100.649	20.013	4.199	0.538
1211.500	681.295	80.002	19.996	100.651	20.015	4.043	0.495
1212.000	681.573	80.001	19.994	100.651	20.013	4.164	0.483
1212.500	681.819	80.002	19.996	100.651	20.014	4.071	0.515
1213.001	682.067	80.001	19.995	100.650	20.016	3.972	0.509
1213.501	682.356	80.002	19.994	100.648	20.021	3.654	0.515
1214.001	682.598	80.001	19.996	100.648	20.016	3.995	0.534
1214.501	682.873	80.001	19.995	100.648	20.015	4.039	0.524
1215.000	683.126	79.999	19.994	100.648	20.014	4.102	0.523
1215.500	683.382	80.001	19.995	100.648	20.015	4.052	0.519
1216.000	683.633	80.000	19.994	100.648	20.020	3.712	0.508
1216.500	683.880	80.000	19.995	100.648	20.015	4.056	0.503
1217.000	684.126	79.999	19.994	100.648	20.014	4.106	0.496
1217.500	684.352	80.001	19.994	100.647	20.016	3.963	0.482
1218.001	684.642	80.001	19.995	100.647	20.017	3.922	0.494
1218.501	684.888	80.001	19.996	100.647	20.010	4.355	0.526
1219.001	685.171	80.000	19.995	100.647	20.019	3.786	0.532
1219.500	685.427	80.000	19.994	100.647	20.016	3.959	0.534
1220.000	685.682	80.001	19.995	100.648	20.014	4.076	0.526
1220.500	685.879	80.002	19.994	100.648	20.018	3.847	0.482
1221.000	686.144	79.999	19.994	100.646	20.015	4.044	0.457
1221.501	686.397	80.001	19.994	100.645	20.014	4.091	0.490
1222.001	686.671	80.000	19.994	100.645	20.016	3.954	0.523
1222.500	686.910	80.001	19.996	100.645	20.014	4.138	0.521
1223.000	687.161	80.000	19.994	100.646	20.015	4.046	0.502
1223.500	687.409	80.000	19.995	100.647	20.020	3.703	0.494
1224.000	687.655	80.000	19.995	100.648	20.015	4.009	0.496
1224.500	687.908	80.001	19.994	100.648	20.014	4.091	0.496
1225.000	688.192	80.001	19.995	100.648	20.017	3.868	0.518
1225.500	688.421	79.999	19.995	100.648	20.014	4.072	0.525
1226.000	688.702	80.000	19.995	100.648	20.014	4.106	0.511
1226.500	688.926	80.000	19.994	100.649	20.016	3.933	0.508
1227.000	689.244	80.001	19.994	100.649	20.016	3.981	0.524
1227.500	689.503	79.999	19.994	100.650	20.015	4.017	0.560
1228.000	689.704	79.999	19.996	100.650	20.015	4.015	0.519
1228.500	689.971	80.001	19.995	100.650	20.017	3.924	0.464
1229.000	690.202	80.000	19.995	100.649	20.016	3.946	0.482
1229.500	690.469	80.000	19.995	100.649	20.010	4.413	0.498
1230.000	690.707	80.001	19.996	100.644	20.009	4.446	0.502
1230.500	690.972	80.002	19.995	100.641	20.008	4.521	0.504
1231.000	691.210	80.000	19.995	100.639	20.007	4.614	0.503
1231.500	691.487	80.002	19.995	100.639	20.008	4.535	0.509
1232.000	691.723	80.003	19.995	100.637	20.012	4.229	0.514
1232.500	691.968	80.000	19.993	100.641	20.012	4.262	0.497
1233.000	692.235	80.002	19.994	100.643	20.013	4.148	0.496
1233.500	692.503	80.001	19.995	100.643	20.010	4.353	0.523
1234.000	692.729	80.001	19.995	100.643	20.013	4.148	0.515
1234.500	692.993	80.002	19.995	100.645	20.010	4.385	0.493
1235.000	693.232	80.001	19.994	100.644	20.011	4.309	0.497
1235.500	693.516	80.003	19.994	100.643	20.012	4.259	0.512
1236.000	693.774	80.004	19.995	100.643	20.009	4.446	0.532
1236.500	693.965	80.002	19.995	100.642	20.011	4.327	0.495
1237.000	694.245	80.003	19.995	100.642	20.011	4.320	0.460
1237.500	694.485	80.004	19.995	100.643	20.011	4.295	0.496
1238.000	694.772	80.005	19.993	100.644	20.013	4.150	0.524
1238.500	695.009	80.004	19.995	100.644	20.014	4.128	0.526
1239.000	695.282	80.002	19.994	100.644	20.015	4.020	0.517
1239.500	695.541	80.001	19.995	100.644	20.013	4.150	0.521
1240.000	695.809	80.002	19.994	100.644	20.012	4.234	0.530
1240.500	696.022	80.003	19.994	100.644	20.012	4.242	0.504
1241.000	696.306	80.002	19.995	100.644	20.018	3.799	0.488
1241.500	696.572	80.003	19.993	100.650	20.014	4.126	0.524
1242.000	696.843	80.002	19.994	100.658	20.016	3.963	0.544
1242.500	697.100	80.002	19.994	100.671	20.016	3.989	0.533
1243.000	697.315	80.004	19.995	100.694	20.016	3.983	0.499
1243.500	697.562	80.000	19.994	100.736	20.016	3.999	0.467
1244.000	697.796	80.003	19.995	100.767	20.014	4.111	0.472
1244.500	698.074	80.001	19.994	100.771	20.018	3.823	0.497
1245.000	698.308	80.002	19.995	100.760	20.012	4.248	0.512
1245.500	698.551	80.001	19.995	100.736	20.009	4.442	0.494
1246.000	698.794	80.000	19.995	100.693	20.011	4.319	0.482
1246.500	699.099	80.003	19.995	100.655	20.014	4.126	0.517
1247.000	699.298	79.999	19.996	100.641	20.014	4.097	0.526
1247.500	699.611	79.999	19.996	100.639	20.013	4.194	0.508
1248.000	699.830	80.000	19.995	100.640	20.013	4.143	0.522
1248.500	700.106	79.999	19.995	100.639	20.013	4.205	0.513
1249.001	700.373	80.000	19.996	100.640	20.015	4.019	0.518
1249.501	700.624	80.000	19.996	100.641	20.012	4.271	0.530
1250.000	700.848	80.000	19.996	100.641	20.010	4.385	0.497
1250.500	701.083	80.000	19.996	100.641	20.012	4.234	0.467
1251.000	701.348	79.999	19.996	100.641	20.014	4.106	0.479
1251.500	701.586	79.998	19.995	100.642	20.011	4.284	0.501
1252.000	701.878	80.000	19.996	100.643	20.016	3.970	0.516
1252.500	702.131	79.998	19.996	100.639	20.013	4.206	0.537
1253.000	702.405	80.002	19.997	100.637	20.013	4.199	0.536
1253.500	702.611	80.000	19.996	100.635	20.014	4.070	0.504
1254.000	702.909	79.998	19.996	100.632	20.013	4.163	0.492
1254.500	703.127	80.000	19.996	100.627	20.011	4.305	0.510
1255.000	703.428	79.999	19.998	100.627	20.014	4.102	0.518
1255.500	703.600	80.001	19.997	100.628	20.014	4.091	0.496
1256.000	703.880	80.001	19.996	100.628	20.014	4.115	0.462
1256.500	704.102	79.998	19.996	100.632	20.010	4.372	0.477
1257.000	704.328	80.001	19.996	100.636	20.007	4.563	0.475
1257.500	704.591	79.999	19.996	100.643	20.011	4.318	0.469
1258.000	704.820	80.001	19.996	100.646	20.012	4.251	0.491
1258.500	705.064	80.001	19.997	100.649	20.009	4.459	0.483
1259.000	705.322	80.000	19.996	100.649	20.010	4.377	0.487
1259.500	705.578	80.001	19.996	100.649	20.016	3.942	0.508
1260.000	705.791	80.000	19.994	100.648	20.014	4.137	0.492
1260.500	706.059	80.000	19.995	100.646	20.013	4.139	0.475
1261.000	706.285	80.001	19.996	100.646	20.014	4.072	0.487
1261.500	706.538	79.999	19.996	100.645	20.012	4.218	0.487
1262.000	706.813	80.001	19.995	100.645	20.014	4.135	0.504
1262.500	707.029	80.000	19.995	100.644	20.012	4.239	0.510
1263.000	707.289	79.999	19.996	100.643	20.009	4.460	0.484
1263.500	707.535	80.000	19.996	100.641	20.013	4.142	0.491
1264.000	707.769	80.000	19.995	100.638	20.008	4.494	0.493
1264.500	708.025	80.000	19.995	100.636	20.012	4.264	0.485
1265.001	708.293	80.000	19.995	100.636	20.012	4.242	0.506
1265.501	708.526	80.000	19.995	100.636	20.011	4.305	0.512
1266.000	708.797	79.999	19.997	100.639	20.012	4.231	0.503
1266.500	709.051	80.000	19.995	100.643	20.010	4.357	0.515
1267.000	709.272	80.000	19.994	100.646	20.010	4.386	0.500
1267.501	709.507	80.002	19.995	100.646	20.014	4.092	0.466
1268.001	709.742	80.000	19.996	100.647	20.013	4.172	0.464
1268.500	709.989	79.999	19.994	100.646	20.011	4.289	0.476
1269.000	710.250	80.000	19.996	100.646	20.016	3.986	0.495
1269.500	710.484	79.999	19.996	100.646	20.014	4.086	0.502
1270.000	710.707	80.000	19.995	100.644	20.010	4.397	0.476
1270.501	710.959	80.000	19.995	100.641	20.010	4.377	0.466
1271.001	711.184	80.000	19.994	100.638	20.009	4.421	0.476
1271.500	711.421	79.999	19.995	100.637	20.010	4.345	0.469
1272.000	711.685	80.001	19.995	100.628	20.014	4.128	0.481
1272.500	711.930	80.000	19.995	100.608	20.010	4.360	0.505
1273.000	712.192	80.000	19.995	100.591	20.008	4.522	0.508
1273.500	712.424	80.000	19.997	100.579	20.013	4.189	0.500
1274.000	712.649	79.999	19.996	100.572	20.010	4.371	0.475
1274.500	712.871	79.999	19.995	100.574	20.012	4.230	0.452
1275.000	713.141	79.998	19.995	100.587	20.012	4.241	0.470
1275.501	713.372	79.999	19.996	100.601	20.013	4.186	0.496
1276.001	713.581	79.998	19.995	100.608	20.010	4.407	0.471
1276.500	713.813	79.997	19.996	100.609	20.013	4.154	0.441
1277.000	714.051	79.998	19.996	100.611	20.012	4.221	0.455
1277.500	714.342	79.998	19.997	100.613	20.015	4.045	0.500
1278.000	714.563	79.996	19.994	100.618	20.012	4.266	0.520
1278.500	714.812	79.998	19.995	100.622	20.015	4.021	0.491
1279.000	715.045	79.998	19.996	100.621	20.010	4.355	0.476
1279.500	715.278	79.998	19.995	100.620	20.010	4.374	0.474
1280.000	715.495	79.998	19.996	100.620	20.011	4.307	0.458
1280.500	715.769	79.999	19.998	100.619	20.008	4.519	0.471
1281.000	715.983	79.998	19.997	100.621	20.011	4.321	0.489
1281.500	716.276	79.998	19.995	100.628	20.012	4.216	0.498
1282.000	716.504	79.995	19.995	100.632	20.013	4.199	0.514
1282.500	716.770	79.999	19.996	100.631	20.014	4.110	0.507
1283.000	716.982	79.998	19.996	100.630	20.016	3.965	0.486
1283.501	717.215	79.997	19.997	100.629	20.014	4.070	0.462
1284.001	717.451	79.999	19.995	100.628	20.016	3.978	0.457
1284.500	717.691	79.997	19.996	100.630	20.014	4.078	0.473
1285.000	717.927	79.999	19.996	100.636	20.013	4.152	0.476
1285.500	718.130	79.998	19.997	100.636	20.012	4.271	0.457
1286.000	718.425	79.996	19.996	100.640	20.014	4.100	0.469
1286.500	718.683	79.999	19.996	100.642	20.015	4.056	0.526
1287.000	718.884	79.998	19.995	100.643	20.017	3.907	0.506
1287.500	719.139	80.000	19.997	100.644	20.014	4.135	0.458
1288.000	719.423	79.999	19.997	100.649	20.018	3.847	0.497
1288.500	719.620	80.001	19.997	100.648	20.015	4.023	0.510
1289.000	719.874	80.000	19.996	100.648	20.015	4.023	0.466
1289.501	720.113	79.999	19.996	100.649	20.018	3.825	0.472
1290.001	720.368	80.000	19.996	100.648	20.018	3.834	0.494
1290.500	720.581	80.004	19.996	100.647	20.016	3.937	0.481
1291.000	720.839	80.002	19.995	100.645	20.019	3.755	0.470
1291.500	721.062	80.002	19.996	100.642	20.017	3.922	0.476
1292.000	721.312	80.002	19.995	100.641	20.015	4.007	0.477
1292.500	721.577	80.001	19.995	100.641	20.014	4.134	0.493
1293.000	721.773	80.003	19.994	100.642	20.012	4.229	0.488
1293.500	722.076	80.002	19.995	100.641	20.019	3.777	0.480
1294.000	722.282	80.003	19.994	100.642	20.014	4.099	0.504
1294.500	722.529	80.001	19.994	100.640	20.013	4.188	0.481
1295.000	722.786	80.002	19.995	100.639	20.014	4.138	0.478
1295.500	722.993	80.002	19.994	100.638	20.012	4.218	0.484
1296.000	723.265	80.003	19.995	100.638	20.020	3.710	0.471
1296.500	723.513	80.002	19.994	100.639	20.013	4.152	0.499
1297.000	723.805	80.000	19.995	100.641	20.014	4.100	0.530
1297.501	724.031	80.002	19.995	100.640	20.015	4.006	0.529
1298.001	724.255	80.001	19.995	100.640	20.015	4.041	0.484
1298.500	724.468	80.001	19.995	100.637	20.018	3.855	0.444
1299.000	724.719	80.003	19.995	100.632	20.016	3.950	0.451
1299.500	724.986	80.001	19.995	100.627	20.014	4.119	0.491
1300.000	725.262	80.002	19.994	100.625	20.017	3.915	0.530
1300.500	725.479	80.001	19.995	100.627	20.014	4.102	0.518
1301.000	725.729	80.003	19.996	100.632	20.017	3.870	0.480
1301.500	725.952	80.000	19.995	100.637	20.015	4.004	0.470
1302.000	726.225	80.002	19.996	100.642	20.013	4.143	0.484
1302.500	726.462	80.001	19.995	100.645	20.012	4.215	0.503
1303.000	726.715	80.000	19.995	100.645	20.014	4.115	0.500
1303.500	727.006	80.000	19.995	100.645	20.013	4.143	0.517
1304.000	727.220	80.001	19.994	100.646	20.016	3.992	0.525
1304.500	727.484	80.001	19.995	100.646	20.014	4.132	0.492
1305.000	727.720	80.002	19.994	100.646	20.015	4.028	0.489
1305.500	727.969	80.000	19.995	100.647	20.015	4.020	0.492
1306.000	728.209	80.001	19.995	100.646	20.013	4.149	0.487
1306.500	728.449	80.002	19.995	100.645	20.019	3.770	0.485
1307.000	728.689	80.000	19.994	100.645	20.017	3.896	0.480
1307.500	728.949	80.001	19.994	100.645	20.016	3.965	0.490
1308.000	729.210	80.005	19.996	100.644	20.020	3.675	0.511
1308.500	729.424	80.000	19.994	100.645	20.015	4.045	0.498
1309.000	729.659	80.003	19.994	100.645	20.017	3.902	0.461
1309.500	729.946	80.002	19.994	100.645	20.014	4.108	0.486
1310.000	730.185	80.002	19.996	100.645	20.016	3.973	0.525
1310.500	730.446	80.000	19.994	100.645	20.011	4.335	0.513
1311.000	730.680	80.003	19.996	100.645	20.011	4.341	0.497
1311.500	730.935	80.001	19.994	100.643	20.013	4.175	0.491
1312.000	731.161	80.002	19.994	100.642	20.015	4.058	0.485
1312.500	731.423	80.002	19.996	100.639	20.012	4.227	0.485
1313.000	731.698	80.001	19.995	100.638	20.013	4.205	0.513
1313.500	731.949	80.003	19.995	100.638	20.015	4.043	0.531
1314.000	732.197	80.003	19.995	100.639	20.011	4.320	0.512
1314.500	732.433	80.002	19.994	100.637	20.016	3.967	0.491
1315.000	732.671	80.003	19.995	100.639	20.016	3.950	0.479
1315.500	732.911	80.002	19.995	100.642	20.013	4.203	0.476
1316.000	733.181	80.004	19.994	100.642	20.013	4.160	0.494
1316.500	733.420	80.001	19.994	100.644	20.013	4.145	0.510
1317.000	733.659	80.005	19.994	100.647	20.017	3.870	0.493
1317.500	733.930	80.004	19.994	100.648	20.016	3.950	0.494
1318.000	734.192	80.002	19.994	100.648	20.010	4.385	0.522
1318.500	734.410	80.004	19.995	100.648	20.017	3.865	0.507
1319.000	734.690	80.003	19.995	100.648	20.018	3.848	0.488
1319.501	734.920	80.002	19.996	100.653	20.018	3.839	0.504
1320.001	735.181	80.001	19.995	100.653	20.017	3.891	0.501
1320.500	735.473	80.003	19.994	100.652	20.016	3.991	0.522
1321.000	735.691	80.004	19.995	100.656	20.017	3.920	0.531
1321.500	735.981	80.006	19.994	100.658	20.017	3.898	0.509
1322.000	736.227	80.003	19.995	100.653	20.016	3.933	0.522
1322.500	736.486	80.003	19.994	100.655	20.017	3.924	0.521
1323.000	736.704	80.002	19.995	100.655	20.018	3.825	0.492
1323.500	737.022	80.002	19.995	100.652	20.014	4.097	0.507
1324.000	737.285	80.003	19.995	100.651	20.015	4.011	0.558
1324.500	737.548	80.002	19.993	100.652	20.016	3.952	0.553
1325.000	737.754	80.002	19.994	100.650	20.013	4.145	0.498
1325.500	738.040	80.002	19.993	100.649	20.016	3.995	0.481
1326.000	738.292	80.003	19.995	100.647	20.017	3.894	0.515
1326.501	738.571	80.001	19.994	100.648	20.012	4.225	0.534
1327.001	738.847	80.001	19.994	100.648	20.012	4.260	0.543
1327.500	739.135	80.002	19.996	100.652	20.014	4.123	0.560
1328.000	739.361	80.001	19.995	100.653	20.014	4.104	0.539
1328.500	739.660	79.999	19.994	100.652	20.012	4.275	0.519
1329.000	739.920	80.001	19.995	100.651	20.012	4.231	0.542
1329.500	740.208	80.001	19.995	100.652	20.011	4.324	0.553
1330.000	740.463	79.999	19.995	100.651	20.015	4.045	0.545
1330.500	740.729	80.002	19.995	100.651	20.013	4.175	0.532
1331.000	741.035	80.000	19.995	100.652	20.014	4.088	0.547
1331.500	741.281	80.000	19.994	100.652	20.015	4.031	0.563
1332.000	741.565	80.000	19.994	100.650	20.015	4.022	0.541
1332.500	741.832	80.000	19.994	100.648	20.018	3.849	0.540
1333.000	742.062	80.000	19.993	100.648	20.017	3.906	0.524
1333.501	742.338	80.002	19.995	100.648	20.017	3.871	0.502
1334.001	742.619	79.999	19.994	100.648	20.017	3.895	0.532
1334.500	742.900	80.000	19.995	100.649	20.014	4.105	0.559
1335.001	743.152	80.001	19.994	100.650	20.018	3.808	0.547
