Sample ID:	C:\MCC\MCC Cal\Test\Carpet_Polyolefin_LowPile_211008_R2.txt
Sample Weight (mg):	4.5
Heating Rate (C/s):	0.5
Combustor Temp (C):	900
N2 Flow Rate (cc/min):	80
O2 Flow Rate (cc/min):	20
Calibration File:	C:\MCC\MCC Cal\Coeff1 JN10440_30_210304.txt.txt
T Correction Coefficients:	0	1.024463	0
Time Shift (s):	14
*
Time (s)	Temperature (C)	N2 flow rate (cc/min)	O2 flow rate (cc/min)	Flow Rate (cc/min)	Oxygen (%)	HRR (W/g)	Heating rate (C/s)
0.000	107.561	80.015	20.004	100.829	20.181	0.036	-0.021
0.500	107.570	80.015	20.003	100.830	20.182	-0.057	-0.041
1.000	107.593	80.014	20.002	100.828	20.184	-0.198	-0.005
1.500	107.597	80.015	20.002	100.827	20.181	0.061	0.029
2.000	107.608	80.017	20.000	100.824	20.181	0.040	0.021
2.500	107.630	80.007	19.998	100.816	20.181	0.025	0.024
3.000	107.604	79.998	19.998	100.812	20.180	0.082	0.014
3.500	107.601	79.996	19.998	100.810	20.180	0.097	-0.016
4.000	107.603	79.995	19.997	100.807	20.180	0.087	-0.015
4.500	107.634	79.996	19.998	100.807	20.182	0.000	0.016
5.000	107.591	79.996	19.997	100.812	20.180	0.112	0.010
5.500	107.614	79.997	19.997	100.814	20.182	-0.048	-0.016
6.000	107.602	79.995	19.998	100.814	20.177	0.327	-0.004
6.500	107.636	79.997	19.998	100.811	20.183	-0.074	0.016
7.000	107.636	79.995	19.996	100.808	20.179	0.167	0.028
7.500	107.631	79.995	19.997	100.804	20.182	-0.061	0.015
8.000	107.619	79.997	19.996	100.803	20.179	0.156	-0.011
8.500	107.593	79.997	19.995	100.802	20.178	0.249	-0.028
9.000	107.641	79.997	19.997	100.801	20.179	0.194	-0.009
9.499	107.618	79.996	19.998	100.807	20.181	0.010	0.023
9.999	107.569	79.997	19.996	100.812	20.183	-0.126	-0.023
10.499	107.604	79.995	19.996	100.816	20.182	-0.023	-0.043
10.999	107.572	79.996	19.996	100.819	20.178	0.270	-0.005
11.499	107.588	79.995	19.996	100.823	20.178	0.263	-0.007
12.000	107.589	79.995	19.996	100.823	20.176	0.417	-0.000
12.500	107.607	79.994	19.997	100.823	20.174	0.550	0.018
12.999	107.612	79.995	19.997	100.823	20.171	0.754	0.022
13.499	107.578	79.994	19.997	100.825	20.175	0.434	-0.003
13.999	107.602	79.994	19.997	100.829	20.174	0.552	-0.020
14.499	107.618	79.994	19.997	100.830	20.175	0.438	0.015
14.999	107.633	79.995	19.997	100.832	20.174	0.558	0.035
15.499	107.625	79.995	19.997	100.832	20.173	0.588	0.019
15.999	107.615	79.995	19.996	100.833	20.169	0.860	-0.006
16.499	107.626	79.994	19.997	100.833	20.172	0.659	-0.009
16.999	107.594	79.994	19.996	100.833	20.173	0.615	-0.010
17.499	107.583	79.993	19.996	100.832	20.172	0.691	-0.031
17.999	107.594	79.995	19.996	100.832	20.168	0.918	-0.021
18.499	107.625	79.995	19.997	100.835	20.169	0.916	0.021
18.999	107.636	79.994	19.995	100.843	20.167	1.024	0.042
19.499	107.666	79.994	19.997	100.859	20.171	0.760	0.042
19.999	107.631	79.995	19.997	100.877	20.168	0.958	0.017
20.499	107.625	79.995	19.998	100.899	20.165	1.129	-0.023
20.999	107.671	79.994	19.998	100.911	20.160	1.529	0.000
21.499	107.697	79.995	19.996	100.919	20.162	1.370	0.056
21.999	107.670	79.996	19.998	100.920	20.161	1.426	0.035
22.500	107.655	79.996	19.997	100.921	20.164	1.262	-0.021
23.000	107.736	79.996	19.997	100.921	20.162	1.355	0.012
23.499	107.767	79.996	19.996	100.928	20.162	1.348	0.089
23.999	107.780	79.995	19.996	100.935	20.161	1.470	0.078
24.499	107.738	79.996	19.996	100.941	20.162	1.371	0.007
24.999	107.778	79.996	19.995	100.946	20.159	1.584	-0.015
25.499	107.802	79.996	19.997	100.947	20.156	1.784	0.031
25.999	107.792	79.996	19.996	100.948	20.158	1.641	0.038
26.499	107.819	79.997	19.996	100.948	20.160	1.540	0.015
26.999	107.840	79.995	19.997	100.951	20.160	1.538	0.033
27.499	107.896	79.998	19.996	100.956	20.155	1.851	0.062
27.999	107.916	79.996	19.995	100.963	20.151	2.115	0.076
28.499	107.930	79.998	19.996	100.970	20.154	1.927	0.055
28.999	107.990	79.999	19.996	100.975	20.155	1.853	0.054
29.499	108.024	79.996	19.996	100.979	20.153	1.992	0.084
29.999	108.096	79.997	19.996	100.978	20.153	1.971	0.100
30.499	108.119	79.998	19.996	100.978	20.152	2.040	0.100
31.000	108.183	79.997	19.996	100.976	20.154	1.908	0.091
31.500	108.213	79.998	19.997	100.973	20.151	2.110	0.091
31.999	108.241	79.998	19.996	100.967	20.152	2.078	0.076
32.499	108.268	79.997	19.998	100.962	20.149	2.251	0.056
32.999	108.355	79.997	19.996	100.955	20.149	2.251	0.085
33.499	108.343	79.996	19.997	100.951	20.151	2.129	0.095
33.999	108.471	79.996	19.996	100.954	20.147	2.407	0.095
34.499	108.480	79.997	19.997	100.961	20.146	2.521	0.126
34.999	108.546	79.997	19.995	100.969	20.146	2.495	0.106
35.499	108.570	79.996	19.997	100.976	20.150	2.205	0.083
35.999	108.604	79.995	19.996	100.985	20.148	2.327	0.075
36.499	108.722	79.994	19.996	100.987	20.147	2.396	0.105
36.999	108.803	79.995	19.995	100.987	20.147	2.409	0.175
37.499	108.836	79.993	19.996	100.987	20.147	2.434	0.156
37.999	108.906	79.994	19.998	100.989	20.146	2.483	0.109
38.499	108.962	79.994	19.996	100.993	20.146	2.487	0.115
38.999	109.027	79.993	19.998	100.993	20.148	2.345	0.123
39.499	109.116	79.993	19.997	100.994	20.146	2.499	0.138
39.999	109.176	79.994	19.997	100.998	20.144	2.640	0.152
40.499	109.246	79.993	19.997	101.004	20.141	2.863	0.139
40.999	109.327	79.993	19.997	101.005	20.142	2.762	0.140
41.499	109.408	79.993	19.998	101.010	20.143	2.725	0.157
41.999	109.472	79.993	19.998	101.015	20.139	3.017	0.153
42.500	109.566	79.995	19.997	101.013	20.140	2.899	0.151
43.000	109.659	79.993	19.998	101.009	20.139	3.013	0.173
43.499	109.717	79.993	19.997	101.004	20.140	2.945	0.169
43.999	109.754	79.994	19.998	101.002	20.138	3.087	0.123
44.499	109.897	79.993	19.998	101.001	20.138	3.021	0.138
44.999	109.974	79.994	19.998	101.005	20.139	3.008	0.201
45.500	110.065	79.994	19.998	101.009	20.140	2.886	0.194
46.000	110.174	79.993	19.998	101.014	20.140	2.882	0.184
46.499	110.203	79.994	19.997	101.019	20.142	2.760	0.169
46.999	110.306	79.994	19.997	101.017	20.138	3.057	0.135
47.499	110.376	79.993	19.997	101.014	20.137	3.120	0.153
47.999	110.444	79.994	19.998	101.014	20.138	3.085	0.156
48.499	110.515	79.993	19.997	101.015	20.133	3.373	0.138
48.999	110.643	79.995	19.997	101.016	20.135	3.240	0.169
49.499	110.757	79.993	19.997	101.019	20.135	3.299	0.221
49.999	110.865	79.995	19.997	101.023	20.135	3.270	0.232
50.499	110.961	79.993	19.997	101.023	20.134	3.312	0.213
50.999	111.063	79.995	19.997	101.024	20.134	3.343	0.201
51.499	111.147	79.994	19.997	101.023	20.134	3.306	0.192
51.999	111.273	79.995	19.996	101.024	20.135	3.238	0.198
52.499	111.358	79.994	19.996	101.024	20.137	3.114	0.210
52.999	111.446	79.995	19.997	101.025	20.134	3.341	0.192
53.499	111.607	79.995	19.996	101.026	20.134	3.339	0.211
53.999	111.666	79.994	19.996	101.029	20.130	3.606	0.234
54.500	111.763	79.996	19.996	101.029	20.131	3.566	0.188
55.001	111.905	79.994	19.996	101.030	20.133	3.373	0.197
55.500	112.036	79.995	19.995	101.034	20.135	3.286	0.256
55.999	112.085	79.994	19.997	101.033	20.131	3.554	0.226
56.499	112.222	79.995	19.995	101.031	20.131	3.541	0.183
56.999	112.295	79.996	19.995	101.030	20.135	3.271	0.198
57.499	112.449	79.996	19.995	101.030	20.132	3.497	0.219
57.999	112.532	79.996	19.997	101.026	20.133	3.389	0.232
58.500	112.674	79.997	19.995	101.026	20.133	3.393	0.231
59.000	112.806	79.996	19.996	101.026	20.134	3.355	0.250
59.499	112.911	79.996	19.995	101.026	20.132	3.466	0.255
59.999	113.051	79.995	19.995	101.027	20.132	3.443	0.241
60.499	113.171	79.995	19.996	101.027	20.129	3.696	0.252
60.999	113.285	79.995	19.995	101.027	20.132	3.456	0.247
61.499	113.432	79.996	19.996	101.027	20.132	3.502	0.248
61.999	113.545	79.996	19.996	101.028	20.130	3.620	0.261
62.499	113.654	79.994	19.996	101.028	20.130	3.593	0.241
62.999	113.802	79.996	19.995	101.028	20.130	3.586	0.239
63.499	113.921	79.995	19.996	101.028	20.131	3.515	0.262
63.999	114.049	79.995	19.995	101.027	20.128	3.767	0.257
64.499	114.185	79.995	19.996	101.028	20.129	3.662	0.255
64.999	114.294	79.995	19.997	101.028	20.132	3.504	0.254
65.499	114.464	79.995	19.996	101.028	20.130	3.603	0.262
65.999	114.636	79.994	19.996	101.029	20.130	3.639	0.311
66.499	114.750	79.994	19.995	101.033	20.130	3.641	0.314
66.999	114.892	79.994	19.996	101.034	20.131	3.574	0.271
67.499	114.991	79.995	19.996	101.037	20.127	3.818	0.248
67.999	115.140	79.995	19.995	101.041	20.131	3.580	0.245
68.499	115.290	79.993	19.995	101.042	20.129	3.666	0.274
68.999	115.434	79.994	19.995	101.042	20.130	3.597	0.297
69.499	115.565	79.994	19.996	101.048	20.129	3.666	0.284
69.999	115.704	79.994	19.996	101.052	20.129	3.672	0.273
70.499	115.851	79.994	19.995	101.056	20.130	3.588	0.278
70.999	115.992	79.995	19.996	101.062	20.128	3.759	0.287
71.499	116.108	79.995	19.996	101.065	20.126	3.868	0.272
71.999	116.310	79.995	19.996	101.064	20.127	3.807	0.287
72.499	116.424	79.994	19.995	101.065	20.126	3.868	0.317
72.999	116.566	79.995	19.997	101.063	20.124	4.015	0.286
73.499	116.742	79.996	19.995	101.061	20.126	3.929	0.287
73.999	116.884	79.995	19.997	101.064	20.124	4.009	0.318
74.499	117.052	79.995	19.997	101.063	20.126	3.910	0.314
74.999	117.187	79.995	19.996	101.063	20.124	4.007	0.307
75.500	117.345	79.994	19.996	101.064	20.121	4.217	0.298
76.000	117.477	79.994	19.995	101.066	20.125	3.952	0.291
76.499	117.690	79.994	19.995	101.064	20.125	3.967	0.318
76.999	117.792	79.994	19.996	101.066	20.121	4.219	0.330
77.499	117.971	79.996	19.996	101.066	20.123	4.085	0.298
77.999	118.102	79.995	19.995	101.066	20.122	4.144	0.295
78.500	118.277	79.994	19.994	101.065	20.121	4.222	0.308
79.001	118.448	79.996	19.996	101.068	20.124	4.036	0.327
79.500	118.610	79.995	19.996	101.068	20.121	4.215	0.340
79.999	118.785	79.996	19.997	101.068	20.122	4.194	0.335
80.499	118.957	79.996	19.995	101.068	20.119	4.365	0.342
80.999	119.111	79.995	19.995	101.070	20.121	4.234	0.336
81.499	119.279	79.995	19.996	101.071	20.125	3.998	0.324
81.999	119.459	79.996	19.996	101.071	20.120	4.289	0.335
82.499	119.608	79.994	19.995	101.072	20.122	4.179	0.339
82.999	119.819	79.997	19.996	101.071	20.126	3.898	0.345
83.499	119.969	79.996	19.995	101.070	20.125	3.994	0.360
83.999	120.135	79.997	19.995	101.070	20.125	3.984	0.338
84.499	120.292	79.997	19.995	101.070	20.119	4.405	0.320
84.999	120.461	79.996	19.995	101.075	20.121	4.228	0.325
85.499	120.618	79.996	19.995	101.074	20.122	4.142	0.326
85.999	120.835	79.997	19.996	101.074	20.116	4.563	0.349
86.499	120.969	79.996	19.996	101.073	20.119	4.382	0.362
86.999	121.145	79.996	19.996	101.074	20.121	4.232	0.331
87.499	121.346	79.994	19.996	101.069	20.123	4.138	0.344
87.999	121.514	79.996	19.995	101.070	20.123	4.089	0.373
88.499	121.690	79.996	19.995	101.070	20.121	4.275	0.356
88.999	121.861	79.996	19.994	101.070	20.119	4.359	0.346
89.499	122.042	79.996	19.995	101.069	20.118	4.485	0.350
90.000	122.250	79.997	19.996	101.069	20.122	4.165	0.371
90.500	122.416	79.996	19.995	101.069	20.123	4.102	0.381
90.999	122.643	79.996	19.995	101.068	20.123	4.093	0.383
91.499	122.801	79.995	19.996	101.068	20.123	4.135	0.389
91.999	122.974	79.996	19.994	101.067	20.121	4.277	0.358
92.499	123.152	79.997	19.995	101.068	20.120	4.329	0.341
92.999	123.355	79.995	19.994	101.067	20.117	4.512	0.366
93.499	123.524	79.997	19.996	101.068	20.119	4.388	0.377
93.999	123.713	79.994	19.996	101.067	20.118	4.424	0.365
94.499	123.910	79.995	19.995	101.066	20.121	4.280	0.372
94.999	124.085	79.996	19.995	101.066	20.118	4.422	0.379
95.499	124.339	79.995	19.995	101.065	20.121	4.232	0.400
95.999	124.485	79.996	19.996	101.065	20.118	4.478	0.414
96.499	124.703	79.995	19.995	101.065	20.124	4.003	0.382
96.999	124.864	79.995	19.996	101.065	20.122	4.142	0.372
97.499	125.082	79.996	19.996	101.065	20.120	4.323	0.379
97.999	125.263	79.996	19.995	101.065	20.122	4.152	0.389
98.499	125.471	79.996	19.996	101.065	20.123	4.076	0.394
99.000	125.649	79.996	19.996	101.063	20.120	4.329	0.387
99.500	125.824	79.995	19.996	101.060	20.119	4.371	0.369
99.999	126.031	79.996	19.996	101.057	20.123	4.129	0.368
100.499	126.180	79.996	19.996	101.057	20.121	4.226	0.369
100.999	126.436	79.995	19.996	101.057	20.122	4.195	0.380
101.499	126.651	79.996	19.997	101.059	20.116	4.586	0.438
101.999	126.812	79.996	19.996	101.061	20.118	4.483	0.424
102.499	127.017	79.997	19.996	101.065	20.121	4.266	0.371
102.999	127.222	79.996	19.996	101.064	20.121	4.249	0.388
103.499	127.428	79.998	19.996	101.067	20.119	4.411	0.411
103.999	127.615	79.998	19.996	101.068	20.116	4.583	0.402
104.500	127.823	79.999	19.995	101.068	20.122	4.158	0.394
105.000	128.040	79.995	19.997	101.067	20.121	4.223	0.410
105.499	128.225	79.998	19.996	101.067	20.121	4.230	0.413
105.999	128.431	79.997	19.995	101.065	20.120	4.300	0.396
106.499	128.615	79.998	19.996	101.064	20.120	4.295	0.390
106.999	128.831	79.997	19.995	101.064	20.120	4.295	0.395
107.499	129.051	79.997	19.996	101.064	20.120	4.285	0.418
107.999	129.216	79.998	19.997	101.066	20.120	4.306	0.411
108.499	129.476	79.998	19.997	101.066	20.121	4.259	0.405
108.999	129.618	79.998	19.996	101.066	20.122	4.146	0.413
109.499	129.884	79.998	19.996	101.066	20.124	4.022	0.405
110.000	130.049	79.997	19.996	101.065	20.123	4.131	0.420
110.500	130.261	79.998	19.997	101.063	20.119	4.396	0.404
110.999	130.478	79.995	19.996	101.063	20.120	4.331	0.403
111.499	130.718	79.998	19.996	101.063	20.123	4.141	0.443
111.999	130.905	79.998	19.996	101.062	20.124	4.010	0.442
112.499	131.098	79.997	19.996	101.062	20.122	4.183	0.404
112.999	131.327	79.997	19.995	101.064	20.126	3.865	0.401
113.499	131.482	79.998	19.996	101.064	20.125	3.980	0.403
113.999	131.730	79.997	19.997	101.068	20.123	4.107	0.393
114.500	131.954	79.997	19.996	101.073	20.125	3.995	0.438
115.001	132.127	79.997	19.996	101.073	20.124	4.044	0.435
115.500	132.344	79.996	19.996	101.072	20.121	4.278	0.393
116.001	132.581	79.995	19.995	101.073	20.121	4.261	0.422
116.501	132.742	79.996	19.996	101.070	20.121	4.213	0.426
116.999	132.982	79.996	19.996	101.068	20.120	4.295	0.400
117.499	133.202	79.995	19.996	101.071	20.121	4.226	0.430
117.999	133.388	79.996	19.996	101.071	20.121	4.230	0.433
118.500	133.623	79.997	19.996	101.070	20.118	4.453	0.414
119.001	133.881	79.995	19.995	101.070	20.118	4.440	0.457
119.500	134.074	79.994	19.996	101.069	20.121	4.232	0.472
119.999	134.314	79.994	19.997	101.067	20.123	4.097	0.442
120.499	134.512	79.995	19.994	101.068	20.120	4.313	0.436
121.000	134.722	79.999	19.999	101.070	20.123	4.099	0.423
121.500	134.957	80.013	20.001	101.072	20.123	4.137	0.427
121.999	135.130	80.013	20.003	101.080	20.123	4.118	0.426
122.499	135.376	80.014	20.003	101.085	20.120	4.316	0.413
122.999	135.605	80.014	20.004	101.088	20.122	4.166	0.447
123.499	135.810	80.015	20.005	101.093	20.122	4.204	0.455
124.000	136.037	80.014	20.003	101.099	20.120	4.318	0.433
124.500	136.212	80.013	20.002	101.098	20.120	4.306	0.417
124.999	136.450	80.005	20.000	101.095	20.121	4.261	0.407
125.499	136.706	79.997	19.999	101.090	20.122	4.175	0.453
126.000	136.940	79.993	19.998	101.088	20.122	4.198	0.492
126.501	137.157	79.994	19.998	101.084	20.121	4.246	0.471
127.001	137.415	79.995	19.998	101.077	20.123	4.105	0.463
127.501	137.642	79.994	19.997	101.074	20.123	4.101	0.480
128.001	137.851	79.994	19.996	101.075	20.122	4.190	0.460
128.501	138.116	79.995	19.997	101.070	20.121	4.227	0.455
129.000	138.333	79.995	19.997	101.071	20.122	4.170	0.478
129.500	138.554	79.995	19.996	101.078	20.124	4.069	0.460
130.000	138.780	79.994	19.997	101.079	20.124	4.019	0.442
130.500	138.988	79.994	19.997	101.080	20.125	3.952	0.440
131.000	139.224	79.993	19.997	101.086	20.123	4.137	0.439
131.500	139.444	79.995	19.997	101.085	20.120	4.324	0.450
132.000	139.649	79.993	19.997	101.079	20.122	4.202	0.440
132.500	139.875	79.995	19.996	101.082	20.122	4.198	0.428
133.000	140.096	79.994	19.997	101.087	20.121	4.225	0.439
133.500	140.350	79.994	19.999	101.083	20.120	4.297	0.461
134.000	140.595	79.994	19.997	101.080	20.120	4.295	0.487
134.500	140.839	79.995	19.997	101.080	20.122	4.152	0.494
135.000	141.066	79.995	19.997	101.076	20.121	4.257	0.479
135.500	141.307	79.994	19.997	101.071	20.121	4.226	0.469
136.000	141.543	79.994	19.998	101.071	20.120	4.325	0.473
136.500	141.751	79.994	19.996	101.075	20.120	4.350	0.461
137.000	141.995	79.995	19.998	101.077	20.118	4.425	0.448
137.500	142.232	79.995	19.997	101.077	20.119	4.414	0.466
138.000	142.455	79.994	19.996	101.076	20.124	4.067	0.470
138.500	142.691	79.995	19.996	101.078	20.121	4.259	0.460
139.000	142.906	79.995	19.996	101.078	20.122	4.164	0.455
139.500	143.136	79.994	19.996	101.082	20.119	4.356	0.448
140.000	143.422	79.995	19.997	101.082	20.124	4.031	0.481
140.500	143.676	79.994	19.996	101.082	20.121	4.230	0.528
141.000	143.917	79.994	19.998	101.080	20.120	4.349	0.517
141.500	144.122	79.996	19.997	101.079	20.120	4.325	0.470
142.000	144.407	79.994	19.997	101.077	20.120	4.333	0.468
142.500	144.638	79.995	19.996	101.082	20.120	4.334	0.503
143.000	144.852	79.994	19.997	101.086	20.120	4.311	0.481
143.500	145.115	79.993	19.996	101.086	20.122	4.172	0.462
144.000	145.375	79.995	19.997	101.083	20.123	4.115	0.500
144.500	145.581	79.994	19.996	101.080	20.119	4.374	0.494
145.000	145.794	79.993	19.996	101.076	20.119	4.411	0.443
145.500	146.045	79.995	19.997	101.071	20.120	4.310	0.442
146.000	146.290	79.994	19.997	101.069	20.117	4.509	0.480
146.500	146.544	79.994	19.996	101.070	20.120	4.351	0.497
147.000	146.777	79.995	19.996	101.070	20.119	4.352	0.492
147.500	147.034	79.994	19.996	101.075	20.120	4.318	0.489
148.000	147.261	79.995	19.996	101.083	20.119	4.377	0.488
148.500	147.523	79.994	19.996	101.087	20.117	4.541	0.486
149.000	147.763	79.993	19.996	101.087	20.118	4.472	0.495
149.500	147.998	79.995	19.995	101.086	20.119	4.375	0.488
150.000	148.239	79.994	19.996	101.081	20.115	4.689	0.475
150.500	148.488	79.995	19.996	101.074	20.117	4.516	0.483
151.000	148.737	79.993	19.996	101.090	20.116	4.573	0.494
151.500	148.971	79.994	19.995	101.076	20.112	4.872	0.491
152.000	149.252	79.995	19.996	101.046	20.117	4.523	0.499
152.500	149.471	79.995	19.996	101.028	20.116	4.605	0.507
153.000	149.750	79.994	19.996	101.018	20.118	4.464	0.499
153.500	150.005	79.994	19.996	100.994	20.118	4.481	0.516
154.000	150.242	79.993	19.996	101.007	20.116	4.626	0.513
154.500	150.480	79.994	19.996	101.055	20.115	4.638	0.484
155.000	150.684	79.994	19.995	101.107	20.117	4.546	0.459
155.500	150.932	79.993	19.995	101.133	20.117	4.533	0.447
156.000	151.186	79.995	19.996	101.146	20.119	4.415	0.477
156.500	151.421	79.995	19.996	101.146	20.114	4.762	0.496
157.000	151.717	79.995	19.995	101.126	20.119	4.413	0.510
157.500	151.958	79.993	19.996	101.093	20.119	4.375	0.534
158.000	152.192	79.995	19.996	101.076	20.119	4.354	0.506
158.500	152.453	79.995	19.996	101.069	20.119	4.407	0.484
159.000	152.695	79.996	19.996	101.069	20.119	4.413	0.499
159.500	152.974	79.995	19.996	101.068	20.117	4.518	0.512
160.000	153.179	79.996	19.996	101.069	20.117	4.529	0.503
160.500	153.434	79.996	19.996	101.069	20.119	4.417	0.472
161.000	153.679	79.996	19.996	101.070	20.117	4.498	0.480
161.500	153.932	79.996	19.996	101.072	20.117	4.529	0.499
162.000	154.169	79.997	19.996	101.072	20.118	4.455	0.494
162.500	154.412	79.996	19.995	101.070	20.116	4.617	0.485
163.000	154.654	79.996	19.995	101.069	20.115	4.639	0.482
163.500	154.889	79.997	19.997	101.067	20.116	4.577	0.480
164.000	155.149	79.997	19.995	101.065	20.117	4.510	0.486
164.500	155.375	79.997	19.995	101.065	20.116	4.611	0.491
165.000	155.633	79.997	19.996	101.065	20.115	4.683	0.486
165.500	155.896	79.999	19.996	101.065	20.114	4.716	0.503
166.000	156.179	79.997	19.995	101.065	20.114	4.750	0.533
166.500	156.393	79.997	19.995	101.069	20.117	4.512	0.521
167.000	156.660	79.996	19.996	101.068	20.119	4.416	0.489
167.500	156.921	79.997	19.995	101.069	20.116	4.577	0.504
168.000	157.170	79.996	19.996	101.069	20.119	4.416	0.519
168.500	157.395	79.996	19.996	101.070	20.115	4.689	0.492
169.000	157.656	79.996	19.996	101.067	20.117	4.510	0.480
169.500	157.901	79.997	19.996	101.067	20.118	4.473	0.496
170.000	158.187	79.997	19.996	101.066	20.116	4.620	0.519
170.500	158.389	79.995	19.996	101.066	20.118	4.437	0.510
171.000	158.653	79.996	19.995	101.065	20.116	4.605	0.477
171.500	158.922	79.996	19.996	101.064	20.117	4.536	0.499
172.000	159.168	79.995	19.996	101.064	20.120	4.302	0.523
172.500	159.419	79.996	19.995	101.065	20.117	4.517	0.506
173.000	159.639	79.998	19.996	101.064	20.117	4.553	0.484
173.500	159.903	79.996	19.996	101.064	20.120	4.327	0.478
174.000	160.121	79.997	19.996	101.064	20.117	4.500	0.483
174.500	160.418	79.997	19.996	101.064	20.120	4.325	0.498
175.000	160.649	79.995	19.995	101.064	20.120	4.321	0.522
175.500	160.926	79.996	19.995	101.064	20.120	4.335	0.518
176.000	161.192	79.996	19.995	101.064	20.120	4.346	0.525
176.500	161.411	79.997	19.995	101.063	20.121	4.268	0.514
177.000	161.669	79.995	19.996	101.063	20.118	4.487	0.481
177.500	161.902	79.994	19.995	101.063	20.118	4.445	0.484
178.000	162.144	79.995	19.996	101.063	20.119	4.399	0.483
178.500	162.348	79.997	19.995	101.062	20.121	4.213	0.461
179.000	162.630	79.996	19.995	101.062	20.118	4.445	0.466
179.500	162.838	79.996	19.996	101.062	20.120	4.350	0.488
180.000	163.138	79.995	19.995	101.060	20.119	4.361	0.499
180.500	163.412	79.997	19.995	101.059	20.118	4.487	0.541
181.000	163.653	79.996	19.996	101.058	20.118	4.491	0.545
181.500	163.905	79.996	19.997	101.055	20.119	4.407	0.504
182.000	164.158	79.996	19.996	101.053	20.123	4.113	0.499
182.500	164.410	79.997	19.996	101.054	20.121	4.270	0.505
183.000	164.642	79.998	19.995	101.054	20.121	4.274	0.495
183.500	164.869	79.996	19.997	101.056	20.119	4.413	0.472
184.000	165.143	79.996	19.995	101.058	20.119	4.386	0.480
184.500	165.381	79.998	19.997	101.061	20.116	4.611	0.506
185.000	165.657	79.998	19.995	101.062	20.121	4.264	0.513
185.500	165.891	79.998	19.996	101.063	20.121	4.247	0.512
186.000	166.158	79.997	19.996	101.063	20.118	4.432	0.506
186.500	166.435	79.997	19.996	101.064	20.119	4.420	0.523
187.000	166.664	79.999	19.996	101.065	20.118	4.478	0.525
187.500	166.946	79.997	19.995	101.065	20.120	4.323	0.508
188.000	167.167	79.997	19.996	101.064	20.119	4.388	0.507
188.500	167.432	79.998	19.995	101.064	20.123	4.079	0.495
189.000	167.653	79.997	19.995	101.065	20.121	4.245	0.486
189.500	167.897	79.998	19.996	101.064	20.119	4.352	0.475
190.000	168.161	79.998	19.996	101.065	20.122	4.177	0.486
190.500	168.404	79.998	19.995	101.064	20.120	4.287	0.508
191.000	168.618	79.998	19.995	101.064	20.120	4.285	0.482
191.500	168.850	79.997	19.995	101.063	20.123	4.123	0.452
192.000	169.128	79.998	19.996	101.063	20.118	4.481	0.478
192.500	169.372	79.998	19.995	101.063	20.117	4.517	0.515
193.000	169.642	79.997	19.995	101.061	20.121	4.273	0.518
193.500	169.894	79.997	19.996	101.061	20.119	4.414	0.518
194.000	170.124	79.997	19.995	101.062	20.121	4.270	0.502
194.500	170.381	79.996	19.995	101.062	20.118	4.472	0.484
195.000	170.638	79.996	19.995	101.062	20.120	4.314	0.500
195.500	170.890	79.997	19.995	101.066	20.122	4.155	0.512
196.000	171.170	79.996	19.996	101.065	20.120	4.342	0.521
196.500	171.390	79.995	19.996	101.064	20.121	4.258	0.516
197.000	171.658	79.996	19.995	101.063	20.120	4.287	0.494
197.500	171.887	79.996	19.997	101.064	20.119	4.365	0.493
198.000	172.135	79.995	19.996	101.064	20.120	4.316	0.487
198.500	172.364	79.995	19.996	101.063	20.122	4.171	0.477
199.000	172.638	79.996	19.996	101.064	20.119	4.394	0.490
199.500	172.867	79.996	19.996	101.065	20.120	4.340	0.503
200.000	173.146	79.996	19.997	101.065	20.121	4.227	0.505
200.500	173.384	79.995	19.997	101.065	20.123	4.094	0.512
201.000	173.644	79.996	19.996	101.067	20.121	4.214	0.508
201.500	173.863	79.996	19.997	101.067	20.122	4.165	0.488
202.000	174.102	79.996	19.996	101.067	20.120	4.346	0.468
202.500	174.376	79.996	19.997	101.065	20.119	4.359	0.486
203.000	174.601	79.995	19.996	101.064	20.119	4.361	0.506
203.500	174.887	79.994	19.996	101.061	20.121	4.248	0.505
204.000	175.171	79.994	19.997	101.060	20.122	4.185	0.540
204.500	175.370	79.995	19.996	101.059	20.123	4.099	0.527
205.000	175.641	79.994	19.996	101.061	20.122	4.166	0.476
205.500	175.857	79.994	19.995	101.061	20.122	4.166	0.478
206.000	176.160	79.995	19.996	101.063	20.121	4.244	0.503
206.500	176.328	79.994	19.996	101.062	20.119	4.395	0.495
207.000	176.608	79.994	19.996	101.063	20.122	4.180	0.460
207.500	176.852	79.995	19.996	101.063	20.123	4.098	0.486
208.000	177.120	79.995	19.996	101.062	20.121	4.235	0.518
208.500	177.359	79.995	19.996	101.062	20.117	4.500	0.510
209.000	177.627	79.994	19.996	101.064	20.120	4.292	0.507
209.500	177.857	79.994	19.997	101.065	20.120	4.286	0.502
210.000	178.130	79.994	19.995	101.061	20.123	4.139	0.500
210.500	178.365	79.995	19.995	101.056	20.120	4.334	0.505
211.000	178.615	79.995	19.996	101.050	20.120	4.343	0.497
211.500	178.833	79.994	19.995	101.046	20.121	4.233	0.477
212.000	179.142	79.995	19.996	101.046	20.123	4.105	0.498
212.500	179.383	79.993	19.995	101.051	20.122	4.159	0.538
213.000	179.634	79.994	19.995	101.057	20.121	4.212	0.521
213.500	179.872	79.995	19.995	101.060	20.121	4.224	0.491
214.000	180.107	79.996	19.996	101.059	20.124	4.058	0.481
214.500	180.359	79.994	19.995	101.051	20.121	4.239	0.480
215.000	180.625	79.996	19.996	101.045	20.124	4.019	0.503
215.501	180.868	79.994	19.996	101.039	20.123	4.086	0.513
216.000	181.128	79.994	19.996	101.037	20.120	4.295	0.506
216.499	181.378	79.994	19.996	101.039	20.121	4.230	0.507
216.999	181.594	79.994	19.996	101.043	20.120	4.280	0.488
217.499	181.862	79.994	19.996	101.046	20.121	4.244	0.475
217.999	182.122	79.995	19.996	101.054	20.121	4.222	0.506
218.499	182.358	79.996	19.996	101.055	20.120	4.308	0.512
218.999	182.593	79.995	19.996	101.053	20.121	4.232	0.484
219.499	182.868	79.995	19.996	101.050	20.120	4.337	0.491
219.999	183.109	79.996	19.996	101.047	20.121	4.226	0.513
220.499	183.369	79.995	19.996	101.044	20.117	4.494	0.509
220.999	183.610	79.995	19.997	101.043	20.119	4.353	0.501
221.499	183.855	79.995	19.996	101.043	20.122	4.176	0.493
222.000	184.078	79.995	19.997	101.046	20.119	4.374	0.477
222.500	184.344	79.994	19.996	101.051	20.120	4.296	0.478
223.000	184.575	79.995	19.997	101.050	20.122	4.199	0.493
223.500	184.850	79.995	19.996	101.051	20.121	4.258	0.502
224.000	185.120	79.996	19.997	101.051	20.120	4.338	0.526
224.500	185.344	79.995	19.997	101.050	20.118	4.460	0.520
224.999	185.589	79.995	19.996	101.050	20.120	4.324	0.481
225.499	185.834	79.994	19.997	101.018	20.119	4.376	0.479
225.999	186.130	79.994	19.996	100.994	20.118	4.479	0.516
226.499	186.376	79.993	19.997	100.983	20.119	4.374	0.541
226.999	186.632	79.993	19.997	100.977	20.116	4.576	0.522
227.499	186.843	79.995	19.996	100.971	20.119	4.376	0.484
227.999	187.125	79.993	19.998	101.031	20.119	4.413	0.480
228.499	187.381	79.996	19.997	101.078	20.119	4.380	0.516
228.999	187.643	79.995	19.996	101.097	20.120	4.346	0.528
229.500	187.861	79.993	19.997	101.105	20.120	4.326	0.499
230.000	188.116	79.995	19.997	101.109	20.120	4.334	0.477
230.499	188.347	79.993	19.997	101.082	20.121	4.240	0.480
230.999	188.597	79.993	19.996	101.059	20.121	4.236	0.484
231.499	188.831	79.993	19.998	101.053	20.122	4.154	0.482
231.999	189.104	79.994	19.997	101.052	20.120	4.280	0.495
232.499	189.345	79.993	19.997	101.052	20.122	4.183	0.510
232.999	189.572	79.994	19.997	101.052	20.123	4.107	0.491
233.499	189.851	79.994	19.997	101.053	20.119	4.394	0.487
233.999	190.090	79.994	19.997	101.054	20.121	4.225	0.512
234.499	190.367	79.995	19.997	101.052	20.124	4.037	0.517
234.999	190.589	79.995	19.997	101.050	20.119	4.397	0.507
235.500	190.837	79.995	19.996	101.048	20.121	4.255	0.484
236.000	191.077	79.995	19.996	101.046	20.121	4.280	0.479
236.499	191.349	79.996	19.998	101.042	20.119	4.354	0.500
236.999	191.601	79.994	19.997	101.046	20.120	4.312	0.518
237.499	191.870	79.996	19.997	101.050	20.121	4.261	0.522
238.000	192.051	79.995	19.996	101.053	20.121	4.213	0.485
238.500	192.317	79.994	19.996	101.056	20.120	4.310	0.449
239.000	192.584	79.996	19.996	101.059	20.122	4.197	0.490
239.500	192.840	79.996	19.996	101.055	20.125	3.975	0.528
240.000	193.080	79.996	19.996	101.051	20.122	4.182	0.510
240.499	193.361	79.996	19.996	101.045	20.122	4.184	0.509
241.000	193.588	79.995	19.995	101.038	20.122	4.171	0.514
241.500	193.853	79.996	19.996	101.035	20.123	4.140	0.500
241.999	194.050	79.996	19.997	101.034	20.122	4.171	0.477
242.499	194.297	79.996	19.995	101.032	20.121	4.237	0.454
242.999	194.562	79.996	19.994	101.033	20.122	4.156	0.478
243.499	194.829	79.997	19.998	101.033	20.120	4.304	0.521
243.999	195.033	80.006	19.998	101.034	20.124	4.043	0.501
244.499	195.313	80.015	20.002	101.036	20.120	4.285	0.478
244.999	195.576	80.014	20.002	101.044	20.124	4.045	0.514
245.499	195.825	80.015	20.002	101.051	20.124	4.045	0.528
245.999	196.073	80.014	20.002	101.061	20.126	3.898	0.504
246.499	196.319	80.015	20.002	101.068	20.126	3.919	0.496
246.999	196.580	80.016	20.004	101.072	20.122	4.161	0.501
247.500	196.834	80.015	20.003	101.072	20.123	4.119	0.511
248.000	197.062	80.016	20.004	101.072	20.122	4.158	0.498
248.499	197.329	80.016	20.005	101.069	20.126	3.866	0.489
248.999	197.535	80.015	20.003	101.067	20.126	3.919	0.484
249.499	197.793	80.015	20.004	101.066	20.124	4.026	0.468
249.999	198.076	80.016	20.003	101.064	20.124	4.039	0.503
250.500	198.312	80.014	20.003	101.064	20.124	4.005	0.531
251.000	198.538	80.015	20.004	101.061	20.125	3.990	0.491
251.499	198.776	80.014	20.003	101.059	20.123	4.097	0.463
251.999	199.043	80.014	20.003	101.059	20.125	3.988	0.484
252.499	199.289	80.014	20.004	101.060	20.124	4.007	0.509
252.999	199.550	80.015	20.004	101.060	20.126	3.921	0.510
253.500	199.801	80.014	20.003	101.063	20.125	3.969	0.510
254.000	200.048	80.014	20.003	101.065	20.126	3.898	0.505
254.500	200.280	80.015	20.003	101.066	20.124	4.041	0.488
254.999	200.532	80.015	20.003	101.066	20.125	3.946	0.482
255.499	200.774	80.013	20.003	101.066	20.127	3.820	0.489
255.999	201.036	80.014	20.004	101.066	20.125	3.933	0.498
256.500	201.289	80.015	20.003	101.066	20.123	4.083	0.509
257.000	201.554	80.014	20.003	101.066	20.125	3.969	0.517
257.500	201.778	80.014	20.003	101.066	20.121	4.276	0.503
258.000	202.022	80.014	20.003	101.067	20.124	4.005	0.479
258.500	202.300	80.014	20.003	101.067	20.124	4.026	0.496
259.000	202.521	80.013	20.003	101.067	20.124	4.030	0.510
259.500	202.788	80.014	20.002	101.067	20.124	4.047	0.493
260.000	203.038	80.015	20.003	101.068	20.123	4.127	0.502
260.500	203.278	80.015	20.004	101.068	20.124	4.011	0.504
261.000	203.547	80.014	20.002	101.068	20.123	4.110	0.500
261.500	203.797	80.014	20.002	101.068	20.127	3.807	0.514
262.000	204.016	80.015	20.002	101.066	20.125	3.933	0.494
262.500	204.272	80.015	20.003	101.065	20.127	3.843	0.472
263.000	204.528	80.014	20.003	101.065	20.124	4.003	0.494
263.500	204.783	80.015	20.002	101.064	20.125	3.989	0.512
264.000	205.031	80.015	20.002	101.064	20.124	4.054	0.507
264.500	205.263	80.014	20.003	101.066	20.123	4.090	0.491
265.000	205.516	80.015	20.003	101.066	20.125	3.965	0.483
265.500	205.741	80.016	20.002	101.066	20.125	3.967	0.482
266.000	205.977	80.015	20.002	101.066	20.126	3.894	0.470
266.500	206.241	80.017	20.003	101.066	20.126	3.902	0.481
267.000	206.500	80.015	20.004	101.066	20.128	3.769	0.511
267.500	206.752	80.014	20.003	101.066	20.125	3.950	0.517
268.000	207.036	80.015	20.003	101.066	20.121	4.217	0.524
268.500	207.264	80.016	20.002	101.065	20.124	4.057	0.524
269.000	207.491	80.016	20.002	101.066	20.125	3.935	0.483
269.500	207.771	80.016	20.002	101.065	20.127	3.837	0.481
270.000	208.014	80.016	20.002	101.066	20.124	4.049	0.515
270.500	208.255	80.016	20.001	101.065	20.123	4.083	0.503
271.000	208.475	80.015	20.002	101.064	20.123	4.080	0.472
271.500	208.743	80.016	20.002	101.064	20.125	3.965	0.475
272.000	209.009	80.016	20.002	101.063	20.124	4.061	0.512
272.500	209.221	80.016	20.002	101.063	20.122	4.181	0.506
273.000	209.526	80.017	20.002	101.064	20.125	3.944	0.497
273.500	209.743	80.016	20.002	101.063	20.123	4.118	0.519
274.000	209.972	80.016	20.002	101.062	20.125	3.965	0.484
274.500	210.191	80.016	20.003	101.057	20.123	4.118	0.447
275.000	210.498	80.016	20.002	101.053	20.124	4.041	0.487
275.500	210.731	80.016	20.001	101.053	20.124	4.037	0.533
276.000	210.985	80.015	20.002	101.056	20.123	4.123	0.513
276.500	211.227	80.016	20.002	101.057	20.121	4.260	0.491
277.000	211.477	80.015	20.002	101.062	20.123	4.131	0.494
277.500	211.679	80.015	20.002	101.066	20.126	3.891	0.472
278.000	211.976	80.015	20.002	101.067	20.126	3.872	0.475
278.500	212.191	80.014	20.002	101.067	20.126	3.916	0.506
279.000	212.478	80.014	20.001	101.067	20.126	3.912	0.507
279.500	212.707	80.014	20.003	101.067	20.124	4.036	0.509
280.000	212.973	80.014	20.002	101.068	20.122	4.142	0.506
280.500	213.235	80.014	20.003	101.068	20.124	4.009	0.512
281.000	213.458	80.013	20.002	101.069	20.127	3.805	0.507
281.500	213.688	80.014	20.003	101.069	20.124	4.068	0.469
282.000	213.917	80.013	20.002	101.070	20.123	4.108	0.455
282.500	214.202	80.013	20.003	101.070	20.121	4.213	0.486
283.000	214.461	80.013	20.004	101.070	20.124	4.070	0.529
283.500	214.714	80.013	20.002	101.070	20.127	3.828	0.528
284.000	214.979	80.014	20.003	101.069	20.124	4.056	0.515
284.500	215.213	80.013	20.003	101.069	20.122	4.169	0.508
285.000	215.452	80.014	20.003	101.068	20.121	4.249	0.486
285.500	215.666	80.014	20.003	101.066	20.127	3.826	0.463
286.000	215.949	80.013	20.003	101.066	20.127	3.828	0.474
286.500	216.156	80.013	20.004	101.067	20.125	3.953	0.493
287.000	216.423	80.014	20.003	101.065	20.123	4.071	0.483
287.500	216.698	80.013	20.004	101.066	20.124	4.029	0.508
288.000	216.933	80.013	20.003	101.066	20.125	3.970	0.526
288.500	217.192	80.014	20.003	101.066	20.122	4.168	0.502
289.000	217.456	80.013	20.004	101.065	20.122	4.155	0.509
289.500	217.704	80.013	20.003	101.066	20.122	4.182	0.518
290.000	217.969	80.014	20.004	101.065	20.123	4.079	0.512
290.500	218.179	80.014	20.003	101.064	20.124	4.067	0.494
291.000	218.438	80.014	20.004	101.061	20.124	4.024	0.472
291.500	218.693	80.014	20.004	101.061	20.123	4.090	0.492
292.000	218.959	80.013	20.004	101.060	20.123	4.119	0.518
292.500	219.187	80.013	20.003	101.059	20.124	4.062	0.507
293.000	219.448	80.013	20.004	101.059	20.125	3.965	0.491
293.500	219.694	80.015	20.005	101.061	20.124	4.006	0.498
294.000	219.936	80.014	20.005	101.061	20.121	4.222	0.498
294.500	220.158	80.015	20.004	101.058	20.123	4.136	0.476
295.000	220.446	80.014	20.004	101.055	20.123	4.115	0.487
295.500	220.679	80.014	20.004	101.056	20.122	4.207	0.516
296.000	220.920	80.015	20.003	101.057	20.124	4.007	0.497
296.500	221.190	80.013	20.003	101.057	20.126	3.902	0.492
297.000	221.421	80.014	20.004	101.056	20.123	4.096	0.506
297.500	221.658	80.015	20.004	101.056	20.120	4.290	0.485
298.000	221.933	80.013	20.003	101.053	20.122	4.172	0.490
298.500	222.188	80.016	20.003	101.051	20.125	3.970	0.521
299.000	222.444	80.014	20.003	101.048	20.124	4.029	0.520
299.500	222.712	80.013	20.003	101.053	20.124	4.029	0.517
300.000	222.983	80.015	20.003	101.054	20.125	3.999	0.532
300.500	223.211	80.015	20.004	101.055	20.124	4.012	0.519
301.000	223.479	80.016	20.003	101.057	20.123	4.094	0.498
301.500	223.692	80.014	20.003	101.054	20.122	4.179	0.489
302.000	223.932	80.016	20.002	101.053	20.125	3.993	0.467
302.500	224.182	80.014	20.004	101.056	20.124	4.029	0.471
303.000	224.434	80.016	20.004	101.056	20.123	4.104	0.496
303.500	224.703	80.016	20.003	101.056	20.124	4.045	0.512
304.000	224.935	80.015	20.002	101.059	20.122	4.205	0.511
304.500	225.165	80.016	20.004	101.054	20.122	4.144	0.481
305.000	225.399	80.014	20.002	101.051	20.123	4.079	0.463
305.500	225.706	80.014	20.003	101.053	20.127	3.808	0.503
306.000	225.929	80.014	20.002	101.053	20.125	3.965	0.536
306.500	226.163	80.015	20.004	101.054	20.124	4.041	0.493
307.000	226.474	80.013	20.004	101.060	20.123	4.087	0.500
307.500	226.685	80.015	20.003	101.062	20.125	3.967	0.533
308.000	226.929	80.015	20.003	101.062	20.123	4.085	0.489
308.500	227.191	80.014	20.003	101.056	20.126	3.900	0.481
309.000	227.457	80.013	20.003	101.055	20.124	4.051	0.517
309.500	227.694	80.014	20.003	101.055	20.123	4.098	0.516
310.000	227.976	80.013	20.003	101.055	20.124	4.070	0.511
310.500	228.211	80.014	20.003	101.054	20.123	4.134	0.517
311.000	228.481	80.015	20.004	101.055	20.124	4.048	0.511
311.500	228.740	80.014	20.004	101.051	20.121	4.233	0.517
312.000	228.994	80.014	20.003	101.049	20.122	4.180	0.521
312.500	229.249	80.014	20.004	101.044	20.122	4.148	0.511
313.000	229.526	80.013	20.004	101.043	20.122	4.195	0.521
313.500	229.791	80.013	20.004	101.049	20.121	4.248	0.537
314.000	230.044	80.013	20.004	101.054	20.122	4.172	0.530
314.500	230.304	80.013	20.005	101.058	20.124	4.001	0.515
315.000	230.520	80.013	20.004	101.061	20.122	4.210	0.494
315.500	230.736	80.013	20.004	101.061	20.122	4.208	0.454
316.000	231.011	80.013	20.004	101.054	20.124	4.008	0.462
316.500	231.272	80.013	20.004	101.054	20.126	3.881	0.514
317.000	231.529	80.012	20.004	101.054	20.125	3.987	0.527
317.500	231.786	80.014	20.004	101.055	20.124	4.008	0.516
318.000	231.996	80.014	20.004	101.058	20.124	4.062	0.490
318.500	232.268	80.013	20.005	101.064	20.121	4.233	0.474
319.000	232.512	80.013	20.005	101.064	20.125	3.961	0.499
319.500	232.781	80.013	20.004	101.064	20.124	4.064	0.515
320.000	233.004	80.013	20.004	101.064	20.126	3.867	0.502
320.500	233.270	80.014	20.004	101.061	20.126	3.928	0.490
321.000	233.512	80.012	20.005	101.057	20.123	4.094	0.499
321.500	233.763	80.014	20.004	101.055	20.123	4.075	0.501
322.000	234.049	80.014	20.004	101.056	20.124	4.069	0.515
322.500	234.270	80.013	20.004	101.055	20.124	4.016	0.522
323.000	234.520	80.015	20.005	101.055	20.123	4.081	0.489
323.500	234.749	80.013	20.004	101.055	20.122	4.163	0.475
324.000	235.009	80.014	20.004	101.057	20.125	3.959	0.484
324.500	235.259	80.015	20.005	101.050	20.125	3.978	0.499
325.000	235.502	80.013	20.004	101.045	20.125	3.989	0.501
325.500	235.758	80.014	20.004	101.047	20.122	4.146	0.496
326.000	235.993	80.016	20.004	101.049	20.124	4.062	0.495
326.500	236.241	80.014	20.003	101.045	20.124	4.029	0.487
327.000	236.454	80.015	20.005	101.048	20.122	4.187	0.472
327.500	236.746	80.014	20.004	101.053	20.123	4.075	0.483
328.000	236.974	80.014	20.003	101.049	20.122	4.176	0.512
328.500	237.274	80.013	20.004	101.047	20.126	3.903	0.524
329.000	237.531	80.015	20.004	101.051	20.123	4.092	0.543
329.500	237.751	80.014	20.004	101.052	20.123	4.108	0.517
330.000	238.014	80.015	20.004	101.049	20.122	4.146	0.480
330.500	238.256	80.015	20.003	101.051	20.124	4.024	0.495
331.000	238.512	80.015	20.003	101.048	20.125	3.965	0.502
331.500	238.753	80.016	20.003	101.045	20.119	4.386	0.497
332.000	238.985	80.016	20.003	101.043	20.124	4.056	0.485
332.500	239.278	80.015	20.002	101.047	20.121	4.248	0.499
333.000	239.529	80.016	20.003	101.044	20.122	4.198	0.534
333.500	239.740	80.014	20.003	101.045	20.122	4.201	0.503
334.000	240.018	80.014	20.002	101.047	20.122	4.155	0.476
334.500	240.285	80.014	20.003	101.051	20.120	4.285	0.517
335.000	240.464	80.014	20.002	101.048	20.120	4.300	0.495
335.500	240.749	80.015	20.003	101.052	20.123	4.107	0.455
336.000	240.971	80.013	20.004	101.055	20.122	4.191	0.486
336.500	241.231	80.013	20.003	101.054	20.124	4.040	0.495
337.000	241.478	80.014	20.002	101.050	20.124	4.027	0.494
337.500	241.738	80.012	20.003	101.047	20.122	4.198	0.507
338.000	241.997	80.013	20.002	101.042	20.122	4.195	0.513
338.500	242.238	80.014	20.002	101.041	20.124	4.037	0.509
339.000	242.517	80.012	20.004	101.047	20.122	4.166	0.510
339.500	242.752	80.013	20.002	101.050	20.121	4.240	0.517
340.000	243.018	80.014	20.003	101.057	20.122	4.179	0.507
340.500	243.230	80.014	20.004	101.063	20.121	4.261	0.489
341.000	243.494	80.012	20.003	101.062	20.124	4.029	0.477
341.500	243.746	80.013	20.003	101.059	20.123	4.111	0.497
342.000	243.981	80.013	20.003	101.054	20.120	4.328	0.501
342.500	244.233	80.013	20.004	101.051	20.121	4.263	0.487
343.000	244.505	80.013	20.001	101.047	20.124	4.027	0.506
343.500	244.728	80.014	20.003	101.044	20.123	4.117	0.510
344.000	244.978	80.014	20.002	101.042	20.121	4.273	0.484
344.500	245.266	80.014	20.002	101.046	20.123	4.071	0.505
345.000	245.513	80.014	20.003	101.046	20.120	4.286	0.537
345.500	245.762	80.014	20.002	101.050	20.125	3.983	0.516
346.000	246.007	80.015	20.001	101.050	20.121	4.277	0.495
346.500	246.265	80.014	20.003	101.050	20.122	4.147	0.499
347.000	246.502	80.015	20.003	101.045	20.120	4.286	0.499
347.500	246.743	80.012	20.003	101.042	20.120	4.328	0.486
348.000	247.004	80.015	20.002	101.038	20.120	4.341	0.490
348.500	247.246	80.013	20.002	101.039	20.121	4.265	0.503
349.000	247.516	80.016	20.002	101.043	20.118	4.431	0.508
349.500	247.726	80.014	20.003	101.046	20.119	4.412	0.496
350.000	248.018	80.015	20.003	101.046	20.117	4.503	0.490
350.500	248.246	80.016	20.003	101.044	20.121	4.269	0.511
351.000	248.489	80.014	20.003	101.042	20.122	4.141	0.496
351.500	248.731	80.016	20.002	101.037	20.124	4.008	0.478
352.000	249.020	80.015	20.003	101.035	20.119	4.402	0.508
352.500	249.244	80.015	20.003	101.037	20.125	3.970	0.522
353.000	249.530	80.016	20.003	101.039	20.121	4.242	0.511
353.500	249.777	80.015	20.003	101.042	20.120	4.287	0.521
354.000	250.026	80.017	20.003	101.047	20.120	4.308	0.515
354.500	250.301	80.017	20.003	101.050	20.122	4.166	0.510
355.000	250.551	80.015	20.002	101.050	20.118	4.478	0.525
355.500	250.805	80.016	20.003	101.046	20.121	4.265	0.514
356.000	251.036	80.014	20.004	101.045	20.117	4.518	0.495
356.500	251.291	80.015	20.003	101.044	20.119	4.360	0.485
357.000	251.539	80.014	20.003	101.044	20.121	4.232	0.494
357.500	251.824	80.015	20.004	101.042	20.122	4.206	0.518
358.000	252.054	80.015	20.003	101.045	20.121	4.221	0.524
358.500	252.333	80.016	20.004	101.046	20.120	4.299	0.512
359.000	252.556	80.016	20.004	101.045	20.120	4.306	0.506
359.500	252.818	80.014	20.003	101.040	20.119	4.407	0.493
360.000	252.995	80.014	20.004	101.043	20.123	4.122	0.462
360.500	253.274	80.013	20.004	101.043	20.122	4.167	0.447
361.000	253.519	80.015	20.004	101.044	20.121	4.245	0.490
361.500	253.714	80.014	20.003	101.046	20.119	4.405	0.482
362.000	254.021	80.014	20.004	101.045	20.121	4.263	0.471
362.500	254.244	80.013	20.003	101.042	20.121	4.219	0.516
363.000	254.485	80.014	20.004	101.038	20.120	4.293	0.497
363.500	254.776	80.015	20.003	101.034	20.122	4.143	0.498
364.000	254.998	80.013	20.002	101.027	20.123	4.082	0.522
364.500	255.286	80.013	20.003	101.028	20.121	4.269	0.512
365.000	255.543	80.014	20.003	101.028	20.122	4.202	0.528
365.500	255.817	80.013	20.003	101.035	20.118	4.482	0.538
366.000	256.008	80.013	20.004	101.038	20.119	4.383	0.498
366.500	256.276	80.013	20.003	101.038	20.121	4.235	0.462
367.000	256.528	80.013	20.003	101.041	20.118	4.427	0.490
367.500	256.772	80.014	20.003	101.043	20.120	4.326	0.509
368.000	257.004	80.014	20.003	101.036	20.119	4.385	0.486
368.500	257.242	80.014	20.004	101.033	20.119	4.402	0.473
369.000	257.461	80.014	20.004	101.033	20.117	4.516	0.463
369.500	257.748	80.013	20.002	101.030	20.116	4.562	0.481
370.000	257.957	80.013	20.003	101.028	20.117	4.505	0.501
370.500	258.237	80.014	20.002	101.028	20.121	4.267	0.493
371.000	258.496	80.013	20.001	101.028	20.117	4.505	0.514
371.500	258.734	80.013	20.003	101.028	20.119	4.352	0.518
372.000	259.002	80.013	20.003	101.027	20.118	4.434	0.502
372.500	259.275	80.014	20.003	101.027	20.118	4.461	0.524
373.000	259.488	80.014	20.003	101.029	20.118	4.485	0.513
373.500	259.777	80.015	20.003	101.029	20.117	4.506	0.494
374.000	260.028	80.013	20.002	101.034	20.116	4.584	0.521
374.500	260.249	80.014	20.002	101.038	20.116	4.567	0.506
375.000	260.513	80.013	20.004	101.039	20.118	4.428	0.479
375.500	260.766	80.014	20.004	101.040	20.117	4.516	0.502
376.000	260.993	80.015	20.003	101.042	20.117	4.527	0.499
376.500	261.248	80.014	20.003	101.040	20.119	4.394	0.481
377.000	261.538	80.015	20.003	101.041	20.115	4.667	0.513
377.500	261.740	80.014	20.003	101.042	20.116	4.583	0.518
378.000	262.003	80.013	20.003	101.041	20.118	4.461	0.478
378.500	262.269	80.014	20.003	101.038	20.115	4.631	0.496
379.000	262.497	80.014	20.003	101.035	20.117	4.549	0.511
379.500	262.738	80.014	20.003	101.031	20.117	4.523	0.481
380.000	262.981	80.013	20.003	101.029	20.114	4.742	0.477
380.500	263.229	80.014	20.003	101.028	20.113	4.793	0.488
381.000	263.501	80.014	20.003	101.029	20.114	4.724	0.506
381.500	263.712	80.014	20.003	101.030	20.115	4.652	0.501
382.000	264.004	80.013	20.004	101.029	20.114	4.729	0.493
382.500	264.217	80.012	20.003	101.029	20.116	4.596	0.504
383.000	264.477	80.013	20.003	101.027	20.116	4.596	0.489
383.500	264.694	80.013	20.003	101.026	20.114	4.770	0.475
384.000	265.012	80.013	20.003	101.026	20.114	4.749	0.506
384.500	265.234	80.013	20.003	101.026	20.113	4.801	0.537
385.000	265.475	80.013	20.003	101.026	20.114	4.703	0.501
385.500	265.750	80.015	20.004	101.027	20.111	4.953	0.490
386.000	266.005	80.013	20.003	101.027	20.115	4.648	0.523
386.500	266.216	80.012	20.003	101.027	20.117	4.552	0.498
387.000	266.455	80.012	20.003	101.029	20.115	4.646	0.458
387.500	266.734	80.012	20.003	101.030	20.113	4.774	0.484
388.000	266.960	80.013	20.004	101.033	20.112	4.896	0.512
388.500	267.223	80.012	20.004	101.039	20.113	4.825	0.497
389.000	267.470	80.011	20.004	101.042	20.113	4.814	0.499
389.500	267.723	80.012	20.004	101.043	20.113	4.824	0.505
390.000	267.960	80.012	20.004	101.046	20.113	4.778	0.495
390.500	268.230	80.012	20.004	101.049	20.113	4.789	0.498
391.000	268.465	80.012	20.003	101.046	20.111	4.936	0.506
391.500	268.723	80.012	20.003	101.043	20.113	4.772	0.499
392.000	268.926	80.011	20.004	101.042	20.116	4.623	0.477
392.500	269.250	80.012	20.005	101.039	20.113	4.796	0.494
393.000	269.475	80.012	20.003	101.033	20.113	4.792	0.538
393.500	269.692	80.011	20.003	101.032	20.111	4.939	0.496
394.000	269.947	80.011	20.005	101.035	20.110	4.987	0.457
394.500	270.245	80.012	20.004	101.042	20.113	4.787	0.513
395.000	270.474	80.010	20.004	101.047	20.113	4.771	0.540
395.500	270.755	80.012	20.005	101.048	20.114	4.731	0.518
396.000	270.977	80.012	20.006	101.047	20.113	4.836	0.507
396.500	271.254	80.013	20.007	101.045	20.111	4.958	0.502
397.000	271.534	80.013	20.006	101.039	20.117	4.524	0.528
397.500	271.746	80.012	20.006	101.032	20.115	4.652	0.525
398.000	272.034	80.012	20.004	101.035	20.113	4.801	0.496
398.500	272.248	80.012	20.005	101.039	20.112	4.844	0.501
399.000	272.538	80.012	20.004	101.040	20.115	4.694	0.503
399.500	272.790	80.012	20.005	101.043	20.113	4.816	0.523
400.000	272.992	80.011	20.006	101.049	20.114	4.756	0.498
400.500	273.294	80.013	20.009	101.054	20.112	4.882	0.479
401.000	273.512	80.010	20.008	101.053	20.116	4.617	0.512
401.500	273.745	80.013	20.006	101.052	20.112	4.851	0.486
402.000	273.971	80.013	20.005	101.050	20.113	4.834	0.455
402.500	274.236	80.013	20.007	101.045	20.112	4.849	0.475
403.000	274.479	80.012	20.004	101.038	20.111	4.971	0.499
403.500	274.729	80.012	20.005	101.034	20.110	5.026	0.500
404.000	274.984	80.013	20.004	101.034	20.112	4.884	0.499
404.500	275.250	80.012	20.004	101.033	20.113	4.773	0.513
405.000	275.487	80.013	20.002	101.031	20.112	4.853	0.512
405.500	275.761	80.011	20.002	101.031	20.111	4.939	0.507
406.000	275.965	80.012	20.004	101.031	20.112	4.872	0.495
406.500	276.241	80.013	20.006	101.031	20.111	4.941	0.479
407.000	276.494	80.012	20.006	101.034	20.110	5.001	0.504
407.500	276.737	80.013	20.005	101.035	20.112	4.866	0.512
408.000	277.009	80.012	20.008	101.036	20.111	4.939	0.506
408.500	277.213	80.013	20.009	101.041	20.111	4.929	0.496
409.000	277.464	80.014	20.009	101.046	20.110	5.007	0.465
409.500	277.703	80.014	20.006	101.044	20.112	4.904	0.472
410.000	277.965	80.013	20.005	101.046	20.113	4.773	0.496
410.500	278.249	80.014	20.005	101.045	20.109	5.072	0.523
411.000	278.492	80.013	20.004	101.039	20.108	5.148	0.537
411.500	278.750	80.014	20.004	101.032	20.110	4.994	0.515
412.000	278.958	80.014	20.004	101.028	20.110	5.030	0.483
412.500	279.195	80.014	20.003	101.025	20.110	4.981	0.455
413.000	279.489	80.013	20.004	101.026	20.112	4.881	0.488
413.500	279.731	80.014	20.005	101.026	20.112	4.899	0.534
414.000	279.953	80.014	20.004	101.028	20.110	5.049	0.500
414.500	280.260	80.014	20.004	101.030	20.112	4.874	0.496
415.000	280.463	80.014	20.004	101.029	20.111	4.960	0.519
415.500	280.739	80.014	20.004	101.027	20.110	5.011	0.495
416.000	280.963	80.014	20.004	101.027	20.108	5.135	0.490
416.500	281.217	80.013	20.004	101.026	20.108	5.127	0.489
417.000	281.440	80.013	20.004	101.026	20.109	5.093	0.478
417.500	281.719	80.014	20.004	101.026	20.112	4.849	0.490
418.000	281.946	80.013	20.004	101.026	20.110	5.030	0.503
418.500	282.203	80.013	20.003	101.025	20.108	5.137	0.494
419.000	282.454	80.014	20.004	101.026	20.108	5.160	0.496
419.500	282.714	80.015	20.004	101.027	20.109	5.072	0.510
420.000	282.960	80.014	20.004	101.027	20.107	5.224	0.508
420.500	283.200	80.014	20.004	101.028	20.107	5.247	0.496
421.000	283.432	80.013	20.003	101.028	20.108	5.137	0.479
421.500	283.690	80.013	20.004	101.026	20.106	5.281	0.481
422.000	283.972	80.015	20.003	101.025	20.105	5.344	0.515
422.500	284.263	80.015	20.004	101.025	20.107	5.251	0.556
423.000	284.457	80.015	20.003	101.025	20.106	5.314	0.529
423.500	284.695	80.014	20.003	101.025	20.105	5.373	0.459
424.000	284.981	80.014	20.004	101.025	20.106	5.268	0.478
424.500	285.221	80.014	20.003	101.025	20.106	5.278	0.525
425.000	285.432	80.014	20.004	101.025	20.107	5.251	0.489
425.500	285.708	80.015	20.003	101.025	20.105	5.384	0.469
426.000	285.923	80.014	20.003	101.025	20.107	5.243	0.489
426.500	286.203	80.014	20.003	101.025	20.103	5.512	0.493
427.000	286.403	80.014	20.003	101.026	20.107	5.205	0.488
427.500	286.700	80.016	20.002	101.026	20.104	5.460	0.489
428.000	286.948	80.015	20.003	101.026	20.106	5.283	0.521
428.500	287.201	80.014	20.003	101.026	20.106	5.280	0.523
429.000	287.417	80.016	20.002	101.027	20.102	5.546	0.485
429.500	287.679	80.014	20.003	101.027	20.106	5.303	0.473
430.000	287.933	80.015	20.002	101.027	20.103	5.483	0.497
430.500	288.190	80.016	20.003	101.026	20.104	5.470	0.513
431.000	288.431	80.015	20.002	101.026	20.103	5.508	0.504
431.500	288.691	80.015	20.003	101.025	20.106	5.287	0.500
432.000	288.938	80.017	20.003	101.024	20.104	5.462	0.504
432.500	289.160	80.016	20.003	101.023	20.101	5.679	0.488
433.000	289.407	80.017	20.002	101.025	20.101	5.615	0.469
433.500	289.668	80.016	20.002	101.024	20.104	5.457	0.488
434.000	289.914	80.017	20.003	101.025	20.104	5.443	0.508
434.500	290.158	80.017	20.002	101.025	20.101	5.680	0.499
435.000	290.409	80.016	20.002	101.025	20.100	5.742	0.493
435.500	290.644	80.017	20.002	101.025	20.101	5.632	0.490
436.000	290.899	80.016	20.002	101.025	20.103	5.472	0.488
436.500	291.149	80.017	20.002	101.021	20.103	5.535	0.497
437.000	291.427	80.015	20.003	101.020	20.101	5.675	0.517
437.500	291.660	80.016	20.002	101.021	20.099	5.773	0.519
438.000	291.913	80.016	20.002	101.020	20.099	5.769	0.498
438.500	292.170	80.016	20.003	101.019	20.101	5.642	0.498
439.000	292.438	80.014	20.002	101.022	20.102	5.581	0.517
439.500	292.641	80.016	20.002	101.025	20.101	5.640	0.498
440.000	292.911	80.016	20.002	101.027	20.099	5.798	0.472
440.500	293.179	80.015	20.002	101.027	20.101	5.664	0.505
441.000	293.424	80.015	20.003	101.028	20.103	5.497	0.526
441.500	293.679	80.015	20.003	101.028	20.103	5.472	0.507
442.000	293.938	80.015	20.002	101.024	20.102	5.603	0.507
442.500	294.190	80.014	20.003	101.021	20.099	5.813	0.512
443.000	294.428	80.014	20.003	101.021	20.103	5.514	0.500
443.500	294.682	80.014	20.003	101.021	20.103	5.514	0.491
444.000	294.890	80.013	20.004	101.021	20.101	5.661	0.477
444.500	295.182	80.014	20.003	101.023	20.098	5.866	0.481
445.000	295.413	80.013	20.003	101.025	20.100	5.724	0.511
445.500	295.688	80.015	20.003	101.025	20.099	5.771	0.514
446.000	295.920	80.013	20.004	101.025	20.100	5.687	0.507
446.500	296.142	80.013	20.004	101.024	20.097	5.891	0.481
447.000	296.387	80.013	20.004	101.021	20.102	5.607	0.460
447.500	296.675	80.013	20.003	101.022	20.100	5.686	0.500
448.000	296.932	80.015	20.003	101.021	20.097	5.899	0.539
448.500	297.176	80.014	20.004	101.022	20.102	5.577	0.523
449.000	297.409	80.014	20.003	101.023	20.099	5.771	0.489
449.500	297.682	80.013	20.003	101.027	20.099	5.809	0.492
450.000	297.949	80.013	20.003	101.027	20.099	5.752	0.523
450.500	298.169	80.014	20.003	101.028	20.099	5.811	0.513
451.000	298.386	80.013	20.003	101.028	20.098	5.866	0.462
451.500	298.669	80.013	20.003	101.029	20.098	5.866	0.469
452.000	298.928	80.013	20.003	101.027	20.096	6.026	0.521
452.500	299.147	80.012	20.004	101.027	20.094	6.162	0.510
453.000	299.429	80.013	20.003	101.028	20.095	6.087	0.489
453.500	299.650	80.013	20.003	101.028	20.096	5.965	0.502
454.000	299.933	80.014	20.003	101.028	20.093	6.224	0.504
454.500	300.194	80.014	20.004	101.028	20.092	6.272	0.524
455.000	300.418	80.012	20.002	101.028	20.092	6.293	0.514
455.500	300.668	80.014	20.003	101.029	20.094	6.156	0.479
456.000	300.908	80.013	20.003	101.028	20.094	6.116	0.482
456.500	301.179	80.014	20.003	101.029	20.093	6.234	0.501
457.000	301.443	80.014	20.002	101.029	20.090	6.415	0.524
457.500	301.689	80.014	20.003	101.029	20.094	6.110	0.522
458.000	301.946	80.013	20.003	101.030	20.094	6.133	0.506
458.500	302.184	80.014	20.003	101.030	20.091	6.352	0.499
459.000	302.425	80.013	20.003	101.030	20.091	6.381	0.487
459.500	302.666	80.014	20.003	101.030	20.092	6.245	0.481
460.000	302.963	80.014	20.003	101.029	20.093	6.205	0.510
460.500	303.184	80.014	20.002	101.028	20.090	6.432	0.528
461.000	303.471	80.015	20.002	101.027	20.090	6.384	0.513
461.500	303.696	80.015	20.003	101.027	20.089	6.470	0.510
462.000	303.962	80.015	20.002	101.027	20.094	6.144	0.501
462.500	304.235	80.015	20.002	101.028	20.089	6.485	0.515
463.000	304.461	80.014	20.003	101.028	20.091	6.318	0.520
463.500	304.705	80.015	20.002	101.029	20.088	6.582	0.485
464.000	304.959	80.014	20.003	101.029	20.089	6.493	0.484
464.500	305.178	80.014	20.003	101.029	20.088	6.548	0.485
465.000	305.403	80.015	20.002	101.029	20.088	6.532	0.458
465.500	305.665	80.014	20.003	101.029	20.089	6.456	0.465
466.000	305.940	80.016	20.004	101.029	20.090	6.440	0.512
466.500	306.180	80.014	20.003	101.029	20.091	6.358	0.526
467.000	306.437	80.015	20.003	101.029	20.085	6.743	0.506
467.500	306.673	80.013	20.002	101.029	20.088	6.541	0.495
468.000	306.959	80.014	20.004	101.029	20.090	6.424	0.508
468.500	307.157	80.013	20.003	101.030	20.087	6.642	0.504
469.000	307.451	80.014	20.003	101.030	20.083	6.885	0.488
469.500	307.709	80.013	20.004	101.030	20.086	6.670	0.522
470.000	307.943	80.013	20.003	101.030	20.088	6.573	0.522
470.500	308.173	80.014	20.004	101.029	20.087	6.649	0.478
471.000	308.425	80.012	20.002	101.029	20.087	6.622	0.473
471.500	308.709	80.014	20.003	101.028	20.086	6.712	0.509
472.000	308.941	80.015	20.004	101.029	20.082	6.978	0.526
472.500	309.209	80.013	20.003	101.028	20.081	7.077	0.508
473.000	309.459	80.014	20.003	101.029	20.084	6.860	0.509
473.500	309.720	80.014	20.005	101.029	20.084	6.841	0.515
474.000	309.958	80.014	20.003	101.029	20.083	6.928	0.505
474.500	310.222	80.014	20.004	101.028	20.081	7.075	0.500
475.000	310.478	80.014	20.003	101.026	20.081	7.030	0.511
475.500	310.708	80.012	20.001	101.024	20.079	7.218	0.503
476.000	310.967	80.011	20.000	101.019	20.082	7.009	0.488
476.500	311.225	80.000	19.998	101.013	20.080	7.148	0.503
477.000	311.496	79.995	19.998	101.007	20.081	7.026	0.523
477.500	311.768	79.994	19.999	101.006	20.079	7.180	0.536
478.000	312.003	79.995	19.997	101.003	20.078	7.227	0.525
478.500	312.256	79.994	19.997	100.999	20.075	7.456	0.497
479.000	312.513	79.993	19.996	100.999	20.079	7.182	0.499
479.500	312.778	79.993	19.997	101.000	20.078	7.220	0.516
480.000	313.034	79.994	19.998	100.999	20.079	7.163	0.522
480.500	313.338	79.994	19.997	100.998	20.083	6.913	0.540
481.000	313.546	79.995	19.997	100.999	20.080	7.106	0.536
481.501	313.762	79.994	19.995	100.999	20.080	7.081	0.468
482.000	314.053	79.994	19.998	100.998	20.077	7.323	0.465
482.500	314.263	79.996	19.997	100.997	20.079	7.205	0.504
483.000	314.536	79.995	19.996	100.993	20.077	7.352	0.492
483.500	314.839	79.997	19.996	100.992	20.075	7.433	0.530
484.000	315.074	79.994	19.995	100.992	20.075	7.448	0.557
484.500	315.309	79.996	19.997	100.989	20.071	7.759	0.504
485.000	315.532	79.996	19.996	100.991	20.075	7.452	0.464
485.500	315.814	79.996	19.997	100.994	20.073	7.606	0.481
486.000	316.048	79.995	19.997	100.995	20.074	7.520	0.511
486.500	316.309	79.996	19.997	100.999	20.071	7.741	0.506
487.000	316.579	79.995	19.996	101.000	20.071	7.770	0.513
487.500	316.802	79.996	19.997	100.997	20.074	7.555	0.512
488.000	317.070	79.997	19.995	100.993	20.071	7.736	0.492
488.500	317.328	79.996	19.996	100.993	20.075	7.485	0.509
489.000	317.534	79.997	19.996	100.990	20.072	7.660	0.495
489.500	317.817	79.997	19.998	100.990	20.073	7.627	0.476
490.000	318.068	79.997	19.995	100.990	20.071	7.732	0.511
490.500	318.298	79.996	19.996	100.990	20.072	7.699	0.508
491.000	318.580	79.997	19.996	100.989	20.071	7.772	0.497
491.500	318.791	79.998	19.995	100.990	20.071	7.722	0.502
492.000	319.031	79.997	19.997	100.995	20.074	7.566	0.472
492.500	319.304	79.998	19.995	100.996	20.069	7.878	0.482
493.000	319.589	79.996	19.996	100.996	20.064	8.251	0.535
493.500	319.839	79.997	19.996	100.995	20.067	8.051	0.547
494.000	320.065	79.998	19.996	100.996	20.063	8.335	0.506
494.500	320.339	79.997	19.996	100.991	20.065	8.185	0.488
495.000	320.604	79.998	19.996	100.990	20.072	7.669	0.519
495.500	320.884	79.998	19.997	100.990	20.077	7.301	0.542
496.000	321.144	79.997	19.997	100.990	20.070	7.846	0.543
496.500	321.386	79.997	19.996	100.988	20.068	7.970	0.521
497.000	321.615	79.997	19.996	100.986	20.068	7.989	0.486
497.500	321.829	79.996	19.994	100.988	20.066	8.076	0.457
498.000	322.114	79.996	19.996	100.987	20.065	8.168	0.471
498.500	322.323	79.995	19.996	100.989	20.066	8.082	0.496
499.000	322.588	79.997	19.995	100.994	20.066	8.101	0.484
499.500	322.849	79.996	19.996	100.994	20.065	8.172	0.500
500.000	323.137	79.997	19.996	100.991	20.064	8.227	0.537
500.500	323.291	79.995	19.997	100.991	20.063	8.318	0.495
501.000	323.637	79.997	19.996	100.991	20.065	8.166	0.471
501.500	323.871	79.996	19.998	100.987	20.062	8.364	0.540
502.000	324.095	79.996	19.995	100.987	20.061	8.421	0.519
502.500	324.389	79.996	19.996	100.988	20.059	8.579	0.488
503.000	324.619	79.996	19.997	100.988	20.064	8.268	0.521
503.500	324.856	79.996	19.997	100.988	20.061	8.468	0.496
504.000	325.194	79.995	19.997	100.986	20.061	8.428	0.521
504.500	325.355	79.996	19.997	100.986	20.062	8.400	0.537
505.000	325.627	79.997	19.997	100.987	20.062	8.346	0.466
505.500	325.821	79.996	19.997	100.987	20.061	8.476	0.449
506.000	326.243	79.996	19.997	100.987	20.061	8.432	0.541
506.500	326.167	79.995	19.997	100.987	20.061	8.411	0.481
507.000	326.429	79.995	19.997	100.987	20.061	8.471	0.266
507.500	326.998	79.997	19.997	100.986	20.065	8.195	0.509
508.000	327.101	79.996	19.996	100.986	20.061	8.467	0.752
508.500	327.158	79.997	19.998	100.986	20.059	8.619	0.417
509.000	327.552	79.996	19.996	100.987	20.059	8.596	0.306
509.500	328.072	79.997	19.997	100.988	20.060	8.541	0.682
510.000	328.428	79.996	19.997	100.987	20.059	8.598	0.894
510.500	328.423	79.996	19.996	100.988	20.054	8.923	0.614
511.000	328.723	79.998	19.997	100.988	20.055	8.876	0.323
511.500	328.935	79.998	19.998	100.989	20.054	8.931	0.404
512.000	329.152	79.997	19.997	100.987	20.055	8.859	0.470
512.500	329.397	79.998	19.998	100.988	20.053	9.030	0.445
513.000	329.725	79.998	19.997	100.988	20.053	8.983	0.518
513.500	330.007	79.997	19.996	100.987	20.052	9.066	0.592
514.000	330.179	79.999	19.996	100.986	20.050	9.196	0.532
514.500	330.420	79.999	19.997	100.986	20.051	9.167	0.433
515.000	330.717	79.997	19.996	100.985	20.050	9.190	0.476
515.500	330.934	79.998	19.996	100.985	20.050	9.194	0.527
516.000	331.196	79.997	19.997	100.985	20.049	9.310	0.497
516.500	331.411	79.998	19.995	100.986	20.053	9.000	0.478
517.000	331.682	79.996	19.995	100.985	20.048	9.354	0.481
517.500	331.927	79.997	19.997	100.986	20.047	9.396	0.501
518.000	332.250	80.000	19.999	100.990	20.046	9.472	0.542
518.500	332.494	79.998	19.998	100.991	20.046	9.524	0.568
519.000	332.768	79.997	19.995	100.991	20.042	9.806	0.543
519.500	333.005	79.999	19.996	100.992	20.044	9.649	0.515
520.000	333.236	79.998	19.996	100.991	20.045	9.598	0.489
520.500	333.481	79.997	19.995	100.988	20.040	9.914	0.472
521.000	333.761	79.998	19.995	100.987	20.041	9.878	0.500
521.500	334.040	79.997	19.995	100.986	20.042	9.756	0.542
522.000	334.261	79.995	19.995	100.986	20.038	10.076	0.530
522.500	334.502	79.996	19.997	100.987	20.038	10.034	0.481
523.000	334.795	79.996	19.995	100.987	20.039	9.981	0.498
523.500	334.994	79.997	19.994	100.988	20.037	10.135	0.513
524.000	335.270	79.996	19.994	100.989	20.034	10.302	0.483
524.500	335.488	79.997	19.996	100.989	20.033	10.371	0.484
525.000	335.766	79.996	19.995	100.989	20.033	10.430	0.495
525.500	336.009	79.995	19.994	100.989	20.035	10.238	0.508
526.000	336.266	79.996	19.995	100.989	20.036	10.225	0.511
526.500	336.527	79.995	19.995	100.990	20.035	10.267	0.509
527.000	336.747	79.995	19.995	100.990	20.033	10.433	0.500
527.500	337.000	79.995	19.996	100.990	20.033	10.398	0.477
528.000	337.245	79.994	19.995	100.990	20.031	10.531	0.485
528.500	337.495	79.996	19.996	100.991	20.034	10.354	0.497
529.000	337.747	79.995	19.995	100.991	20.030	10.586	0.498
529.500	337.993	79.995	19.995	100.992	20.029	10.679	0.499
530.000	338.267	79.994	19.996	100.993	20.028	10.725	0.509
530.500	338.514	79.995	19.996	100.993	20.027	10.807	0.521
531.000	338.739	79.994	19.995	100.993	20.027	10.798	0.496
531.500	338.982	79.995	19.995	100.992	20.026	10.905	0.470
532.000	339.249	79.995	19.996	100.992	20.024	11.038	0.489
532.500	339.469	79.994	19.996	100.990	20.024	11.017	0.498
533.000	339.728	79.995	19.995	100.991	20.027	10.858	0.483
533.500	339.980	79.995	19.996	100.991	20.024	11.068	0.495
534.000	340.249	79.995	19.995	100.991	20.022	11.158	0.516
534.500	340.497	79.994	19.995	100.991	20.022	11.170	0.519
535.000	340.768	79.996	19.995	100.991	20.020	11.317	0.518
535.500	340.965	79.994	19.995	100.991	20.024	11.056	0.494
536.000	341.241	79.994	19.996	100.992	20.020	11.305	0.471
536.500	341.466	79.994	19.995	100.996	20.021	11.253	0.487
537.000	341.693	79.994	19.995	100.999	20.019	11.354	0.476
537.500	341.988	79.995	19.996	100.999	20.015	11.675	0.487
538.000	342.265	79.995	19.996	100.999	20.016	11.577	0.547
538.500	342.482	79.995	19.994	100.997	20.015	11.693	0.533
539.000	342.726	79.994	19.995	100.994	20.013	11.831	0.477
539.500	342.975	79.995	19.996	100.991	20.014	11.755	0.477
540.000	343.239	79.995	19.995	100.990	20.013	11.800	0.503
540.500	343.494	79.995	19.995	100.990	20.012	11.893	0.516
541.000	343.759	79.995	19.996	100.991	20.013	11.812	0.519
541.500	343.986	79.995	19.995	100.992	20.009	12.099	0.506
542.000	344.198	79.994	19.995	100.995	20.009	12.052	0.466
542.500	344.475	79.997	19.997	100.997	20.003	12.516	0.464
543.000	344.733	80.011	19.999	100.998	20.006	12.305	0.512
543.500	344.973	80.014	20.001	101.002	20.004	12.463	0.517
544.000	345.185	80.013	20.002	101.008	20.003	12.476	0.475
544.500	345.473	80.013	20.003	101.013	20.004	12.411	0.476
545.000	345.691	80.013	20.003	101.019	20.002	12.558	0.503
545.500	345.961	80.016	20.004	101.023	20.003	12.509	0.496
546.000	346.221	80.015	20.004	101.025	19.999	12.787	0.509
546.500	346.496	80.014	20.004	101.024	20.001	12.659	0.533
547.000	346.729	80.016	20.002	101.018	20.000	12.684	0.522
547.500	346.955	80.012	20.003	101.012	19.999	12.787	0.483
548.000	347.237	80.001	20.001	101.010	20.001	12.621	0.483
548.500	347.490	79.996	20.000	101.003	19.996	12.993	0.522
549.000	347.713	79.996	19.999	100.998	19.997	12.917	0.506
549.500	347.969	79.995	19.999	100.996	19.997	12.954	0.477
550.000	348.216	79.996	19.996	100.993	19.993	13.190	0.490
550.500	348.507	79.995	19.996	100.988	19.991	13.318	0.520
551.000	348.713	79.995	19.997	100.987	19.988	13.548	0.518
551.500	349.001	79.996	19.995	100.986	19.989	13.506	0.496
552.000	349.266	79.997	19.995	100.986	19.987	13.598	0.524
552.500	349.514	79.996	19.995	100.987	19.987	13.596	0.533
553.000	349.728	79.996	19.996	100.988	19.987	13.609	0.487
553.500	349.990	79.996	19.995	100.987	19.988	13.555	0.469
554.000	350.235	79.995	19.995	100.987	19.983	13.912	0.492
554.500	350.520	79.997	19.997	100.987	19.983	13.888	0.519
555.000	350.715	79.997	19.995	100.987	19.982	13.945	0.505
555.500	351.011	79.997	19.996	100.988	19.981	14.063	0.485
556.000	351.213	79.995	19.996	100.987	19.979	14.164	0.494
556.500	351.463	79.995	19.996	100.988	19.977	14.310	0.476
557.000	351.743	79.996	19.995	100.988	19.975	14.452	0.491
557.500	351.980	79.996	19.995	100.989	19.971	14.734	0.523
558.000	352.218	79.996	19.996	100.988	19.973	14.631	0.496
558.500	352.504	79.996	19.995	100.990	19.972	14.654	0.499
559.000	352.771	79.996	19.996	100.991	19.972	14.666	0.539
559.500	353.008	79.995	19.995	100.992	19.966	15.065	0.528
560.000	353.266	79.996	19.995	100.992	19.964	15.225	0.499
560.500	353.547	79.996	19.995	100.991	19.969	14.856	0.517
561.000	353.816	79.995	19.994	100.989	19.962	15.343	0.545
561.500	354.048	79.996	19.996	100.988	19.964	15.241	0.526
562.000	354.323	79.995	19.995	100.986	19.960	15.500	0.504
562.500	354.572	79.995	19.995	100.987	19.960	15.540	0.515
563.000	354.813	79.995	19.995	100.987	19.957	15.755	0.507
563.500	355.036	79.996	19.996	100.987	19.956	15.820	0.477
564.000	355.296	79.996	19.996	100.987	19.952	16.111	0.474
564.500	355.553	79.995	19.996	100.982	19.951	16.158	0.500
565.000	355.799	79.995	19.995	100.978	19.951	16.143	0.510
565.500	356.023	79.996	19.996	100.978	19.951	16.120	0.487
566.000	356.306	79.996	19.996	100.978	19.950	16.249	0.489
566.500	356.538	79.996	19.996	100.978	19.945	16.531	0.511
567.000	356.789	79.996	19.996	100.983	19.942	16.764	0.499
567.500	357.047	79.995	19.995	100.987	19.942	16.748	0.497
568.000	357.306	79.996	19.996	100.987	19.941	16.825	0.513
568.500	357.566	79.998	19.995	100.987	19.942	16.806	0.518
569.000	357.794	79.997	19.996	100.987	19.935	17.263	0.503
569.500	358.042	79.997	19.996	100.987	19.937	17.144	0.482
570.000	358.300	79.996	19.995	100.987	19.934	17.308	0.492
570.500	358.552	79.997	19.996	100.986	19.936	17.213	0.508
571.000	358.769	79.996	19.995	100.986	19.931	17.529	0.489
571.500	359.051	79.996	19.996	100.987	19.930	17.582	0.483
572.000	359.307	79.997	19.996	100.987	19.928	17.761	0.518
572.500	359.534	79.995	19.996	100.987	19.925	17.969	0.511
573.000	359.825	79.996	19.996	100.988	19.922	18.205	0.501
573.500	360.072	79.996	19.997	100.987	19.922	18.157	0.528
574.000	360.297	79.998	19.995	100.989	19.922	18.173	0.505
574.500	360.559	79.996	19.996	100.990	19.915	18.677	0.480
575.000	360.854	79.998	19.996	100.989	19.915	18.675	0.522
575.500	361.085	79.998	19.996	100.988	19.916	18.620	0.542
576.000	361.318	79.998	19.996	100.988	19.913	18.790	0.495
576.500	361.568	79.997	19.996	100.985	19.908	19.134	0.473
577.000	361.810	79.997	19.996	100.984	19.907	19.252	0.488
577.500	362.072	79.997	19.996	100.985	19.905	19.399	0.498
578.000	362.331	79.996	19.998	100.986	19.904	19.452	0.512
578.500	362.567	79.996	19.996	100.987	19.905	19.397	0.508
579.000	362.817	79.997	19.996	100.988	19.900	19.711	0.491
579.500	363.059	79.995	19.996	100.988	19.899	19.774	0.489
580.000	363.341	79.997	19.996	100.988	19.895	20.063	0.508
580.500	363.547	79.995	19.996	100.986	19.893	20.194	0.506
581.000	363.790	79.996	19.996	100.987	19.893	20.173	0.468
581.500	364.065	79.997	19.995	100.987	19.893	20.199	0.483
582.000	364.308	79.997	19.996	100.987	19.891	20.339	0.518
582.500	364.578	79.995	19.996	100.988	19.889	20.515	0.516
583.000	364.836	79.995	19.996	100.988	19.885	20.792	0.521
583.500	365.068	79.995	19.995	100.987	19.883	20.891	0.509
584.000	365.291	79.996	19.995	100.987	19.881	21.078	0.473
584.500	365.575	79.997	19.996	100.987	19.879	21.196	0.481
585.000	365.840	79.996	19.995	100.988	19.876	21.422	0.528
585.500	366.077	79.996	19.995	100.988	19.873	21.592	0.525
586.000	366.337	79.996	19.996	100.988	19.874	21.571	0.499
586.500	366.572	79.995	19.995	100.989	19.871	21.718	0.496
587.000	366.827	79.996	19.995	100.989	19.866	22.089	0.492
587.500	367.106	79.997	19.994	100.989	19.865	22.133	0.512
588.000	367.333	79.997	19.995	100.989	19.862	22.397	0.520
588.500	367.581	79.996	19.995	100.989	19.860	22.512	0.491
589.000	367.830	79.997	19.996	100.988	19.857	22.748	0.486
589.500	368.126	79.999	19.996	100.989	19.855	22.891	0.521
590.000	368.395	79.997	19.995	100.987	19.853	22.988	0.555
590.500	368.588	79.998	19.995	100.987	19.852	23.081	0.514
591.000	368.877	79.996	19.996	100.987	19.853	23.037	0.472
591.500	369.118	79.996	19.994	100.987	19.847	23.444	0.505
592.000	369.380	79.996	19.996	100.987	19.843	23.718	0.516
592.500	369.645	79.997	19.995	100.988	19.839	23.954	0.515
593.000	369.901	79.998	19.995	100.988	19.837	24.150	0.524
593.500	370.110	79.997	19.996	100.988	19.832	24.476	0.493
594.000	370.364	79.996	19.995	100.988	19.832	24.468	0.464
594.500	370.652	79.997	19.996	100.987	19.831	24.569	0.503
595.000	370.869	79.996	19.996	100.987	19.826	24.903	0.524
595.500	371.156	79.997	19.996	100.988	19.822	25.160	0.504
596.000	371.417	79.998	19.995	100.987	19.822	25.209	0.526
596.500	371.641	79.998	19.996	100.988	19.814	25.771	0.516
597.000	371.902	79.997	19.997	100.988	19.814	25.740	0.485
597.500	372.191	79.998	19.996	100.988	19.811	25.973	0.518
598.000	372.422	79.998	19.996	100.987	19.807	26.223	0.535
598.500	372.696	79.997	19.994	100.988	19.803	26.483	0.512
599.000	372.963	79.997	19.996	100.988	19.805	26.371	0.523
599.500	373.190	79.998	19.996	100.987	19.801	26.648	0.518
600.000	373.447	79.996	19.996	100.987	19.802	26.561	0.489
600.500	373.722	79.997	19.995	100.988	19.799	26.774	0.508
601.000	373.960	79.998	19.996	100.988	19.795	27.096	0.522
601.500	374.213	79.997	19.995	100.988	19.791	27.357	0.502
602.000	374.458	79.997	19.996	100.988	19.790	27.449	0.495
602.500	374.699	79.997	19.996	100.987	19.789	27.451	0.492
603.000	374.968	79.997	19.995	100.985	19.787	27.660	0.498
603.500	375.233	79.996	19.995	100.984	19.785	27.741	0.522
604.000	375.445	79.995	19.994	100.984	19.780	28.096	0.505
604.500	375.727	79.996	19.996	100.984	19.779	28.200	0.485
605.000	375.987	79.997	19.996	100.985	19.776	28.425	0.518
605.500	376.243	79.996	19.996	100.986	19.774	28.528	0.529
606.000	376.488	79.996	19.997	100.988	19.771	28.755	0.509
606.500	376.739	79.996	19.995	100.987	19.767	29.035	0.499
607.000	377.021	79.995	19.996	100.987	19.767	29.041	0.514
607.500	377.219	79.996	19.996	100.987	19.764	29.225	0.507
608.000	377.463	79.995	19.995	100.986	19.759	29.622	0.461
608.500	377.724	79.995	19.996	100.982	19.757	29.726	0.473
609.000	377.952	79.996	19.995	100.982	19.756	29.786	0.497
609.500	378.216	79.995	19.995	100.982	19.750	30.194	0.491
610.000	378.421	79.997	19.996	100.979	19.746	30.497	0.480
610.500	378.719	79.995	19.997	100.979	19.745	30.544	0.486
611.000	378.937	79.996	19.996	100.979	19.741	30.863	0.510
611.500	379.179	79.995	19.997	100.977	19.741	30.824	0.488
612.000	379.456	79.995	19.996	100.973	19.738	31.032	0.489
612.500	379.719	79.994	19.996	100.974	19.732	31.500	0.529
613.000	379.967	79.995	19.996	100.975	19.730	31.600	0.525
613.500	380.265	79.996	19.995	100.976	19.729	31.665	0.529
614.000	380.462	79.996	19.998	100.975	19.724	32.046	0.520
614.500	380.753	79.995	19.995	100.979	19.721	32.249	0.491
615.000	380.983	79.995	19.996	100.980	19.716	32.600	0.505
615.500	381.244	79.995	19.995	100.978	19.713	32.813	0.506
616.000	381.506	79.994	19.995	100.981	19.710	33.015	0.507
616.500	381.769	79.996	19.995	100.982	19.708	33.179	0.524
617.000	381.992	79.996	19.995	100.983	19.705	33.387	0.505
617.500	382.294	79.997	19.996	100.982	19.703	33.515	0.505
618.000	382.517	79.996	19.994	100.984	19.700	33.726	0.525
618.500	382.801	79.996	19.997	100.984	19.699	33.805	0.516
619.000	383.043	79.996	19.995	100.985	19.692	34.253	0.517
619.500	383.321	79.996	19.995	100.982	19.690	34.399	0.523
620.000	383.578	79.995	19.995	100.979	19.689	34.485	0.527
620.500	383.778	79.995	19.995	100.976	19.685	34.733	0.496
621.000	384.044	79.995	19.996	100.977	19.684	34.830	0.461
621.500	384.293	79.996	19.995	100.974	19.679	35.195	0.490
622.000	384.541	79.996	19.994	100.977	19.677	35.290	0.506
622.500	384.834	79.995	19.995	100.980	19.674	35.507	0.519
623.000	385.098	79.997	19.994	100.983	19.671	35.763	0.549
623.500	385.317	79.997	19.996	100.982	19.672	35.681	0.520
624.000	385.551	79.997	19.996	100.984	19.665	36.189	0.468
624.500	385.796	79.997	19.995	100.981	19.661	36.427	0.466
625.000	386.065	79.996	19.994	100.980	19.659	36.619	0.497
625.500	386.329	79.996	19.995	100.980	19.656	36.802	0.523
626.000	386.579	79.997	19.996	100.981	19.650	37.210	0.524
626.500	386.818	79.995	19.995	100.980	19.648	37.374	0.502
627.000	387.047	79.996	19.995	100.979	19.644	37.644	0.478
627.500	387.311	79.996	19.996	100.980	19.643	37.727	0.480
628.000	387.566	79.998	19.996	100.978	19.636	38.163	0.506
628.500	387.778	79.997	19.995	100.978	19.637	38.150	0.493
629.000	388.074	79.996	19.994	100.977	19.630	38.633	0.487
629.500	388.311	79.996	19.996	100.979	19.627	38.788	0.520
630.000	388.564	79.997	19.995	100.976	19.627	38.804	0.511
630.500	388.829	79.997	19.997	100.971	19.620	39.294	0.504
631.000	389.076	79.996	19.995	100.964	19.618	39.480	0.515
631.500	389.346	79.996	19.995	100.962	19.618	39.427	0.515
632.000	389.573	79.997	19.996	100.957	19.610	39.995	0.507
632.500	389.854	79.995	19.995	100.953	19.610	40.029	0.502
633.000	390.093	79.997	19.995	100.958	19.605	40.352	0.514
633.500	390.363	79.996	19.995	100.960	19.604	40.401	0.515
634.000	390.589	79.996	19.996	100.961	19.601	40.653	0.502
634.500	390.866	79.996	19.995	100.965	19.598	40.847	0.500
635.000	391.114	79.996	19.995	100.971	19.592	41.249	0.514
635.500	391.371	79.996	19.997	100.972	19.588	41.541	0.515
636.000	391.627	79.996	19.996	100.977	19.584	41.822	0.509
636.500	391.901	79.996	19.995	100.976	19.583	41.878	0.521
637.000	392.147	79.995	19.996	100.977	19.579	42.190	0.525
637.500	392.372	79.996	19.996	100.979	19.576	42.409	0.496
638.000	392.631	79.995	19.995	100.978	19.571	42.778	0.478
638.500	392.910	79.997	19.995	100.977	19.571	42.769	0.511
639.000	393.168	79.995	19.995	100.977	19.567	43.035	0.537
639.500	393.392	79.997	19.996	100.972	19.561	43.425	0.510
640.001	393.654	79.995	19.996	100.966	19.558	43.624	0.484
640.501	393.929	79.996	19.995	100.962	19.556	43.789	0.512
641.000	394.170	79.997	19.997	100.956	19.551	44.113	0.527
641.500	394.455	79.995	19.996	100.958	19.547	44.415	0.520
642.000	394.717	79.996	19.996	100.956	19.543	44.680	0.536
642.500	394.948	79.995	19.996	100.957	19.539	44.981	0.520
643.000	395.208	79.993	19.996	100.958	19.538	45.059	0.492
643.500	395.452	79.995	19.996	100.958	19.538	45.062	0.498
644.000	395.704	79.995	19.996	100.957	19.530	45.573	0.500
644.500	395.985	79.997	19.995	100.960	19.526	45.923	0.514
645.000	396.222	79.996	19.996	100.957	19.522	46.194	0.525
645.500	396.493	79.996	19.995	100.957	19.519	46.354	0.513
646.000	396.715	79.995	19.996	100.958	19.515	46.656	0.500
646.500	397.011	79.995	19.996	100.956	19.511	46.927	0.505
647.000	397.213	79.995	19.996	100.959	19.510	46.986	0.508
647.500	397.484	79.995	19.996	100.965	19.508	47.172	0.485
648.000	397.719	79.995	19.996	100.969	19.508	47.142	0.490
648.500	397.945	79.994	19.996	100.970	19.499	47.753	0.484
649.000	398.201	79.995	19.996	100.968	19.497	47.905	0.471
649.500	398.485	79.995	19.996	100.964	19.490	48.371	0.511
650.000	398.701	79.996	19.995	100.959	19.491	48.339	0.520
650.500	398.976	79.997	19.996	100.955	19.486	48.654	0.495
651.000	399.227	79.997	19.995	100.952	19.482	48.954	0.508
651.500	399.496	79.997	19.995	100.952	19.480	49.082	0.523
652.000	399.752	79.997	19.994	100.953	19.474	49.535	0.523
652.500	400.042	79.996	19.994	100.956	19.472	49.638	0.536
653.000	400.261	79.997	19.996	100.957	19.468	49.929	0.527
653.500	400.531	79.998	19.996	100.957	19.463	50.290	0.499
654.000	400.743	79.998	19.996	100.956	19.458	50.672	0.485
654.500	401.046	79.996	19.996	100.954	19.454	50.922	0.498
655.000	401.275	79.998	19.996	100.953	19.452	51.076	0.523
655.500	401.535	79.996	19.996	100.957	19.448	51.338	0.510
656.000	401.755	79.997	19.994	100.962	19.448	51.359	0.484
656.500	401.959	79.996	19.995	100.966	19.441	51.816	0.452
657.000	402.258	79.998	19.995	100.966	19.435	52.242	0.464
657.500	402.506	79.999	19.996	100.964	19.434	52.322	0.525
658.000	402.752	79.998	19.995	100.959	19.434	52.316	0.521
658.500	402.983	79.997	19.994	100.954	19.425	52.923	0.485
659.000	403.273	79.997	19.994	100.950	19.424	53.058	0.499
659.500	403.528	79.997	19.996	100.951	19.416	53.575	0.533
660.000	403.775	79.996	19.995	100.951	19.413	53.769	0.524
660.500	404.027	79.998	19.996	100.950	19.410	54.002	0.501
661.000	404.264	79.997	19.996	100.951	19.407	54.187	0.494
661.500	404.535	79.998	19.996	100.951	19.404	54.430	0.499
662.000	404.812	79.997	19.997	100.951	19.397	54.884	0.529
662.500	405.056	79.996	19.997	100.952	19.393	55.216	0.535
663.000	405.273	79.996	19.995	100.952	19.393	55.194	0.491
663.500	405.508	79.996	19.996	100.951	19.384	55.798	0.456
664.000	405.748	79.996	19.995	100.951	19.381	56.025	0.464
664.500	406.058	79.998	19.996	100.951	19.377	56.341	0.513
665.000	406.267	79.996	19.996	100.950	19.371	56.692	0.535
665.500	406.554	79.997	19.996	100.950	19.369	56.888	0.508
666.000	406.799	79.997	19.998	100.950	19.361	57.419	0.514
666.500	407.012	79.996	19.996	100.949	19.364	57.243	0.494
667.000	407.276	79.996	19.996	100.949	19.357	57.736	0.467
667.500	407.543	79.996	19.996	100.949	19.350	58.157	0.504
668.000	407.807	79.997	19.997	100.949	19.348	58.294	0.531
668.500	408.035	79.996	19.995	100.949	19.347	58.421	0.511
669.000	408.325	79.995	19.995	100.949	19.339	58.975	0.505
669.500	408.534	79.995	19.995	100.948	19.336	59.170	0.508
670.000	408.759	79.997	19.995	100.949	19.329	59.629	0.467
670.500	409.040	79.995	19.995	100.947	19.326	59.850	0.470
671.000	409.307	79.995	19.996	100.947	19.323	60.061	0.527
671.500	409.554	79.995	19.996	100.942	19.315	60.605	0.530
672.000	409.791	79.996	19.996	100.942	19.309	61.072	0.499
672.500	410.020	79.995	19.996	100.942	19.307	61.181	0.475
673.000	410.259	79.995	19.996	100.943	19.301	61.593	0.467
673.500	410.524	79.996	19.995	100.945	19.299	61.770	0.486
674.000	410.777	79.996	19.995	100.950	19.292	62.239	0.511
674.500	411.045	79.997	19.996	100.948	19.291	62.335	0.520
675.000	411.244	79.996	19.995	100.942	19.284	62.833	0.494
675.500	411.506	79.998	19.995	100.935	19.282	62.948	0.464
676.000	411.775	79.997	19.995	100.933	19.276	63.377	0.496
676.500	412.010	79.998	19.995	100.933	19.269	63.830	0.518
677.000	412.246	79.997	19.994	100.930	19.262	64.330	0.488
677.500	412.486	79.998	19.995	100.932	19.258	64.588	0.473
678.000	412.763	79.997	19.995	100.931	19.252	65.047	0.497
678.500	412.979	79.997	19.995	100.927	19.247	65.368	0.505
679.000	413.237	79.998	19.995	100.919	19.242	65.723	0.483
679.500	413.469	79.998	19.996	100.919	19.240	65.906	0.482
680.000	413.726	79.998	19.995	100.916	19.234	66.302	0.489
680.500	413.972	79.998	19.995	100.917	19.231	66.488	0.496
681.000	414.212	79.999	19.995	100.918	19.223	67.038	0.494
681.500	414.473	79.999	19.996	100.919	19.219	67.376	0.494
682.000	414.749	79.997	19.995	100.916	19.213	67.772	0.519
682.500	414.980	79.998	19.995	100.919	19.206	68.243	0.522
683.000	415.169	79.999	19.995	100.919	19.202	68.573	0.464
683.500	415.425	79.997	19.995	100.918	19.198	68.849	0.433
684.000	415.681	79.997	19.995	100.916	19.192	69.272	0.478
684.500	415.903	79.997	19.995	100.916	19.188	69.538	0.495
685.000	416.179	79.997	19.996	100.912	19.180	70.074	0.488
685.500	416.407	79.997	19.996	100.909	19.179	70.153	0.501
686.000	416.645	79.999	19.996	100.909	19.174	70.506	0.485
686.500	416.909	79.999	19.994	100.911	19.165	71.094	0.484
687.000	417.134	79.998	19.997	100.912	19.164	71.216	0.495
687.500	417.375	79.997	19.995	100.912	19.157	71.678	0.477
688.000	417.641	79.996	19.995	100.912	19.152	72.028	0.486
688.500	417.912	79.997	19.995	100.911	19.143	72.694	0.522
689.000	418.171	79.997	19.996	100.909	19.141	72.774	0.534
689.500	418.393	79.997	19.996	100.908	19.138	72.974	0.506
690.000	418.651	79.997	19.995	100.907	19.131	73.495	0.481
690.500	418.910	79.997	19.997	100.907	19.129	73.614	0.498
691.000	419.149	79.997	19.996	100.907	19.123	74.037	0.507
691.500	419.378	79.995	19.996	100.907	19.115	74.606	0.483
692.001	419.614	79.995	19.996	100.907	19.111	74.898	0.466
692.501	419.867	79.995	19.996	100.907	19.105	75.305	0.477
693.000	420.136	79.995	19.998	100.907	19.099	75.733	0.505
693.500	420.371	79.996	19.996	100.908	19.092	76.219	0.512
694.000	420.609	79.995	19.998	100.913	19.087	76.599	0.488
694.500	420.876	79.995	19.997	100.913	19.083	76.838	0.489
695.000	421.129	79.995	19.997	100.914	19.075	77.410	0.513
695.500	421.395	79.994	19.998	100.914	19.066	78.061	0.519
696.000	421.648	79.994	19.996	100.913	19.063	78.241	0.519
696.500	421.873	79.995	19.996	100.909	19.055	78.805	0.499
697.000	422.125	79.994	19.997	100.908	19.052	79.004	0.478
697.500	422.336	79.996	19.997	100.907	19.044	79.577	0.470
698.000	422.628	79.993	19.996	100.906	19.041	79.801	0.483
698.500	422.888	79.994	19.997	100.905	19.033	80.313	0.527
699.000	423.154	79.996	19.997	100.904	19.026	80.797	0.539
699.500	423.404	79.995	19.997	100.905	19.019	81.298	0.521
700.000	423.644	79.995	19.997	100.905	19.012	81.825	0.503
700.500	423.907	79.994	19.996	100.900	19.006	82.196	0.496
701.000	424.137	79.995	19.998	100.897	19.000	82.664	0.498
701.500	424.389	79.995	19.997	100.894	18.995	83.013	0.488
702.000	424.656	79.996	19.998	100.893	18.986	83.648	0.501
702.500	424.917	79.995	19.997	100.892	18.981	83.977	0.524
703.000	425.169	79.995	19.998	100.894	18.974	84.438	0.520
703.500	425.416	79.995	19.996	100.894	18.969	84.828	0.506
704.000	425.691	79.995	19.996	100.896	18.961	85.368	0.510
704.500	425.937	79.997	19.997	100.891	18.954	85.864	0.521
705.000	426.211	79.996	19.996	100.887	18.947	86.317	0.520
705.500	426.412	79.996	19.997	100.888	18.942	86.713	0.498
706.000	426.728	79.995	19.995	100.886	18.933	87.312	0.496
706.500	426.944	79.996	19.996	100.879	18.926	87.799	0.525
707.000	427.157	79.996	19.996	100.880	18.920	88.201	0.481
707.500	427.438	79.996	19.997	100.879	18.912	88.786	0.461
708.000	427.689	79.996	19.996	100.876	18.905	89.274	0.513
708.500	427.935	79.997	19.996	100.879	18.894	90.018	0.514
709.000	428.159	79.996	19.995	100.884	18.886	90.579	0.484
709.500	428.419	79.997	19.994	100.884	18.878	91.135	0.477
710.000	428.693	79.995	19.995	100.881	18.875	91.402	0.509
710.500	428.948	79.995	19.996	100.879	18.869	91.785	0.531
711.000	429.190	79.996	19.995	100.875	18.858	92.521	0.513
711.500	429.447	79.997	19.997	100.871	18.853	92.907	0.498
712.000	429.730	79.997	19.996	100.870	18.841	93.716	0.519
712.500	429.965	79.996	19.995	100.872	18.834	94.207	0.529
713.000	430.221	79.997	19.996	100.869	18.830	94.496	0.504
713.500	430.478	79.996	19.995	100.862	18.822	95.030	0.502
714.000	430.696	79.995	19.995	100.863	18.814	95.625	0.494
714.500	430.960	79.996	19.995	100.866	18.808	96.039	0.479
715.000	431.203	79.996	19.994	100.865	18.797	96.829	0.494
715.500	431.437	79.995	19.996	100.869	18.793	97.087	0.492
716.000	431.679	79.995	19.994	100.876	18.783	97.820	0.477
716.500	431.962	79.995	19.995	100.875	18.780	97.993	0.501
717.000	432.219	79.996	19.995	100.873	18.767	98.931	0.532
717.500	432.453	79.995	19.996	100.873	18.762	99.281	0.515
718.000	432.738	79.995	19.996	100.872	18.754	99.812	0.505
718.500	432.952	79.994	19.996	100.873	18.745	100.406	0.509
719.000	433.233	79.996	19.996	100.873	18.735	101.159	0.497
719.500	433.475	79.995	19.997	100.872	18.730	101.458	0.509
720.000	433.742	79.994	19.995	100.873	18.721	102.139	0.516
720.500	433.973	79.994	19.996	100.872	18.712	102.731	0.503
721.000	434.247	79.996	19.995	100.866	18.704	103.276	0.501
721.500	434.500	79.994	19.995	100.858	18.695	103.902	0.516
722.000	434.739	79.995	19.996	100.852	18.687	104.458	0.510
722.500	434.978	79.996	19.996	100.846	18.683	104.789	0.485
723.000	435.243	79.996	19.994	100.843	18.671	105.607	0.491
723.500	435.482	79.994	19.997	100.842	18.663	106.122	0.504
724.000	435.741	79.995	19.994	100.843	18.656	106.673	0.501
724.500	436.006	79.994	19.997	100.841	18.648	107.232	0.511
725.000	436.221	79.997	19.996	100.839	18.637	107.969	0.502
725.500	436.490	79.995	19.996	100.837	18.629	108.524	0.482
726.000	436.761	79.996	19.995	100.842	18.621	109.086	0.512
726.500	436.965	79.995	19.995	100.841	18.611	109.810	0.507
727.000	437.259	79.996	19.995	100.843	18.600	110.536	0.487
727.500	437.473	79.996	19.997	100.842	18.592	111.104	0.503
728.000	437.732	79.994	19.996	100.841	18.586	111.540	0.490
728.500	437.978	79.996	19.996	100.835	18.577	112.159	0.489
729.000	438.199	79.994	19.997	100.834	18.567	112.854	0.487
729.500	438.499	79.996	19.995	100.835	18.559	113.361	0.494
730.000	438.759	79.995	19.996	100.835	18.551	113.950	0.540
730.500	439.004	79.995	19.995	100.836	18.542	114.570	0.532
731.000	439.254	79.996	19.996	100.836	18.533	115.200	0.500
731.500	439.488	79.996	19.997	100.836	18.525	115.781	0.490
732.000	439.743	79.996	19.997	100.835	18.516	116.427	0.487
732.500	440.003	79.996	19.995	100.835	18.509	116.858	0.502
733.000	440.203	79.995	19.996	100.835	18.494	117.926	0.488
733.500	440.478	79.997	19.996	100.833	18.484	118.650	0.468
734.000	440.717	79.996	19.995	100.829	18.477	119.109	0.495
734.500	440.989	79.996	19.996	100.824	18.468	119.713	0.512
735.000	441.230	79.997	19.995	100.818	18.458	120.457	0.512
735.500	441.480	79.997	19.996	100.817	18.453	120.805	0.502
736.000	441.730	79.997	19.995	100.818	18.443	121.489	0.495
736.500	441.963	79.997	19.996	100.820	18.430	122.380	0.491
737.000	442.228	79.998	19.995	100.823	18.421	123.020	0.490
737.500	442.439	79.997	19.994	100.828	18.414	123.529	0.487
738.000	442.704	79.998	19.996	100.825	18.402	124.373	0.476
738.500	442.938	79.997	19.995	100.818	18.397	124.692	0.488
739.000	443.204	79.998	19.996	100.813	18.386	125.481	0.500
739.500	443.470	79.998	19.994	100.807	18.377	126.081	0.516
740.000	443.699	79.996	19.995	100.800	18.369	126.643	0.513
740.500	443.976	79.998	19.994	100.796	18.362	127.116	0.500
741.000	444.210	79.996	19.993	100.796	18.349	127.995	0.509
741.500	444.446	79.998	19.994	100.794	18.350	127.964	0.491
742.000	444.666	79.997	19.994	100.794	18.338	128.812	0.463
742.500	444.923	79.998	19.995	100.793	18.330	129.368	0.466
743.000	445.149	79.997	19.995	100.793	18.319	130.151	0.480
743.500	445.433	79.998	19.995	100.793	18.312	130.591	0.497
744.000	445.695	79.998	19.996	100.793	18.304	131.176	0.528
744.500	445.944	79.999	19.994	100.793	18.296	131.740	0.528
745.000	446.196	79.998	19.995	100.789	18.289	132.240	0.506
745.500	446.390	79.997	19.995	100.783	18.280	132.846	0.473
746.000	446.653	79.997	19.994	100.782	18.272	133.418	0.451
746.500	446.893	79.998	19.995	100.782	18.264	133.962	0.480
747.000	447.127	79.996	19.995	100.781	18.256	134.472	0.489
747.500	447.376	79.996	19.995	100.784	18.246	135.163	0.478
748.000	447.613	79.995	19.996	100.790	18.238	135.780	0.484
748.500	447.870	79.997	19.995	100.789	18.232	136.167	0.490
749.000	448.110	79.997	19.996	100.787	18.224	136.712	0.496
749.500	448.382	79.997	19.994	100.786	18.216	137.281	0.505
750.000	448.590	79.999	19.997	100.780	18.208	137.814	0.496
750.500	448.863	79.997	19.994	100.773	18.203	138.192	0.480
751.000	449.122	79.998	19.996	100.766	18.193	138.863	0.506
751.500	449.359	79.998	19.995	100.761	18.188	139.230	0.514
752.000	449.597	79.996	19.996	100.754	18.180	139.793	0.485
752.500	449.844	79.997	19.994	100.752	18.172	140.357	0.480
753.000	450.103	79.997	19.995	100.752	18.165	140.843	0.496
753.500	450.342	79.996	19.996	100.754	18.161	141.127	0.502
754.000	450.554	79.997	19.995	100.757	18.152	141.709	0.475
754.500	450.822	79.997	19.996	100.757	18.143	142.350	0.466
755.000	451.052	79.996	19.995	100.756	18.138	142.699	0.489
755.500	451.320	79.997	19.996	100.756	18.129	143.350	0.498
756.000	451.589	79.997	19.996	100.754	18.125	143.639	0.517
756.500	451.797	79.997	19.996	100.751	18.121	143.863	0.507
757.000	452.056	79.997	19.995	100.751	18.111	144.614	0.472
757.500	452.337	79.997	19.995	100.750	18.108	144.824	0.504
758.000	452.582	79.996	19.995	100.746	18.099	145.427	0.534
758.500	452.803	79.998	19.996	100.741	18.095	145.685	0.496
759.000	453.044	79.997	19.996	100.740	18.086	146.355	0.464
759.500	453.316	79.998	19.995	100.739	18.079	146.835	0.487
760.000	453.552	79.998	19.998	100.738	18.077	146.968	0.510
760.500	453.791	79.997	19.997	100.737	18.074	147.170	0.491
761.000	454.026	79.998	19.995	100.735	18.065	147.760	0.475
761.500	454.317	79.998	19.996	100.728	18.062	148.009	0.500
762.000	454.553	79.999	19.996	100.722	18.057	148.344	0.527
762.500	454.783	79.999	19.996	100.721	18.053	148.624	0.496
763.000	455.049	79.999	19.996	100.724	18.047	149.063	0.481
763.500	455.321	79.999	19.995	100.728	18.042	149.428	0.517
764.000	455.556	79.999	19.996	100.728	18.040	149.525	0.523
764.500	455.801	80.001	19.996	100.728	18.033	150.049	0.494
765.000	456.095	79.998	19.996	100.727	18.029	150.295	0.510
765.500	456.334	79.999	19.995	100.722	18.025	150.555	0.536
766.000	456.582	79.998	19.995	100.718	18.022	150.793	0.510
766.500	456.842	79.999	19.995	100.718	18.021	150.867	0.497
767.000	457.100	80.000	19.995	100.718	18.017	151.119	0.513
767.500	457.357	79.998	19.995	100.713	18.012	151.476	0.517
768.000	457.591	80.000	19.996	100.710	18.008	151.759	0.503
768.500	457.876	79.998	19.995	100.710	18.003	152.138	0.505
769.000	458.095	79.999	19.995	100.711	18.002	152.209	0.512
769.500	458.387	79.997	19.995	100.711	17.999	152.382	0.507
770.000	458.616	79.997	19.994	100.710	17.994	152.707	0.516
770.500	458.879	79.998	19.995	100.710	17.989	153.074	0.506
771.000	459.145	79.998	19.996	100.711	17.988	153.161	0.511
771.500	459.403	79.998	19.995	100.711	17.986	153.292	0.527
772.000	459.672	79.998	19.995	100.711	17.986	153.282	0.526
772.500	459.923	79.997	19.995	100.711	17.983	153.455	0.523
773.000	460.157	79.996	19.994	100.711	17.982	153.513	0.503
773.500	460.440	79.996	19.996	100.711	17.981	153.627	0.501
774.000	460.682	79.996	19.995	100.711	17.975	154.029	0.521
774.500	461.006	79.997	19.996	100.711	17.979	153.720	0.545
775.000	461.233	79.996	19.996	100.710	17.979	153.720	0.558
775.500	461.488	79.997	19.996	100.706	17.978	153.795	0.517
776.000	461.768	79.995	19.995	100.703	17.981	153.616	0.509
776.500	462.055	79.995	19.996	100.697	17.978	153.859	0.552
777.000	462.313	79.996	19.995	100.693	17.980	153.680	0.556
777.500	462.575	79.996	19.995	100.695	17.979	153.753	0.532
778.000	462.872	79.996	19.996	100.699	17.980	153.702	0.539
778.500	463.118	79.994	19.996	100.702	17.981	153.637	0.551
779.000	463.369	79.996	19.994	100.701	17.983	153.487	0.520
779.500	463.634	79.995	19.997	100.701	17.986	153.238	0.507
780.000	463.893	79.995	19.996	100.701	17.989	153.073	0.520
780.500	464.164	79.996	19.995	100.701	17.989	153.049	0.527
781.000	464.434	79.996	19.996	100.699	17.993	152.752	0.535
781.500	464.689	79.996	19.996	100.699	17.994	152.699	0.532
782.000	464.942	79.995	19.996	100.696	18.001	152.209	0.516
782.500	465.202	79.996	19.995	100.688	18.002	152.152	0.511
783.000	465.472	79.997	19.995	100.680	18.004	151.977	0.522
783.500	465.761	79.995	19.998	100.676	18.008	151.686	0.545
784.000	465.991	79.996	19.995	100.676	18.014	151.280	0.539
784.500	466.294	79.994	19.995	100.676	18.026	150.454	0.526
785.000	466.552	79.994	19.996	100.676	18.028	150.344	0.547
785.500	466.821	79.995	19.996	100.677	18.033	149.964	0.544
786.000	467.062	79.994	19.995	100.679	18.037	149.661	0.519
786.500	467.333	79.995	19.996	100.684	18.045	149.168	0.511
787.000	467.642	79.994	19.996	100.686	18.052	148.624	0.546
787.500	467.912	79.995	19.997	100.688	18.062	147.928	0.579
788.000	468.166	79.995	19.996	100.688	18.070	147.436	0.552
788.500	468.438	79.994	19.996	100.686	18.079	146.789	0.525
789.000	468.691	79.996	19.996	100.682	18.090	146.030	0.525
789.500	468.986	79.996	19.997	100.679	18.095	145.662	0.536
790.000	469.283	79.997	19.997	100.676	18.108	144.756	0.570
790.500	469.543	79.995	19.996	100.676	18.117	144.149	0.575
791.000	469.778	79.994	19.997	100.675	18.129	143.286	0.526
791.500	470.117	79.995	19.996	100.675	18.139	142.594	0.534
792.000	470.347	79.996	19.997	100.676	18.149	141.893	0.571
792.500	470.617	79.997	19.995	100.676	18.163	140.911	0.535
793.000	470.876	79.996	19.997	100.676	18.178	139.850	0.515
793.500	471.174	79.995	19.997	100.675	18.191	138.953	0.543
794.000	471.447	79.995	19.996	100.674	18.207	137.835	0.564
794.500	471.671	79.995	19.996	100.675	18.219	137.022	0.534
795.000	471.989	79.996	19.997	100.675	18.235	135.886	0.519
795.500	472.282	79.995	19.995	100.675	18.251	134.784	0.577
796.000	472.487	79.996	19.996	100.675	18.267	133.639	0.555
796.500	472.790	79.995	19.996	100.676	18.285	132.445	0.503
797.000	473.063	79.995	19.997	100.675	18.300	131.405	0.541
797.500	473.387	79.996	19.997	100.677	18.315	130.341	0.587
798.000	473.672	79.996	19.996	100.677	18.338	128.767	0.603
798.500	473.956	79.996	19.997	100.679	18.354	127.618	0.589
799.000	474.218	79.994	19.996	100.684	18.371	126.421	0.557
799.500	474.515	79.996	19.997	100.687	18.390	125.125	0.552
800.000	474.759	79.996	19.997	100.689	18.412	123.539	0.550
800.500	474.999	79.997	19.995	100.691	18.434	122.049	0.513
801.000	475.308	79.996	19.997	100.692	18.458	120.355	0.517
801.500	475.579	79.995	19.996	100.689	18.479	118.865	0.564
802.000	475.855	79.996	19.995	100.687	18.501	117.331	0.563
802.500	476.155	79.997	19.995	100.688	18.525	115.670	0.562
803.000	476.435	79.996	19.995	100.689	18.552	113.816	0.578
803.500	476.729	79.997	19.996	100.690	18.570	112.518	0.577
804.000	476.985	79.995	19.994	100.691	18.591	111.044	0.562
804.500	477.261	79.996	19.995	100.694	18.620	109.023	0.541
805.000	477.536	79.994	19.995	100.692	18.644	107.407	0.541
805.500	477.801	79.996	19.995	100.690	18.666	105.837	0.545
806.000	478.083	79.995	19.996	100.688	18.695	103.810	0.544
806.500	478.354	79.996	19.995	100.689	18.721	102.031	0.550
807.000	478.674	79.997	19.996	100.693	18.745	100.333	0.572
807.500	478.951	79.996	19.996	100.698	18.771	98.570	0.594
808.000	479.203	79.995	19.996	100.705	18.798	96.641	0.563
808.500	479.493	79.997	19.995	100.712	18.825	94.789	0.536
809.000	479.766	79.996	19.995	100.714	18.855	92.707	0.553
809.500	480.054	79.995	19.994	100.713	18.880	90.915	0.562
810.000	480.318	79.997	19.996	100.712	18.912	88.737	0.557
810.500	480.570	79.996	19.996	100.711	18.940	86.730	0.534
811.000	480.856	79.996	19.996	100.709	18.972	84.509	0.527
811.500	481.115	79.996	19.995	100.710	19.001	82.518	0.542
812.000	481.441	79.995	19.995	100.713	19.033	80.281	0.565
812.500	481.690	79.997	19.996	100.713	19.068	77.877	0.580
813.000	481.940	79.995	19.996	100.714	19.097	75.836	0.537
813.500	482.209	79.996	19.996	100.716	19.125	73.859	0.509
814.000	482.509	79.996	19.995	100.716	19.162	71.293	0.544
814.500	482.788	79.997	19.996	100.715	19.193	69.157	0.574
815.000	483.049	79.998	19.995	100.719	19.225	66.868	0.559
815.500	483.344	79.997	19.995	100.725	19.262	64.316	0.548
816.000	483.624	79.997	19.996	100.731	19.293	62.142	0.566
816.500	483.870	79.997	19.996	100.739	19.326	59.866	0.550
817.000	484.191	79.997	19.996	100.746	19.356	57.728	0.546
817.500	484.468	79.997	19.995	100.749	19.392	55.259	0.582
818.000	484.701	79.996	19.995	100.751	19.422	53.173	0.554
818.500	484.990	79.996	19.996	100.752	19.456	50.757	0.517
819.000	485.292	79.998	19.995	100.754	19.487	48.594	0.557
819.500	485.536	79.997	19.995	100.759	19.517	46.524	0.568
820.000	485.858	79.998	19.995	100.767	19.549	44.291	0.556
820.500	486.111	79.998	19.996	100.775	19.574	42.486	0.570
821.000	486.362	79.998	19.995	100.783	19.604	40.409	0.539
821.500	486.637	79.998	19.995	100.790	19.634	38.308	0.515
822.000	486.929	79.998	19.996	100.797	19.660	36.501	0.547
822.500	487.162	79.999	19.995	100.805	19.684	34.802	0.547
823.000	487.452	79.998	19.997	100.813	19.714	32.697	0.524
823.500	487.736	79.998	19.995	100.820	19.736	31.201	0.548
824.000	487.998	79.998	19.995	100.829	19.758	29.678	0.560
824.500	488.288	79.998	19.995	100.839	19.779	28.200	0.549
825.000	488.522	79.998	19.995	100.848	19.798	26.851	0.538
825.500	488.826	79.998	19.996	100.857	19.817	25.535	0.531
826.000	489.069	79.997	19.996	100.867	19.834	24.298	0.542
826.500	489.378	79.998	19.995	100.876	19.851	23.146	0.549
827.000	489.659	79.997	19.994	100.884	19.867	22.048	0.571
827.500	489.910	79.997	19.994	100.891	19.882	20.977	0.561
828.000	490.208	79.997	19.995	100.899	19.901	19.664	0.541
828.500	490.465	79.998	19.996	100.905	19.912	18.896	0.553
829.000	490.753	79.997	19.994	100.914	19.929	17.665	0.550
829.500	491.011	79.998	19.995	100.915	19.937	17.136	0.546
830.000	491.279	79.998	19.995	100.915	19.949	16.295	0.536
830.500	491.552	79.997	19.994	100.915	19.960	15.505	0.534
831.000	491.864	79.997	19.996	100.916	19.971	14.736	0.563
831.500	492.092	79.996	19.996	100.917	19.978	14.247	0.562
832.000	492.360	79.997	19.996	100.919	19.988	13.564	0.518
832.500	492.683	79.997	19.995	100.922	19.992	13.263	0.544
833.000	492.917	79.999	19.996	100.927	20.001	12.671	0.574
833.500	493.200	79.997	19.996	100.930	20.009	12.093	0.537
834.000	493.464	79.997	19.996	100.927	20.012	11.860	0.532
834.500	493.749	79.998	19.995	100.932	20.021	11.248	0.548
835.000	494.025	79.997	19.995	100.936	20.027	10.804	0.555
835.500	494.301	79.997	19.996	100.938	20.034	10.361	0.557
836.000	494.584	79.996	19.995	100.940	20.037	10.129	0.556
836.500	494.856	79.996	19.995	100.943	20.038	10.028	0.557
837.000	495.124	79.996	19.995	100.941	20.044	9.651	0.547
837.500	495.377	79.998	19.996	100.942	20.044	9.629	0.530
838.000	495.691	79.999	19.995	100.941	20.050	9.244	0.544
838.500	495.952	79.997	19.994	100.943	20.050	9.187	0.571
839.000	496.209	79.997	19.994	100.944	20.058	8.635	0.546
839.500	496.447	79.998	19.995	100.946	20.059	8.572	0.507
840.000	496.772	79.997	19.996	100.947	20.060	8.528	0.529
840.500	497.008	79.997	19.995	100.947	20.061	8.448	0.562
841.000	497.274	79.999	19.994	100.948	20.064	8.243	0.532
841.500	497.567	79.998	19.994	100.948	20.068	7.974	0.530
842.000	497.860	79.999	19.996	100.948	20.063	8.283	0.572
842.500	498.087	79.997	19.995	100.948	20.067	8.030	0.553
843.000	498.343	79.998	19.995	100.948	20.067	8.052	0.502
843.500	498.621	79.997	19.997	100.948	20.068	7.929	0.509
844.000	498.895	79.997	19.994	100.948	20.069	7.872	0.543
844.501	499.132	79.998	19.995	100.948	20.069	7.910	0.531
845.000	499.405	79.998	19.995	100.949	20.068	7.955	0.511
845.500	499.668	79.998	19.995	100.949	20.072	7.672	0.523
846.000	499.951	79.999	19.995	100.949	20.075	7.455	0.541
846.500	500.232	79.997	19.994	100.951	20.075	7.478	0.555
847.000	500.509	79.998	19.996	100.953	20.073	7.570	0.561
847.500	500.795	79.997	19.994	100.954	20.074	7.532	0.561
848.000	501.054	79.999	19.994	100.954	20.073	7.623	0.554
848.500	501.325	79.998	19.995	100.953	20.079	7.206	0.537
849.000	501.626	79.998	19.995	100.952	20.076	7.389	0.551
849.500	501.886	79.999	19.995	100.950	20.078	7.248	0.566
850.000	502.157	79.998	19.995	100.950	20.076	7.408	0.546
850.500	502.453	79.998	19.995	100.951	20.077	7.297	0.549
851.000	502.676	79.997	19.995	100.951	20.078	7.230	0.544
851.500	502.950	79.999	19.996	100.951	20.078	7.282	0.508
852.000	503.218	79.998	19.995	100.950	20.080	7.082	0.519
852.500	503.476	79.997	19.995	100.950	20.080	7.128	0.534
853.000	503.788	79.997	19.996	100.949	20.081	7.051	0.548
853.500	504.004	79.998	19.997	100.950	20.080	7.110	0.549
854.000	504.285	79.996	19.996	100.950	20.081	7.067	0.513
854.500	504.537	79.996	19.996	100.950	20.081	7.065	0.515
855.000	504.786	79.997	19.995	100.951	20.080	7.077	0.517
855.500	505.055	79.996	19.996	100.950	20.078	7.250	0.509
856.000	505.325	79.995	19.995	100.951	20.083	6.904	0.528
856.500	505.577	79.996	19.997	100.951	20.082	6.978	0.531
857.000	505.830	79.996	19.997	100.954	20.079	7.216	0.514
857.500	506.099	79.996	19.997	100.959	20.083	6.926	0.514
858.000	506.352	79.996	19.997	100.960	20.082	6.991	0.522
858.500	506.625	79.995	19.996	100.960	20.082	6.949	0.524
859.000	506.915	79.995	19.997	100.960	20.081	7.050	0.544
859.500	507.166	79.995	19.996	100.958	20.082	6.997	0.552
860.000	507.463	79.995	19.996	100.955	20.079	7.168	0.544
860.500	507.734	79.995	19.998	100.955	20.082	7.006	0.558
861.000	507.964	79.995	19.996	100.955	20.080	7.107	0.534
861.500	508.239	79.994	19.996	100.955	20.080	7.086	0.503
862.000	508.461	79.994	19.995	100.953	20.083	6.926	0.501
862.500	508.751	79.994	19.996	100.952	20.081	7.047	0.505
863.000	509.012	79.995	19.996	100.952	20.081	7.065	0.532
863.500	509.266	79.995	19.996	100.952	20.081	7.025	0.533
864.000	509.505	79.996	19.995	100.952	20.081	7.061	0.504
864.500	509.786	79.996	19.995	100.952	20.082	6.967	0.506
865.000	510.031	79.995	19.996	100.953	20.082	6.937	0.524
865.500	510.278	79.995	19.995	100.959	20.081	7.053	0.509
866.000	510.542	79.995	19.996	100.963	20.085	6.773	0.501
866.500	510.820	79.996	19.996	100.964	20.083	6.890	0.526
867.000	511.089	79.997	19.995	100.964	20.082	6.958	0.544
867.500	511.322	79.996	19.996	100.963	20.082	6.966	0.525
868.000	511.570	79.996	19.996	100.959	20.085	6.779	0.492
868.500	511.831	79.995	19.995	100.958	20.083	6.928	0.495
869.000	512.086	79.995	19.996	100.957	20.079	7.173	0.512
869.500	512.353	79.994	19.995	100.958	20.080	7.097	0.519
870.000	512.625	79.994	19.996	100.960	20.078	7.221	0.530
870.500	512.886	79.997	19.996	100.959	20.079	7.205	0.536
871.000	513.132	79.994	19.995	100.961	20.077	7.314	0.520
871.500	513.380	79.995	19.997	100.960	20.081	7.044	0.500
872.000	513.637	79.994	19.996	100.960	20.081	7.074	0.499
872.500	513.888	79.995	19.996	100.957	20.080	7.091	0.506
873.000	514.161	79.997	19.996	100.955	20.082	6.991	0.516
873.500	514.355	79.995	19.996	100.950	20.081	7.048	0.495
874.000	514.680	79.995	19.996	100.949	20.081	7.063	0.493
874.500	514.926	79.994	19.996	100.949	20.083	6.898	0.545
875.000	515.191	79.996	19.996	100.949	20.078	7.242	0.542
875.500	515.472	79.996	19.996	100.949	20.078	7.236	0.528
876.000	515.698	79.997	19.996	100.949	20.075	7.427	0.526
876.500	515.974	79.996	19.996	100.949	20.076	7.379	0.505
877.000	516.217	79.996	19.996	100.950	20.077	7.297	0.511
877.500	516.465	79.995	19.997	100.951	20.082	6.975	0.505
878.000	516.733	79.996	19.997	100.951	20.078	7.253	0.504
878.500	517.020	79.997	19.997	100.951	20.076	7.387	0.535
879.000	517.249	79.995	19.997	100.950	20.076	7.384	0.535
879.500	517.512	79.994	19.998	100.949	20.078	7.276	0.504
880.000	517.746	79.996	19.998	100.947	20.078	7.219	0.494
880.500	518.033	79.996	19.997	100.947	20.077	7.350	0.509
881.000	518.272	79.995	19.997	100.948	20.077	7.343	0.524
881.500	518.542	79.996	19.997	100.949	20.078	7.255	0.518
882.000	518.795	79.996	19.998	100.949	20.081	7.020	0.516
882.500	519.046	79.995	19.998	100.949	20.078	7.273	0.513
883.000	519.259	79.995	19.997	100.949	20.079	7.151	0.484
883.500	519.526	79.995	19.997	100.950	20.078	7.243	0.472
884.000	519.805	79.995	19.996	100.952	20.077	7.292	0.513
884.500	520.025	79.995	19.998	100.956	20.079	7.215	0.523
885.000	520.306	79.995	19.998	100.959	20.077	7.337	0.501
885.500	520.567	79.995	19.996	100.960	20.075	7.446	0.522
886.000	520.791	79.996	19.996	100.959	20.078	7.282	0.513
886.500	521.102	79.996	19.996	100.958	20.076	7.404	0.510
887.000	521.329	79.995	19.997	100.954	20.076	7.384	0.537
887.500	521.581	79.995	19.996	100.952	20.076	7.397	0.508
888.000	521.850	79.994	19.996	100.954	20.076	7.382	0.500
888.500	522.095	79.994	19.996	100.954	20.075	7.485	0.517
889.000	522.354	79.994	19.997	100.953	20.077	7.341	0.509
889.500	522.594	79.994	19.997	100.954	20.077	7.335	0.502
890.000	522.885	79.995	19.996	100.952	20.074	7.554	0.515
890.500	523.133	79.995	19.996	100.950	20.075	7.449	0.535
891.000	523.382	79.995	19.996	100.949	20.073	7.576	0.518
891.500	523.585	79.996	19.997	100.950	20.076	7.365	0.474
892.000	523.829	79.995	19.995	100.951	20.077	7.319	0.449
892.500	524.121	79.994	19.996	100.957	20.077	7.305	0.492
893.000	524.387	79.996	19.995	100.961	20.078	7.233	0.547
893.500	524.604	79.995	19.997	100.961	20.078	7.219	0.521
894.000	524.871	79.996	19.996	100.963	20.076	7.413	0.483
894.500	525.155	79.995	19.996	100.964	20.078	7.257	0.517
895.000	525.358	79.996	19.995	100.961	20.076	7.358	0.519
895.500	525.674	79.997	19.997	100.957	20.079	7.198	0.503
896.000	525.930	79.996	19.996	100.960	20.077	7.320	0.545
896.500	526.162	79.997	19.997	100.957	20.078	7.229	0.530
897.000	526.413	79.996	19.996	100.957	20.077	7.296	0.486
897.500	526.691	79.997	19.996	100.959	20.079	7.174	0.506
898.000	526.932	79.997	19.995	100.965	20.078	7.256	0.524
898.500	527.183	79.998	19.995	100.968	20.078	7.265	0.505
899.000	527.442	79.998	19.996	100.974	20.079	7.151	0.501
899.500	527.691	79.996	19.996	100.977	20.081	7.059	0.510
900.000	527.956	79.998	19.996	100.978	20.081	7.019	0.511
900.500	528.188	79.997	19.995	100.977	20.082	6.992	0.505
901.000	528.483	79.995	19.996	100.975	20.082	6.969	0.512
901.500	528.682	79.998	19.995	100.972	20.080	7.137	0.510
902.000	528.961	79.996	19.995	100.969	20.084	6.817	0.486
902.500	529.257	79.997	19.995	100.966	20.082	6.976	0.526
903.000	529.460	79.997	19.995	100.965	20.081	7.017	0.537
903.500	529.735	79.996	19.995	100.965	20.081	7.028	0.489
904.000	530.008	79.998	19.995	100.961	20.082	6.979	0.513
904.500	530.248	79.998	19.997	100.960	20.081	7.043	0.531
905.000	530.508	79.998	19.995	100.958	20.076	7.393	0.506
905.500	530.776	79.997	19.995	100.953	20.081	7.078	0.514
906.000	530.996	79.997	19.997	100.952	20.078	7.257	0.508
906.500	531.272	79.998	19.996	100.957	20.079	7.182	0.492
907.000	531.519	79.997	19.995	100.958	20.080	7.137	0.510
907.500	531.824	79.997	19.995	100.959	20.079	7.149	0.538
908.000	532.049	79.996	19.995	100.966	20.077	7.303	0.541
908.500	532.310	79.998	19.995	100.969	20.079	7.202	0.508
909.000	532.587	79.998	19.995	100.965	20.077	7.295	0.512
909.500	532.817	79.997	19.995	100.962	20.081	7.058	0.523
910.000	533.097	79.998	19.996	100.961	20.077	7.297	0.509
910.500	533.357	79.998	19.996	100.954	20.079	7.170	0.525
911.000	533.613	79.996	19.996	100.949	20.078	7.219	0.528
911.500	533.881	79.996	19.996	100.950	20.082	6.968	0.520
912.000	534.157	79.996	19.995	100.965	20.082	6.970	0.534
912.500	534.379	79.996	19.995	100.957	20.082	6.949	0.521
913.000	534.641	79.997	19.995	100.941	20.078	7.240	0.491
913.500	534.901	79.996	19.996	100.931	20.079	7.183	0.503
914.000	535.170	79.996	19.996	100.927	20.077	7.305	0.525
914.500	535.447	79.997	19.995	100.913	20.080	7.133	0.538
915.000	535.716	79.996	19.996	100.924	20.081	7.042	0.547
915.500	535.943	79.996	19.995	100.967	20.079	7.166	0.521
916.000	536.223	79.998	19.996	100.993	20.080	7.089	0.501
916.500	536.461	79.996	19.997	101.001	20.079	7.168	0.512
917.000	536.720	79.996	19.996	101.001	20.082	6.983	0.508
917.500	536.979	79.996	19.995	100.997	20.079	7.158	0.507
918.000	537.246	79.996	19.996	100.971	20.079	7.210	0.522
918.500	537.487	79.996	19.995	100.956	20.080	7.123	0.517
919.000	537.739	79.996	19.995	100.954	20.078	7.219	0.501
919.500	538.024	79.997	19.995	100.958	20.079	7.155	0.515
920.000	538.268	79.997	19.996	100.958	20.081	7.071	0.533
920.500	538.553	79.996	19.995	100.958	20.078	7.230	0.529
921.000	538.800	79.996	19.995	100.957	20.079	7.194	0.530
921.500	539.014	79.997	19.995	100.956	20.079	7.177	0.497
922.000	539.266	79.998	19.995	100.960	20.079	7.198	0.464
922.500	539.545	79.997	19.996	100.960	20.079	7.152	0.498
923.000	539.784	79.997	19.995	100.960	20.078	7.246	0.525
923.500	540.037	79.998	19.996	100.960	20.076	7.391	0.505
924.000	540.291	79.998	19.996	100.957	20.079	7.216	0.499
924.500	540.546	79.998	19.996	100.953	20.080	7.138	0.509
925.000	540.813	79.999	19.995	100.954	20.080	7.093	0.516
925.500	541.095	79.996	19.995	100.954	20.081	7.051	0.535
926.000	541.342	79.999	19.996	100.954	20.079	7.201	0.539
926.500	541.602	79.999	19.996	100.955	20.081	7.042	0.518
927.000	541.845	79.999	19.995	100.952	20.080	7.084	0.505
927.500	542.134	79.999	19.995	100.955	20.080	7.081	0.517
928.000	542.360	79.999	19.995	100.956	20.079	7.213	0.524
928.500	542.625	79.998	19.995	100.958	20.081	7.073	0.503
929.000	542.891	80.000	19.994	100.961	20.081	7.010	0.511
929.500	543.125	79.998	19.995	100.962	20.080	7.086	0.516
930.000	543.375	79.998	19.994	100.958	20.079	7.189	0.492
930.500	543.684	79.997	19.995	100.957	20.082	6.953	0.521
931.000	543.893	79.998	19.995	100.955	20.081	7.025	0.539
931.500	544.118	79.998	19.995	100.952	20.081	7.052	0.476
932.000	544.392	79.998	19.995	100.951	20.080	7.114	0.466
932.500	544.614	79.999	19.995	100.950	20.084	6.814	0.497
933.000	544.861	79.997	19.994	100.950	20.082	6.966	0.483
933.500	545.112	79.998	19.995	100.953	20.083	6.920	0.484
934.000	545.398	79.996	19.994	100.959	20.081	7.059	0.518
934.500	545.631	79.998	19.995	100.962	20.078	7.223	0.528
935.000	545.866	79.999	19.995	100.965	20.082	6.993	0.493
935.500	546.186	79.997	19.995	100.971	20.083	6.876	0.512
936.000	546.396	79.997	19.996	100.973	20.081	7.042	0.543
936.500	546.643	79.996	19.994	100.970	20.081	7.056	0.493
937.000	546.881	79.995	19.995	100.972	20.079	7.151	0.471
937.500	547.142	79.996	19.995	100.976	20.078	7.246	0.492
938.000	547.434	79.997	19.995	100.976	20.081	7.054	0.526
938.500	547.670	79.996	19.994	100.973	20.083	6.921	0.541
939.000	547.928	79.996	19.996	100.969	20.078	7.218	0.511
939.500	548.197	79.996	19.996	100.965	20.078	7.224	0.510
940.000	548.480	79.995	19.996	100.958	20.077	7.306	0.539
940.500	548.714	79.996	19.996	100.954	20.082	6.997	0.535
941.000	548.987	79.997	19.995	100.956	20.082	6.946	0.512
941.500	549.231	79.997	19.996	100.956	20.080	7.102	0.512
942.000	549.493	79.995	19.995	100.956	20.081	7.058	0.511
942.500	549.738	79.997	19.996	100.955	20.082	6.978	0.506
943.000	549.964	79.995	19.997	100.955	20.079	7.212	0.489
943.500	550.220	79.996	19.997	100.952	20.078	7.217	0.477
944.000	550.505	79.997	19.997	100.953	20.078	7.270	0.512
944.500	550.777	79.997	19.996	100.954	20.080	7.088	0.549
945.000	550.998	79.996	19.995	100.958	20.079	7.189	0.525
945.500	551.231	79.996	19.995	100.961	20.081	7.065	0.474
946.000	551.501	79.996	19.996	100.967	20.079	7.184	0.479
946.500	551.779	79.996	19.996	100.973	20.082	6.988	0.526
947.000	552.039	79.994	19.995	100.974	20.079	7.150	0.543
947.500	552.307	79.996	19.996	100.970	20.081	7.044	0.533
948.000	552.540	79.997	19.996	100.964	20.079	7.203	0.514
948.500	552.807	79.997	19.996	100.959	20.082	7.003	0.500
949.000	553.055	79.995	19.996	100.959	20.081	7.045	0.508
949.500	553.293	79.996	19.996	100.966	20.080	7.143	0.500
950.000	553.570	79.996	19.996	100.971	20.081	7.040	0.500
950.500	553.822	79.994	19.996	100.973	20.083	6.886	0.522
951.000	554.106	79.993	19.995	100.971	20.083	6.911	0.532
951.500	554.330	79.995	19.996	100.968	20.082	6.983	0.521
952.000	554.607	79.994	19.995	100.968	20.085	6.766	0.504
952.500	554.843	79.997	19.996	100.965	20.080	7.096	0.508
953.000	555.100	79.996	19.996	100.964	20.080	7.140	0.503
953.500	555.329	79.995	19.996	100.964	20.083	6.928	0.489
954.000	555.639	79.995	19.996	100.960	20.081	7.048	0.513
954.500	555.903	79.996	19.997	100.953	20.083	6.929	0.557
955.000	556.113	79.996	19.996	100.952	20.081	7.026	0.524
955.500	556.355	79.997	19.996	100.955	20.083	6.933	0.463
956.000	556.638	79.996	19.996	100.957	20.082	6.942	0.489
956.500	556.889	79.996	19.996	100.962	20.082	6.959	0.529
957.000	557.117	79.996	19.995	100.968	20.081	7.063	0.506
957.500	557.409	79.996	19.996	100.970	20.079	7.183	0.500
958.000	557.641	79.997	19.995	100.974	20.081	7.014	0.522
958.500	557.885	79.997	19.996	100.978	20.080	7.082	0.500
959.000	558.150	79.995	19.997	100.974	20.080	7.092	0.492
959.500	558.443	79.996	19.995	100.967	20.080	7.141	0.534
960.000	558.639	79.996	19.996	100.966	20.080	7.092	0.523
960.500	558.946	79.996	19.996	100.961	20.084	6.841	0.496
961.000	559.163	79.997	19.997	100.954	20.081	7.071	0.514
961.500	559.428	79.997	19.996	100.954	20.082	6.982	0.503
962.000	559.665	79.996	19.996	100.953	20.081	7.046	0.492
962.500	559.965	79.996	19.997	100.953	20.080	7.086	0.519
963.000	560.187	79.996	19.996	100.955	20.080	7.116	0.529
963.500	560.446	79.998	19.996	100.962	20.080	7.100	0.502
964.000	560.713	79.996	19.996	100.970	20.081	7.067	0.504
964.500	560.990	79.997	19.996	100.978	20.082	6.958	0.535
965.000	561.228	79.997	19.997	100.981	20.080	7.077	0.530
965.500	561.462	79.996	19.997	100.977	20.080	7.111	0.494
966.000	561.771	79.995	19.996	100.971	20.081	7.026	0.507
966.500	562.001	79.995	19.996	100.969	20.079	7.198	0.541
967.000	562.249	79.996	19.996	100.966	20.080	7.100	0.508
967.500	562.525	79.996	19.997	100.960	20.078	7.253	0.501
968.000	562.767	79.995	19.995	100.960	20.080	7.081	0.521
968.500	563.024	79.995	19.996	100.961	20.079	7.189	0.509
969.000	563.303	79.994	19.996	100.958	20.082	6.998	0.517
969.500	563.487	79.995	19.997	100.955	20.082	6.996	0.499
970.000	563.763	79.995	19.996	100.958	20.076	7.413	0.462
970.500	564.037	79.996	19.996	100.959	20.080	7.091	0.505
971.000	564.265	79.994	19.998	100.958	20.081	7.027	0.526
971.500	564.542	79.996	19.997	100.961	20.081	7.015	0.504
972.000	564.793	79.994	19.996	100.964	20.077	7.295	0.517
972.500	565.029	79.993	19.996	100.969	20.078	7.274	0.507
973.000	565.270	79.994	19.997	100.983	20.080	7.110	0.482
973.500	565.531	79.993	19.996	100.976	20.075	7.433	0.489
974.000	565.768	79.994	19.997	100.952	20.078	7.267	0.500
974.500	566.061	79.994	19.997	100.941	20.077	7.300	0.514
975.000	566.295	79.993	19.997	100.933	20.080	7.137	0.528
975.500	566.556	79.994	19.997	100.916	20.080	7.139	0.511
976.000	566.823	79.994	19.997	100.940	20.081	7.059	0.511
976.500	567.071	79.994	19.997	100.982	20.079	7.165	0.522
977.001	567.289	79.994	19.997	100.999	20.077	7.312	0.491
977.500	567.556	79.994	19.997	101.007	20.078	7.237	0.476
978.000	567.823	79.996	19.997	101.015	20.078	7.281	0.509
978.500	568.130	79.994	19.997	101.005	20.078	7.252	0.554
979.000	568.368	79.995	19.996	100.990	20.079	7.208	0.559
979.500	568.568	79.994	19.998	100.984	20.079	7.164	0.491
980.000	568.835	79.995	19.997	100.980	20.079	7.159	0.452
980.500	569.076	79.994	19.996	100.975	20.080	7.131	0.488
981.000	569.332	79.995	19.996	100.974	20.078	7.222	0.503
981.500	569.583	79.996	19.997	100.975	20.078	7.231	0.503
982.000	569.844	79.997	19.997	100.977	20.080	7.109	0.510
982.500	570.095	79.995	19.997	100.979	20.079	7.196	0.512
983.000	570.393	79.996	19.997	100.981	20.080	7.141	0.530
983.500	570.609	79.997	19.996	100.974	20.075	7.453	0.531
984.000	570.870	79.996	19.996	100.968	20.075	7.447	0.495
984.500	571.105	79.996	19.996	100.965	20.076	7.412	0.487
985.000	571.409	79.997	19.996	100.966	20.076	7.407	0.518
985.500	571.620	79.997	19.996	100.968	20.074	7.523	0.527
986.000	571.863	79.997	19.997	100.974	20.075	7.491	0.484
986.500	572.180	79.997	19.996	100.975	20.077	7.351	0.507
987.000	572.384	79.998	19.995	100.974	20.075	7.478	0.541
987.500	572.673	79.996	19.997	100.974	20.074	7.543	0.508
988.000	572.908	79.997	19.996	100.972	20.073	7.570	0.508
988.500	573.172	79.996	19.996	100.970	20.079	7.198	0.511
989.000	573.402	79.996	19.995	100.967	20.075	7.446	0.496
989.500	573.679	79.996	19.996	100.965	20.075	7.497	0.501
990.000	573.926	79.998	19.996	100.959	20.072	7.649	0.516
990.500	574.198	79.997	19.996	100.957	20.074	7.548	0.522
991.000	574.438	79.998	19.995	100.961	20.077	7.337	0.515
991.500	574.714	79.997	19.996	100.969	20.074	7.520	0.514
992.000	574.964	79.996	19.995	100.975	20.076	7.400	0.521
992.500	575.245	79.996	19.995	100.982	20.075	7.452	0.528
993.000	575.513	79.997	19.995	100.984	20.075	7.470	0.540
993.500	575.772	79.996	19.996	100.979	20.077	7.355	0.538
994.000	576.005	79.995	19.995	100.974	20.074	7.557	0.510
994.500	576.259	79.996	19.996	100.971	20.074	7.562	0.489
995.000	576.532	79.996	19.995	100.968	20.075	7.456	0.507
995.500	576.775	79.996	19.996	100.968	20.076	7.386	0.522
996.000	577.009	79.996	19.995	100.971	20.077	7.334	0.497
996.500	577.255	79.996	19.996	100.976	20.075	7.460	0.478
997.000	577.531	79.996	19.996	100.980	20.075	7.489	0.501
997.500	577.762	79.996	19.996	100.983	20.074	7.504	0.515
998.000	578.020	79.995	19.994	100.986	20.078	7.267	0.498
998.500	578.278	79.995	19.995	100.988	20.074	7.499	0.502
999.000	578.548	79.995	19.995	100.985	20.076	7.396	0.522
999.500	578.793	79.996	19.996	100.982	20.073	7.592	0.522
1000.000	579.047	79.997	19.996	100.980	20.076	7.383	0.507
1000.500	579.302	79.996	19.996	100.975	20.074	7.520	0.504
1001.000	579.542	79.995	19.997	100.975	20.078	7.257	0.502
1001.500	579.834	79.995	19.996	100.978	20.079	7.200	0.513
1002.000	580.056	79.997	19.996	100.981	20.078	7.282	0.523
1002.500	580.306	79.997	19.997	100.984	20.075	7.487	0.493
1003.000	580.558	79.996	19.996	100.988	20.077	7.322	0.487
1003.500	580.802	79.998	19.997	100.984	20.076	7.369	0.499
1004.000	581.067	79.997	19.996	100.976	20.078	7.246	0.503
1004.500	581.344	79.996	19.997	100.970	20.076	7.364	0.526
1005.000	581.591	79.997	19.995	100.962	20.077	7.358	0.533
1005.500	581.870	79.999	19.996	100.960	20.076	7.392	0.525
1006.000	582.095	79.998	19.996	100.962	20.073	7.588	0.515
1006.500	582.364	79.998	19.995	100.967	20.074	7.502	0.499
1007.000	582.594	79.998	19.996	100.971	20.076	7.406	0.497
1007.500	582.857	79.998	19.996	100.975	20.073	7.583	0.496
1008.000	583.111	79.997	19.995	100.977	20.074	7.553	0.505
1008.500	583.348	79.997	19.996	100.978	20.072	7.700	0.504
1009.000	583.590	79.997	19.996	100.979	20.073	7.582	0.485
1009.500	583.859	79.998	19.996	100.982	20.074	7.546	0.495
1010.000	584.136	79.999	19.994	100.984	20.076	7.402	0.529
1010.500	584.372	79.999	19.994	100.984	20.073	7.585	0.529
1011.000	584.650	79.997	19.996	100.983	20.072	7.674	0.513
1011.500	584.894	79.998	19.996	100.983	20.074	7.561	0.518
1012.000	585.192	79.999	19.994	100.983	20.074	7.510	0.532
1012.500	585.406	79.996	19.994	100.981	20.073	7.587	0.527
1013.000	585.630	80.000	19.995	100.979	20.075	7.477	0.475
1013.500	585.891	79.999	19.995	100.979	20.072	7.649	0.462
1014.000	586.132	79.998	19.995	100.979	20.073	7.602	0.494
1014.500	586.431	79.999	19.995	100.979	20.070	7.800	0.521
1015.000	586.685	79.999	19.995	100.981	20.072	7.656	0.546
1015.500	586.945	79.998	19.996	100.983	20.073	7.608	0.533
1016.000	587.178	79.999	19.997	100.982	20.075	7.463	0.503
1016.500	587.444	79.997	19.996	100.979	20.074	7.501	0.496
1017.000	587.696	79.997	19.996	100.974	20.075	7.488	0.509
1017.500	587.951	79.998	19.995	100.971	20.073	7.593	0.513
1018.000	588.225	79.997	19.996	100.964	20.074	7.522	0.518
1018.500	588.457	79.997	19.996	100.963	20.073	7.635	0.517
1019.000	588.688	79.996	19.995	100.964	20.074	7.499	0.484
1019.500	588.938	79.996	19.995	100.969	20.075	7.474	0.472
1020.000	589.185	79.996	19.996	100.972	20.071	7.731	0.490
1020.500	589.414	79.997	19.996	100.980	20.072	7.699	0.487
1021.000	589.685	79.997	19.995	100.983	20.073	7.636	0.488
1021.500	589.958	79.995	19.996	100.987	20.071	7.750	0.522
1022.000	590.224	79.994	19.996	100.984	20.070	7.821	0.542
1022.500	590.459	79.996	19.995	100.977	20.068	7.977	0.520
1023.000	590.694	79.996	19.995	100.970	20.071	7.772	0.485
1023.500	590.954	79.996	19.995	100.966	20.071	7.737	0.482
1024.000	591.244	79.995	19.995	100.966	20.071	7.730	0.522
1024.500	591.511	79.996	19.994	100.972	20.071	7.716	0.554
1025.000	591.715	79.996	19.995	100.978	20.071	7.713	0.514
1025.499	591.977	79.996	19.997	100.985	20.069	7.867	0.468
1025.999	592.249	79.996	19.996	100.989	20.071	7.732	0.500
1026.499	592.497	79.996	19.996	100.989	20.070	7.821	0.527
1026.999	592.719	79.996	19.996	100.986	20.068	7.952	0.495
1027.499	592.978	79.996	19.997	100.987	20.070	7.834	0.475
1027.999	593.268	79.995	19.996	100.986	20.071	7.775	0.515
1028.499	593.521	79.996	19.996	100.987	20.069	7.893	0.547
1029.000	593.775	79.996	19.995	100.987	20.068	7.983	0.525
1029.500	594.032	79.996	19.995	100.987	20.067	8.042	0.509
1030.000	594.284	79.996	19.995	100.984	20.070	7.800	0.510
1030.500	594.523	79.997	19.996	100.984	20.072	7.707	0.500
1031.000	594.798	79.997	19.996	100.982	20.069	7.882	0.502
1031.500	595.062	79.996	19.995	100.979	20.067	8.055	0.526
1031.999	595.312	79.996	19.995	100.978	20.071	7.739	0.526
1032.499	595.558	79.997	19.996	100.981	20.067	8.034	0.505
1032.999	595.847	79.997	19.995	100.982	20.070	7.812	0.516
1033.499	596.085	79.997	19.996	100.983	20.071	7.741	0.531
1033.999	596.331	79.996	19.996	100.986	20.068	7.951	0.506
1034.499	596.576	79.996	19.996	100.987	20.073	7.580	0.488
1034.999	596.809	79.997	19.995	100.988	20.070	7.787	0.484
1035.500	597.090	79.997	19.996	100.988	20.075	7.439	0.496
1036.000	597.374	79.996	19.995	100.988	20.072	7.646	0.540
1036.499	597.616	79.997	19.995	100.988	20.073	7.627	0.545
1036.999	597.874	79.996	19.995	100.987	20.074	7.500	0.513
1037.499	598.102	79.997	19.996	100.981	20.073	7.610	0.493
1037.999	598.372	79.997	19.996	100.980	20.074	7.557	0.492
1038.499	598.620	79.996	19.996	100.978	20.072	7.705	0.508
1038.999	598.820	79.996	19.997	100.978	20.073	7.622	0.483
1039.499	599.124	79.997	19.995	100.979	20.073	7.627	0.476
1040.000	599.411	79.996	19.995	100.984	20.072	7.681	0.548
1040.500	599.628	79.996	19.997	100.985	20.071	7.777	0.547
1040.999	599.847	79.995	19.995	100.987	20.070	7.832	0.470
1041.499	600.142	79.997	19.996	100.987	20.071	7.722	0.475
1041.999	600.397	79.997	19.996	100.987	20.069	7.883	0.532
1042.499	600.656	79.995	19.996	100.986	20.068	7.980	0.532
1042.999	600.907	79.996	19.995	100.987	20.072	7.672	0.512
1043.499	601.169	79.995	19.997	100.987	20.073	7.633	0.511
1043.999	601.423	79.997	19.997	100.989	20.068	7.963	0.515
1044.499	601.679	79.997	19.996	100.990	20.067	8.011	0.513
1044.999	601.899	79.996	19.996	100.993	20.067	8.020	0.493
1045.500	602.176	79.995	19.996	100.995	20.069	7.851	0.487
1046.000	602.425	79.995	19.996	100.994	20.067	8.045	0.511
1046.499	602.675	79.996	19.996	100.994	20.068	7.984	0.512
1046.999	602.910	79.996	19.996	100.993	20.071	7.727	0.492
1047.499	603.193	79.996	19.996	100.990	20.068	7.978	0.502
1047.999	603.490	79.995	19.996	100.990	20.069	7.866	0.549
1048.499	603.728	79.995	19.997	100.990	20.069	7.918	0.558
1048.999	603.968	79.995	19.996	100.991	20.068	7.924	0.507
1049.499	604.235	79.996	19.997	100.991	20.067	8.050	0.493
1050.000	604.498	79.996	19.996	100.993	20.067	8.004	0.519
1050.501	604.751	79.995	19.995	100.993	20.066	8.103	0.523
1051.000	605.006	79.995	19.997	100.999	20.068	7.956	0.512
1051.499	605.243	79.995	19.997	101.002	20.068	7.941	0.500
1051.999	605.537	79.995	19.996	101.006	20.068	7.988	0.511
1052.499	605.768	79.995	19.996	101.005	20.069	7.899	0.528
1052.999	606.047	79.995	19.995	101.004	20.067	8.056	0.517
1053.499	606.298	79.995	19.995	101.000	20.064	8.265	0.520
1053.999	606.546	79.995	19.996	100.997	20.067	8.002	0.515
1054.499	606.792	79.996	19.996	100.995	20.066	8.084	0.497
1054.999	607.025	79.993	19.996	100.995	20.063	8.314	0.486
1055.499	607.283	79.994	19.996	100.999	20.064	8.243	0.485
1055.999	607.498	79.994	19.996	101.001	20.066	8.123	0.482
1056.499	607.787	79.992	19.996	101.001	20.065	8.160	0.488
1056.999	608.046	79.994	19.996	101.000	20.068	7.957	0.525
1057.500	608.322	79.994	19.996	101.001	20.063	8.309	0.541
1058.000	608.553	79.994	19.996	100.997	20.060	8.496	0.521
1058.499	608.777	79.995	19.996	100.997	20.065	8.160	0.481
1058.999	609.062	79.995	19.996	101.002	20.064	8.217	0.482
1059.499	609.280	79.994	19.996	101.010	20.065	8.156	0.506
1059.999	609.568	79.994	19.996	101.014	20.065	8.177	0.505
1060.499	609.792	79.996	19.996	101.017	20.069	7.914	0.509
1060.999	610.020	79.996	19.996	101.018	20.064	8.210	0.483
1061.499	610.264	79.995	19.997	101.013	20.066	8.098	0.462
1061.999	610.516	79.996	19.996	101.009	20.067	7.999	0.484
1062.499	610.762	79.996	19.996	101.006	20.068	7.985	0.497
1062.999	611.030	79.996	19.996	101.007	20.066	8.119	0.506
1063.499	611.269	79.998	19.995	101.010	20.066	8.113	0.510
1063.999	611.542	79.997	19.996	101.016	20.066	8.062	0.509
1064.499	611.754	79.996	19.995	101.019	20.063	8.300	0.499
1064.999	612.020	79.995	19.996	101.017	20.063	8.274	0.482
1065.500	612.323	79.997	19.995	101.012	20.063	8.340	0.524
1066.000	612.563	79.996	19.996	101.006	20.065	8.176	0.556
1066.499	612.814	79.996	19.996	101.001	20.064	8.204	0.517
1066.999	613.027	79.997	19.996	101.000	20.064	8.246	0.477
1067.499	613.277	79.997	19.995	101.007	20.063	8.311	0.463
1067.999	613.513	79.997	19.996	101.015	20.065	8.166	0.475
1068.500	613.787	79.998	19.996	101.022	20.065	8.134	0.498
1069.001	614.042	79.998	19.996	101.022	20.065	8.184	0.520
1069.501	614.290	79.997	19.997	101.015	20.064	8.224	0.516
1070.001	614.575	79.997	19.996	101.007	20.062	8.369	0.518
1070.501	614.802	79.996	19.997	101.005	20.060	8.552	0.522
1071.000	615.055	79.997	19.996	101.004	20.061	8.412	0.495
1071.500	615.326	79.996	19.996	101.006	20.062	8.382	0.502
1072.000	615.579	79.996	19.995	101.012	20.064	8.205	0.524
1072.500	615.845	79.996	19.996	101.018	20.063	8.279	0.521
1073.000	616.076	79.997	19.996	101.018	20.065	8.192	0.508
1073.500	616.373	79.997	19.996	101.018	20.065	8.144	0.513
1074.000	616.606	79.995	19.998	101.019	20.063	8.318	0.529
1074.500	616.865	79.997	19.997	101.022	20.062	8.394	0.511
1075.000	617.115	79.995	19.995	101.023	20.062	8.411	0.500
1075.500	617.334	79.997	19.997	101.025	20.064	8.242	0.489
1076.000	617.656	79.997	19.997	101.024	20.063	8.291	0.505
1076.500	617.865	79.997	19.996	101.024	20.063	8.276	0.536
1077.000	618.126	79.997	19.996	101.019	20.060	8.491	0.501
1077.500	618.371	79.996	19.995	101.013	20.065	8.190	0.488
1078.000	618.630	79.997	19.997	101.012	20.061	8.472	0.505
1078.500	618.877	79.998	19.997	101.011	20.059	8.610	0.505
1079.000	619.128	79.997	19.996	101.011	20.061	8.459	0.502
1079.500	619.383	79.996	19.996	101.016	20.066	8.107	0.502
1080.000	619.635	79.997	19.996	101.022	20.063	8.289	0.506
1080.500	619.900	79.996	19.997	101.024	20.064	8.203	0.512
1081.000	620.147	79.996	19.996	101.025	20.063	8.304	0.515
1081.500	620.412	79.997	19.996	101.025	20.065	8.163	0.513
1082.000	620.680	79.996	19.995	101.023	20.060	8.485	0.523
1082.500	620.935	79.997	19.995	101.024	20.062	8.395	0.527
1083.000	621.195	79.997	19.995	101.025	20.064	8.222	0.519
1083.500	621.444	79.998	19.995	101.025	20.064	8.224	0.512
1084.000	621.656	79.995	19.996	101.025	20.063	8.317	0.485
1084.500	621.922	79.997	19.996	101.027	20.064	8.272	0.469
1085.000	622.162	79.999	19.997	101.027	20.061	8.451	0.492
1085.500	622.422	79.997	19.997	101.028	20.062	8.371	0.503
1086.000	622.687	79.997	19.995	101.032	20.064	8.230	0.512
1086.500	622.963	79.998	19.996	101.033	20.062	8.346	0.533
1087.000	623.220	79.998	19.995	101.030	20.063	8.275	0.537
1087.500	623.497	79.998	19.995	101.030	20.064	8.230	0.533
1088.000	623.732	79.999	19.996	101.028	20.062	8.348	0.523
1088.500	623.982	79.996	19.994	101.027	20.064	8.258	0.499
1089.000	624.238	79.998	19.995	101.033	20.060	8.493	0.496
1089.500	624.508	79.997	19.995	101.035	20.065	8.199	0.516
1090.000	624.756	79.999	19.995	101.035	20.064	8.251	0.522
1090.500	624.983	79.999	19.995	101.033	20.065	8.165	0.496
1091.000	625.251	79.999	19.996	101.030	20.062	8.374	0.485
1091.500	625.515	79.998	19.995	101.022	20.063	8.297	0.514
1092.000	625.800	79.998	19.995	101.022	20.061	8.470	0.541
1092.501	626.020	79.998	19.993	101.022	20.061	8.443	0.527
1093.001	626.272	79.999	19.995	101.022	20.063	8.325	0.488
1093.500	626.543	79.999	19.997	101.023	20.064	8.226	0.497
1094.000	626.808	79.999	19.995	101.025	20.060	8.485	0.530
1094.500	627.072	80.000	19.996	101.024	20.062	8.349	0.533
1095.000	627.293	79.998	19.994	101.024	20.058	8.652	0.507
1095.500	627.586	79.997	19.995	101.026	20.061	8.417	0.499
1096.000	627.810	79.999	19.995	101.027	20.061	8.440	0.515
1096.500	628.079	79.999	19.996	101.026	20.059	8.554	0.505
1097.000	628.314	79.998	19.996	101.027	20.062	8.343	0.498
1097.500	628.584	79.998	19.997	101.026	20.060	8.533	0.505
1098.000	628.819	79.999	19.995	101.025	20.058	8.678	0.505
1098.500	629.099	79.998	19.995	101.025	20.059	8.579	0.510
1099.000	629.352	79.997	19.995	101.026	20.057	8.759	0.524
1099.500	629.590	79.996	19.994	101.025	20.061	8.437	0.512
1100.000	629.874	79.997	19.995	101.026	20.057	8.759	0.506
1100.500	630.095	79.997	19.995	101.026	20.058	8.672	0.513
1101.000	630.367	79.997	19.997	101.025	20.064	8.255	0.499
1101.500	630.625	79.997	19.995	101.025	20.060	8.522	0.511
1102.000	630.872	79.998	19.997	101.025	20.062	8.384	0.517
1102.500	631.145	79.997	19.996	101.027	20.061	8.457	0.513
1103.000	631.403	79.997	19.996	101.028	20.061	8.425	0.526
1103.500	631.648	79.996	19.995	101.030	20.061	8.439	0.517
1104.000	631.926	79.997	19.997	101.031	20.062	8.346	0.513
1104.500	632.142	79.996	19.995	101.031	20.059	8.565	0.509
1105.000	632.432	79.996	19.995	101.030	20.061	8.463	0.500
1105.500	632.688	79.996	19.995	101.034	20.063	8.328	0.526
1106.000	632.948	79.995	19.995	101.035	20.063	8.317	0.531
1106.500	633.174	79.996	19.995	101.035	20.063	8.290	0.500
1107.000	633.424	79.996	19.996	101.035	20.061	8.471	0.481
1107.500	633.693	79.997	19.997	101.035	20.059	8.582	0.498
1108.000	633.947	79.996	19.996	101.031	20.063	8.311	0.520
1108.500	634.210	79.995	19.995	101.030	20.059	8.557	0.520
1109.000	634.474	79.996	19.996	101.029	20.060	8.522	0.522
1109.500	634.759	79.996	19.995	101.027	20.061	8.477	0.538
1110.000	635.018	79.995	19.996	101.026	20.061	8.461	0.547
1110.500	635.225	79.996	19.994	101.026	20.061	8.444	0.505
1111.000	635.479	79.994	19.995	101.028	20.063	8.320	0.463
1111.500	635.751	79.995	19.995	101.029	20.059	8.597	0.493
1112.000	636.010	79.995	19.995	101.031	20.064	8.220	0.529
1112.500	636.251	79.996	19.995	101.031	20.057	8.695	0.516
1113.000	636.502	79.996	19.994	101.031	20.058	8.669	0.496
1113.500	636.761	79.996	19.995	101.034	20.058	8.651	0.501
1114.000	637.013	79.996	19.994	101.040	20.059	8.555	0.510
1114.500	637.284	79.997	19.995	101.043	20.064	8.210	0.517
1115.000	637.533	79.997	19.996	101.044	20.059	8.555	0.522
1115.500	637.797	79.997	19.995	101.045	20.061	8.469	0.517
1116.000	638.036	79.997	19.996	101.040	20.059	8.563	0.508
1116.500	638.292	79.995	19.995	101.040	20.061	8.480	0.499
1117.000	638.550	79.996	19.995	101.042	20.060	8.529	0.505
1117.500	638.801	79.996	19.995	101.043	20.058	8.690	0.511
1118.000	639.058	79.995	19.996	101.043	20.059	8.577	0.508
1118.500	639.345	79.996	19.995	101.043	20.064	8.267	0.526
1119.000	639.581	79.996	19.995	101.038	20.060	8.509	0.534
1119.500	639.854	79.996	19.997	101.039	20.062	8.400	0.516
1120.000	640.092	79.996	19.995	101.038	20.060	8.494	0.510
1120.500	640.310	79.996	19.996	101.040	20.060	8.488	0.484
1121.000	640.604	79.997	19.995	101.040	20.057	8.754	0.484
1121.500	640.835	79.997	19.995	101.037	20.058	8.642	0.518
1122.000	641.102	79.996	19.995	101.035	20.062	8.377	0.511
1122.500	641.380	79.996	19.995	101.042	20.058	8.642	0.522
1123.000	641.630	79.996	19.995	101.048	20.056	8.789	0.536
1123.500	641.826	79.996	19.994	101.055	20.060	8.505	0.486
1124.000	642.101	79.996	19.994	101.058	20.062	8.370	0.459
1124.501	642.373	79.996	19.995	101.056	20.056	8.835	0.510
1125.001	642.626	79.995	19.995	101.048	20.062	8.375	0.536
1125.500	642.873	79.997	19.995	101.045	20.059	8.563	0.512
1126.000	643.131	79.997	19.997	101.039	20.058	8.651	0.503
1126.500	643.384	79.995	19.996	101.039	20.059	8.609	0.508
1127.000	643.635	79.995	19.996	101.044	20.059	8.613	0.507
1127.500	643.881	79.996	19.996	101.051	20.059	8.589	0.500
1128.000	644.155	79.996	19.996	101.053	20.056	8.786	0.509
1128.500	644.403	79.996	19.997	101.058	20.058	8.677	0.521
1129.000	644.693	79.995	19.996	101.060	20.059	8.588	0.530
1129.500	644.910	79.995	19.996	101.062	20.059	8.567	0.522
1130.000	645.133	79.996	19.996	101.060	20.056	8.810	0.474
1130.500	645.413	79.995	19.996	101.061	20.058	8.692	0.472
1131.000	645.643	79.995	19.996	101.059	20.056	8.770	0.507
1131.500	645.899	79.994	19.996	101.058	20.056	8.830	0.498
1132.000	646.186	79.995	19.998	101.056	20.055	8.856	0.514
1132.500	646.449	79.996	19.997	101.056	20.056	8.816	0.547
1133.000	646.716	79.995	19.997	101.054	20.053	9.041	0.540
1133.500	646.942	79.995	19.996	101.055	20.058	8.662	0.511
1134.000	647.182	79.995	19.998	101.056	20.054	8.952	0.480
1134.500	647.450	79.995	19.997	101.059	20.059	8.582	0.487
1135.000	647.676	79.995	19.996	101.060	20.055	8.860	0.501
1135.500	647.949	79.994	19.996	101.060	20.054	8.955	0.496
1136.000	648.192	79.995	19.996	101.055	20.057	8.764	0.507
1136.500	648.475	79.995	19.996	101.052	20.059	8.578	0.521
1137.000	648.748	79.994	19.995	101.050	20.055	8.861	0.541
1137.500	648.984	79.995	19.996	101.051	20.052	9.088	0.533
1138.000	649.223	79.995	19.997	101.053	20.054	8.940	0.492
1138.501	649.483	79.993	19.996	101.060	20.058	8.694	0.487
1139.000	649.751	79.995	19.996	101.065	20.061	8.454	0.514
1139.500	649.998	79.995	19.996	101.066	20.052	9.079	0.522
1140.000	650.260	79.996	19.997	101.066	20.052	9.093	0.512
1140.500	650.529	79.995	19.997	101.066	20.050	9.194	0.520
1141.000	650.791	79.996	19.996	101.066	20.045	9.602	0.531
1141.500	650.989	79.996	19.996	101.066	20.053	9.036	0.496
1142.000	651.263	79.996	19.996	101.067	20.049	9.274	0.466
1142.500	651.499	79.996	19.997	101.066	20.050	9.224	0.491
1143.000	651.785	79.995	19.996	101.070	20.056	8.816	0.516
1143.500	652.034	79.996	19.997	101.069	20.050	9.237	0.529
1144.000	652.295	79.998	19.996	101.070	20.049	9.298	0.522
1144.500	652.530	79.996	19.997	101.070	20.047	9.437	0.502
1145.000	652.772	79.996	19.996	101.070	20.049	9.278	0.486
1145.500	653.060	79.997	19.997	101.066	20.048	9.330	0.504
1146.000	653.288	79.996	19.996	101.066	20.050	9.198	0.523
1146.500	653.571	79.997	19.996	101.064	20.054	8.939	0.514
1147.000	653.812	79.996	19.995	101.062	20.053	9.035	0.518
1147.500	654.055	79.997	19.997	101.062	20.053	9.038	0.504
1148.000	654.302	79.997	19.997	101.061	20.051	9.174	0.486
1148.500	654.538	79.997	19.996	101.061	20.053	9.029	0.486
1149.000	654.829	79.997	19.995	101.063	20.053	8.998	0.505
1149.500	655.089	79.998	19.996	101.064	20.046	9.478	0.539
1150.000	655.318	79.997	19.996	101.065	20.047	9.434	0.520
1150.500	655.545	79.997	19.996	101.066	20.048	9.340	0.472
1151.000	655.843	79.997	19.995	101.069	20.045	9.541	0.491
1151.500	656.058	79.998	19.996	101.070	20.045	9.557	0.519
1152.000	656.318	79.997	19.996	101.071	20.051	9.185	0.494
1152.500	656.581	79.998	19.995	101.070	20.043	9.685	0.500
1153.000	656.795	79.998	19.996	101.070	20.047	9.439	0.500
1153.500	657.044	79.996	19.996	101.067	20.048	9.393	0.469
1154.000	657.336	79.998	19.997	101.065	20.048	9.333	0.502
1154.500	657.593	79.995	19.996	101.065	20.043	9.713	0.545
1155.000	657.788	79.996	19.995	101.064	20.052	9.111	0.501
1155.500	658.073	79.997	19.996	101.066	20.046	9.485	0.466
1156.000	658.281	79.997	19.996	101.071	20.045	9.581	0.486
1156.500	658.600	79.998	19.995	101.075	20.044	9.650	0.510
1157.000	658.824	79.997	19.997	101.079	20.046	9.494	0.535
1157.500	659.038	79.996	19.996	101.079	20.044	9.643	0.490
1158.000	659.316	79.996	19.996	101.081	20.042	9.809	0.465
1158.500	659.556	79.997	19.996	101.081	20.042	9.776	0.505
1159.000	659.837	79.996	19.996	101.082	20.041	9.832	0.519
1159.500	660.053	79.997	19.997	101.079	20.045	9.555	0.509
1160.000	660.337	79.996	19.996	101.078	20.044	9.679	0.499
1160.500	660.598	79.996	19.997	101.075	20.042	9.790	0.522
1161.000	660.846	79.995	19.996	101.068	20.048	9.353	0.527
1161.500	661.157	79.996	19.997	101.068	20.044	9.618	0.535
1162.000	661.284	79.996	19.997	101.075	20.043	9.729	0.499
1162.500	661.543	79.997	19.997	101.080	20.045	9.567	0.412
1163.000	661.908	79.997	19.997	101.081	20.043	9.723	0.505
1163.500	662.113	79.996	19.996	101.085	20.039	9.994	0.597
1164.000	662.327	79.996	19.996	101.083	20.047	9.437	0.494
1164.500	662.580	79.996	19.997	101.076	20.045	9.557	0.443
1165.000	662.787	79.996	19.996	101.074	20.044	9.648	0.464
1165.500	663.096	79.997	19.997	101.079	20.043	9.704	0.489
1166.000	663.375	79.996	19.998	101.082	20.044	9.624	0.552
1166.500	663.562	79.996	19.996	101.087	20.045	9.606	0.527
1167.000	663.863	79.995	19.996	101.093	20.043	9.700	0.477
1167.500	664.094	79.997	19.996	101.098	20.042	9.757	0.509
1168.000	664.406	79.997	19.996	101.101	20.045	9.561	0.537
1168.500	664.657	79.996	19.996	101.102	20.045	9.565	0.553
1169.000	664.846	79.998	19.997	101.102	20.043	9.733	0.502
1169.500	665.119	79.997	19.995	101.103	20.044	9.647	0.451
1170.000	665.325	79.998	19.996	101.104	20.037	10.133	0.470
1170.500	665.606	79.998	19.996	101.104	20.041	9.855	0.483
1171.000	665.845	79.999	19.996	101.104	20.045	9.550	0.504
1171.500	666.126	79.997	19.995	101.104	20.041	9.870	0.520
1172.000	666.378	79.997	19.995	101.104	20.041	9.865	0.527
1172.500	666.629	79.998	19.995	101.104	20.040	9.909	0.518
1173.000	666.864	79.998	19.995	101.104	20.045	9.581	0.494
1173.500	667.105	79.999	19.995	101.104	20.045	9.543	0.481
1174.000	667.335	79.998	19.995	101.104	20.043	9.686	0.474
1174.500	667.700	79.998	19.995	101.104	20.045	9.605	0.533
1175.000	667.908	79.999	19.994	101.103	20.043	9.723	0.584
1175.500	668.108	79.997	19.994	101.102	20.044	9.661	0.491
1176.000	668.386	79.998	19.994	101.102	20.043	9.730	0.443
1176.500	668.718	80.000	19.995	101.102	20.042	9.783	0.544
1177.000	668.947	79.999	19.995	101.102	20.040	9.894	0.585
1177.500	669.140	79.999	19.996	101.101	20.041	9.875	0.491
1178.000	669.394	79.997	19.996	101.102	20.043	9.686	0.434
1178.500	669.651	79.997	19.996	101.102	20.042	9.808	0.479
1179.000	669.923	79.998	19.995	101.104	20.038	10.063	0.520
1179.500	670.167	79.996	19.997	101.105	20.041	9.859	0.523
1180.000	670.440	79.998	19.997	101.107	20.042	9.791	0.516
1180.500	670.693	79.996	19.996	101.107	20.041	9.885	0.521
1181.000	670.912	79.995	19.995	101.107	20.037	10.118	0.499
1181.500	671.155	79.996	19.996	101.107	20.043	9.741	0.467
1182.000	671.444	79.995	19.996	101.108	20.040	9.963	0.497
1182.500	671.650	79.995	19.996	101.108	20.041	9.873	0.514
1183.000	671.938	79.994	19.994	101.110	20.041	9.894	0.495
1183.500	672.150	79.995	19.995	101.115	20.038	10.035	0.497
1184.000	672.416	79.995	19.995	101.114	20.035	10.274	0.488
1184.500	672.673	79.995	19.996	101.113	20.038	10.096	0.500
1185.001	672.904	79.995	19.997	101.113	20.035	10.248	0.506
1185.500	673.188	79.995	19.996	101.111	20.033	10.437	0.501
1186.000	673.432	79.995	19.995	101.108	20.036	10.223	0.521
1186.500	673.666	79.993	19.995	101.109	20.034	10.336	0.503
1187.000	673.948	79.995	19.995	101.114	20.034	10.383	0.497
1187.500	674.232	79.995	19.996	101.119	20.033	10.427	0.541
1188.000	674.447	79.997	19.996	101.120	20.038	10.040	0.533
1188.500	674.683	79.994	19.996	101.119	20.035	10.250	0.475
1189.001	674.929	79.995	19.996	101.117	20.040	9.914	0.466
1189.501	675.225	79.996	19.996	101.114	20.033	10.399	0.512
1190.000	675.472	79.994	19.996	101.110	20.034	10.335	0.542
1190.500	675.733	79.995	19.996	101.113	20.033	10.403	0.525
1191.000	675.972	79.994	19.996	101.118	20.037	10.135	0.504
1191.500	676.224	79.996	19.996	101.125	20.033	10.388	0.496
1192.000	676.508	79.996	19.996	101.131	20.035	10.285	0.513
1192.500	676.731	79.994	19.996	101.138	20.037	10.117	0.521
1193.000	676.963	79.996	19.996	101.140	20.033	10.416	0.481
1193.500	677.239	79.994	19.995	101.140	20.033	10.421	0.481
1194.000	677.466	79.996	19.996	101.141	20.033	10.448	0.505
1194.500	677.750	79.996	19.995	101.140	20.033	10.418	0.507
1195.000	677.955	79.993	19.996	101.139	20.034	10.373	0.500
1195.500	678.334	79.995	19.996	101.135	20.036	10.201	0.537
1196.000	678.432	79.995	19.997	101.134	20.034	10.375	0.531
1196.500	678.722	79.996	19.996	101.133	20.035	10.251	0.432
1197.000	678.970	79.995	19.996	101.134	20.037	10.110	0.462
1197.500	679.213	79.996	19.997	101.131	20.033	10.453	0.514
1198.000	679.448	79.996	19.997	101.130	20.033	10.449	0.485
1198.500	679.691	79.996	19.996	101.131	20.029	10.703	0.478
1199.000	679.927	79.995	19.995	101.130	20.032	10.499	0.478
1199.501	680.190	79.997	19.996	101.129	20.033	10.451	0.489
1200.000	680.391	79.995	19.996	101.131	20.032	10.499	0.481
1200.500	680.665	79.997	19.996	101.136	20.028	10.770	0.470
1201.000	680.933	79.995	19.996	101.139	20.031	10.564	0.509
1201.500	681.198	79.997	19.995	101.139	20.029	10.693	0.538
1202.001	681.430	79.997	19.997	101.141	20.029	10.735	0.515
1202.500	681.667	79.996	19.995	101.142	20.030	10.659	0.483
1203.000	681.919	79.997	19.996	101.139	20.031	10.573	0.478
1203.500	682.186	79.997	19.996	101.133	20.032	10.514	0.504
1204.000	682.429	79.996	19.994	101.129	20.031	10.593	0.515
1204.500	682.657	79.997	19.998	101.129	20.026	10.912	0.491
1205.000	682.907	79.996	19.996	101.129	20.027	10.810	0.475
1205.500	683.131	79.997	19.994	101.132	20.029	10.692	0.475
1206.000	683.413	79.996	19.996	101.138	20.027	10.856	0.489
1206.500	683.643	79.996	19.997	101.143	20.027	10.812	0.509
1207.000	683.908	79.995	19.995	101.144	20.030	10.604	0.504
1207.500	684.129	79.996	19.995	101.143	20.031	10.574	0.491
1208.000	684.400	79.995	19.996	101.143	20.030	10.663	0.489
1208.500	684.637	79.996	19.995	101.143	20.030	10.608	0.500
1209.000	684.881	79.997	19.997	101.143	20.031	10.595	0.494
1209.500	685.182	79.995	19.997	101.143	20.027	10.819	0.513
1210.000	685.390	79.996	19.997	101.143	20.027	10.868	0.527
1210.500	685.637	79.995	19.996	101.144	20.033	10.394	0.481
1211.000	685.898	79.997	19.998	101.144	20.026	10.924	0.481
1211.500	686.169	79.997	19.995	101.145	20.030	10.617	0.520
1212.000	686.387	79.997	19.995	101.149	20.021	11.233	0.511
1212.500	686.665	79.996	19.996	101.156	20.022	11.210	0.493
1213.000	686.895	79.996	19.995	101.160	20.024	11.074	0.502
1213.500	687.132	79.995	19.995	101.161	20.022	11.206	0.487
1214.000	687.423	79.997	19.996	101.161	20.024	11.075	0.497
1214.500	687.635	79.995	19.996	101.158	20.025	10.997	0.516
1215.000	687.911	79.998	19.995	101.152	20.028	10.798	0.496
1215.500	688.120	79.996	19.996	101.151	20.023	11.094	0.487
1216.000	688.380	79.996	19.996	101.149	20.028	10.758	0.476
1216.500	688.640	79.996	19.996	101.148	20.027	10.868	0.494
1217.000	688.898	79.996	19.997	101.149	20.024	11.087	0.519
1217.500	689.179	79.997	19.998	101.149	20.022	11.202	0.528
1218.000	689.434	79.995	19.995	101.147	20.026	10.929	0.537
1218.500	689.649	79.996	19.996	101.147	20.025	11.010	0.503
1219.000	689.909	79.997	19.996	101.147	20.028	10.794	0.473
1219.501	690.161	79.996	19.995	101.148	20.024	11.081	0.494
1220.000	690.417	79.995	19.996	101.153	20.025	10.986	0.510
1220.500	690.665	79.994	19.995	101.161	20.023	11.153	0.506
1221.000	690.923	79.996	19.997	101.168	20.026	10.930	0.505
1221.500	691.196	79.996	19.996	101.176	20.026	10.920	0.518
1222.000	691.469	79.996	19.996	101.181	20.023	11.142	0.538
1222.500	691.712	79.996	19.996	101.181	20.023	11.149	0.531
1223.000	691.958	79.996	19.996	101.177	20.023	11.098	0.503
1223.500	692.216	79.996	19.996	101.175	20.025	10.999	0.496
1224.000	692.437	79.996	19.997	101.175	20.026	10.915	0.492
1224.500	692.677	79.997	19.996	101.175	20.024	11.055	0.470
1225.000	692.948	79.996	19.997	101.176	20.025	10.953	0.486
1225.500	693.182	79.998	19.996	101.179	20.023	11.150	0.508
1226.000	693.430	79.997	19.995	101.180	20.023	11.117	0.493
1226.500	693.641	79.997	19.997	101.179	20.025	11.016	0.470
1227.000	693.913	79.997	19.997	101.176	20.022	11.213	0.471
1227.500	694.194	79.996	19.995	101.173	20.025	11.020	0.518
1228.000	694.457	79.996	19.997	101.171	20.022	11.227	0.548
1228.500	694.699	79.998	19.997	101.170	20.023	11.104	0.524
1229.000	694.984	79.998	19.997	101.171	20.023	11.152	0.516
1229.500	695.224	79.996	19.995	101.174	20.022	11.217	0.526
1230.000	695.511	79.996	19.996	101.177	20.017	11.539	0.526
1230.500	695.746	79.997	19.997	101.179	20.022	11.173	0.525
1231.000	695.980	79.997	19.996	101.182	20.021	11.242	0.496
1231.500	696.258	79.997	19.996	101.182	20.023	11.156	0.491
1232.000	696.521	79.996	19.996	101.180	20.024	11.077	0.526
1232.500	696.762	79.996	19.996	101.178	20.020	11.324	0.522
1233.000	697.039	79.996	19.996	101.178	20.019	11.439	0.511
1233.500	697.282	79.997	19.997	101.178	20.022	11.208	0.519
1234.000	697.535	79.998	19.997	101.179	20.017	11.521	0.508
1234.500	697.757	79.996	19.995	101.181	20.019	11.384	0.486
1235.000	698.041	79.997	19.997	101.184	20.018	11.450	0.491
1235.500	698.324	79.997	19.995	101.184	20.017	11.523	0.537
1236.000	698.514	79.996	19.996	101.184	20.018	11.493	0.520
1236.500	698.809	79.995	19.995	101.183	20.016	11.596	0.479
1237.000	699.049	79.996	19.995	101.183	20.014	11.794	0.510
1237.500	699.305	79.997	19.997	101.184	20.021	11.248	0.515
1238.000	699.567	79.996	19.996	101.185	20.017	11.562	0.507
1238.500	699.827	79.997	19.997	101.187	20.016	11.604	0.520
1239.000	700.070	79.996	19.995	101.193	20.020	11.331	0.513
1239.500	700.340	79.998	19.994	101.199	20.014	11.793	0.508
1240.000	700.561	79.997	19.997	101.205	20.015	11.681	0.502
1240.500	700.866	79.998	19.996	101.205	20.011	11.999	0.509
1241.000	701.075	79.996	19.996	101.204	20.017	11.585	0.520
1241.500	701.328	79.997	19.996	101.204	20.015	11.710	0.488
1242.000	701.590	79.997	19.996	101.205	20.014	11.740	0.489
1242.500	701.852	79.996	19.997	101.202	20.016	11.593	0.520
1243.000	702.089	79.996	19.996	101.202	20.014	11.731	0.512
1243.500	702.333	79.997	19.996	101.203	20.017	11.546	0.490
1244.000	702.596	79.997	19.996	101.197	20.018	11.486	0.494
1244.500	702.846	79.997	19.997	101.190	20.014	11.742	0.510
1245.000	703.113	79.996	19.997	101.192	20.020	11.351	0.515
1245.500	703.356	79.998	19.998	101.199	20.014	11.740	0.514
1246.000	703.596	79.997	19.997	101.206	20.018	11.479	0.496
1246.500	703.881	79.997	19.996	101.209	20.014	11.765	0.504
1247.000	704.088	79.998	19.996	101.211	20.016	11.646	0.508
1247.500	704.346	79.997	19.996	101.213	20.017	11.549	0.478
1248.000	704.608	79.997	19.996	101.212	20.018	11.478	0.493
1248.500	704.879	79.998	19.996	101.212	20.015	11.707	0.527
1249.000	705.130	79.996	19.996	101.215	20.016	11.650	0.527
1249.500	705.339	79.998	19.995	101.220	20.014	11.751	0.491
1250.000	705.599	79.997	19.997	101.221	20.012	11.897	0.464
1250.500	705.852	79.997	19.997	101.221	20.013	11.820	0.491
1251.000	706.112	79.997	19.996	101.221	20.017	11.567	0.513
1251.500	706.394	79.997	19.997	101.222	20.014	11.777	0.528
1252.000	706.578	79.998	19.996	101.223	20.015	11.672	0.504
1252.500	706.889	79.997	19.996	101.224	20.014	11.761	0.480
1253.000	707.122	79.997	19.996	101.224	20.012	11.931	0.520
1253.500	707.368	79.996	19.996	101.224	20.013	11.828	0.511
1254.000	707.599	79.996	19.997	101.224	20.010	12.009	0.478
1254.500	707.844	79.997	19.995	101.224	20.013	11.804	0.476
1255.000	708.112	79.997	19.996	101.223	20.013	11.866	0.495
1255.500	708.361	79.997	19.996	101.223	20.015	11.709	0.515
1256.000	708.615	79.998	19.997	101.223	20.015	11.660	0.510
1256.500	708.865	79.997	19.997	101.223	20.010	12.061	0.503
1257.000	709.139	79.997	19.996	101.223	20.015	11.660	0.514
1257.500	709.394	79.998	19.997	101.223	20.015	11.708	0.527
1258.000	709.652	79.998	19.998	101.223	20.014	11.757	0.522
1258.500	709.865	79.997	19.997	101.222	20.018	11.467	0.492
1259.000	710.122	79.998	19.997	101.222	20.012	11.888	0.470
1259.500	710.366	79.996	19.996	101.221	20.014	11.789	0.485
1260.000	710.644	79.996	19.997	101.221	20.014	11.739	0.512
1260.500	710.865	79.998	19.997	101.222	20.012	11.912	0.511
1261.000	711.115	79.998	19.997	101.223	20.016	11.660	0.485
1261.500	711.392	79.998	19.996	101.225	20.014	11.753	0.498
1262.000	711.679	79.996	19.996	101.226	20.016	11.613	0.546
1262.500	711.918	79.997	19.997	101.227	20.012	11.925	0.545
1263.000	712.127	79.997	19.997	101.225	20.013	11.846	0.487
1263.500	712.370	79.995	19.996	101.223	20.012	11.909	0.449
1264.000	712.656	79.997	19.996	101.222	20.009	12.142	0.490
1264.500	712.893	79.997	19.997	101.221	20.010	12.032	0.527
1265.000	713.134	79.997	19.996	101.220	20.010	12.072	0.501
1265.500	713.387	79.997	19.996	101.219	20.012	11.884	0.486
1266.000	713.642	79.996	19.996	101.219	20.011	11.963	0.501
1266.500	713.890	79.996	19.996	101.219	20.011	11.940	0.505
1267.000	714.146	79.997	19.996	101.221	20.011	12.000	0.503
1267.500	714.416	79.995	19.996	101.222	20.009	12.093	0.515
1268.000	714.696	79.996	19.996	101.224	20.008	12.162	0.538
1268.500	714.942	79.996	19.995	101.223	20.009	12.112	0.538
1269.000	715.162	79.996	19.996	101.224	20.008	12.183	0.496
1269.500	715.426	79.998	19.996	101.226	20.011	11.980	0.475
1270.000	715.689	79.996	19.996	101.230	20.009	12.133	0.506
1270.500	715.988	79.995	19.995	101.238	20.011	11.995	0.544
1271.000	716.212	79.996	19.996	101.246	20.010	12.011	0.542
1271.500	716.453	79.998	19.996	101.253	20.008	12.180	0.494
1272.000	716.715	79.995	19.994	101.254	20.008	12.154	0.484
1272.500	716.993	79.995	19.996	101.251	20.012	11.889	0.521
1273.000	717.239	79.996	19.995	101.242	20.010	12.057	0.532
1273.501	717.498	79.996	19.995	101.235	20.010	12.047	0.514
1274.001	717.768	79.997	19.998	101.230	20.007	12.221	0.517
1274.500	718.000	79.997	19.995	101.229	20.012	11.880	0.516
1275.000	718.256	79.996	19.996	101.232	20.015	11.681	0.495
1275.500	718.521	79.996	19.996	101.236	20.011	11.963	0.505
1276.000	718.790	79.994	19.996	101.240	20.011	11.969	0.527
1276.500	719.014	79.998	19.996	101.242	20.011	11.973	0.514
1277.000	719.304	79.997	19.995	101.239	20.010	12.070	0.504
1277.500	719.517	79.996	19.995	101.234	20.010	12.014	0.508
1278.000	719.753	79.995	19.996	101.230	20.007	12.247	0.476
1278.500	720.041	79.996	19.995	101.225	20.005	12.411	0.486
1279.000	720.307	79.996	19.994	101.221	20.006	12.298	0.539
1279.500	720.510	79.997	19.997	101.220	20.010	12.040	0.512
1280.000	720.769	79.996	19.995	101.221	20.007	12.275	0.466
1280.500	721.021	79.996	19.995	101.221	20.006	12.328	0.486
1281.000	721.279	79.998	19.997	101.219	20.004	12.458	0.511
1281.500	721.549	79.996	19.996	101.219	20.013	11.810	0.519
1282.000	721.820	79.995	19.995	101.220	20.008	12.169	0.534
1282.500	722.093	79.996	19.995	101.219	20.007	12.231	0.543
1283.000	722.288	79.996	19.995	101.221	20.006	12.305	0.506
1283.501	722.580	79.995	19.998	101.223	20.009	12.098	0.478
1284.001	722.813	79.995	19.996	101.223	20.008	12.183	0.506
1284.500	723.050	79.997	19.996	101.224	20.011	11.936	0.497
1285.000	723.341	79.996	19.997	101.226	20.007	12.256	0.499
1285.500	723.552	79.996	19.997	101.227	20.008	12.149	0.515
1286.000	723.885	79.998	19.996	101.226	20.007	12.274	0.523
1286.500	724.120	79.997	19.997	101.224	20.012	11.910	0.556
1287.000	724.340	79.995	19.995	101.224	20.012	11.929	0.512
1287.500	724.603	79.998	19.996	101.221	20.012	11.865	0.469
1288.000	724.854	79.996	19.996	101.219	20.012	11.869	0.498
1288.500	725.108	79.996	19.995	101.217	20.013	11.793	0.509
1289.000	725.371	79.995	19.996	101.216	20.013	11.806	0.511
1289.500	725.649	79.995	19.996	101.215	20.011	11.988	0.529
1290.000	725.876	79.996	19.996	101.214	20.015	11.657	0.523
1290.500	726.132	79.996	19.996	101.210	20.015	11.669	0.494
1291.000	726.412	79.997	19.997	101.211	20.016	11.643	0.509
1291.500	726.664	79.998	19.996	101.212	20.012	11.884	0.534
1292.000	726.886	79.997	19.997	101.210	20.013	11.824	0.503
1292.500	727.163	79.996	19.996	101.204	20.012	11.899	0.487
1293.000	727.393	79.994	19.995	101.201	20.014	11.752	0.503
1293.501	727.691	79.997	19.997	101.196	20.017	11.561	0.518
1294.000	727.893	79.997	19.996	101.190	20.021	11.244	0.514
1294.500	728.174	79.996	19.995	101.183	20.020	11.312	0.492
1295.000	728.435	79.994	19.995	101.178	20.017	11.501	0.513
1295.500	728.706	79.997	19.997	101.173	20.017	11.539	0.537
1296.000	728.946	79.995	19.996	101.168	20.017	11.502	0.521
1296.500	729.193	79.996	19.996	101.164	20.021	11.230	0.499
1297.000	729.479	79.994	19.996	101.158	20.023	11.126	0.510
1297.500	729.707	79.995	19.996	101.157	20.023	11.107	0.524
1298.000	729.980	79.996	19.997	101.157	20.017	11.526	0.508
1298.500	730.278	79.996	19.994	101.152	20.023	11.099	0.536
1299.000	730.501	79.995	19.995	101.150	20.027	10.829	0.546
1299.500	730.738	79.995	19.996	101.150	20.024	11.027	0.491
1300.000	731.021	79.997	19.996	101.147	20.029	10.724	0.490
1300.500	731.289	79.995	19.995	101.138	20.030	10.638	0.535
1301.000	731.563	79.995	19.995	101.131	20.027	10.798	0.546
1301.500	731.803	79.996	19.995	101.123	20.029	10.680	0.528
1302.000	732.076	79.996	19.996	101.110	20.035	10.295	0.514
1302.500	732.393	79.996	19.995	101.101	20.030	10.592	0.552
1303.000	732.591	79.996	19.996	101.093	20.032	10.465	0.553
1303.500	732.884	79.996	19.996	101.085	20.031	10.541	0.503
1304.000	733.118	79.999	19.997	101.077	20.033	10.432	0.509
1304.501	733.371	79.998	19.997	101.074	20.032	10.485	0.507
1305.001	733.678	79.997	19.995	101.068	20.031	10.559	0.523
1305.501	733.942	79.996	19.996	101.062	20.035	10.287	0.566
1306.000	734.187	79.997	19.995	101.055	20.037	10.113	0.540
1306.500	734.426	79.997	19.995	101.048	20.040	9.919	0.496
1307.000	734.657	79.995	19.995	101.040	20.037	10.117	0.477
1307.500	734.975	79.996	19.996	101.034	20.040	9.894	0.510
1308.000	735.239	79.997	19.996	101.032	20.040	9.947	0.566
1308.501	735.467	79.997	19.997	101.033	20.039	9.980	0.537
1309.001	735.729	79.999	19.995	101.036	20.041	9.871	0.491
1309.500	735.976	79.997	19.996	101.038	20.037	10.155	0.499
1310.000	736.230	79.997	19.996	101.037	20.041	9.865	0.505
1310.500	736.501	79.997	19.996	101.034	20.041	9.850	0.513
1311.000	736.758	79.996	19.995	101.033	20.041	9.851	0.526
1311.500	737.039	79.996	19.996	101.031	20.046	9.522	0.533
1312.000	737.243	79.996	19.995	101.030	20.041	9.849	0.512
1312.500	737.530	79.997	19.996	101.029	20.042	9.796	0.488
1313.000	737.762	79.997	19.995	101.028	20.045	9.535	0.504
1313.500	738.054	80.000	19.996	101.026	20.045	9.548	0.522
1314.000	738.337	79.997	19.996	101.022	20.037	10.095	0.550
1314.500	738.551	79.997	19.996	101.020	20.043	9.721	0.536
1315.000	738.792	79.996	19.995	101.014	20.045	9.561	0.476
1315.500	739.062	79.997	19.997	101.010	20.042	9.752	0.483
1316.000	739.339	79.996	19.995	101.008	20.040	9.910	0.529
1316.500	739.568	79.998	19.996	101.008	20.046	9.489	0.527
1317.000	739.844	79.997	19.997	101.002	20.043	9.678	0.506
1317.500	740.120	79.996	19.998	101.004	20.044	9.601	0.528
1318.000	740.333	79.996	19.997	101.007	20.044	9.657	0.520
1318.500	740.600	79.996	19.996	101.004	20.044	9.619	0.484
1319.000	740.852	79.995	19.996	101.003	20.047	9.390	0.500
1319.500	741.106	79.997	19.996	101.007	20.040	9.929	0.513
1320.000	741.366	79.993	19.995	101.004	20.048	9.327	0.510
1320.500	741.609	79.995	19.997	100.998	20.046	9.463	0.508
1321.000	741.898	79.993	19.997	100.998	20.044	9.608	0.517
1321.500	742.099	79.998	19.997	100.995	20.045	9.558	0.511
1322.000	742.368	79.997	19.996	100.991	20.041	9.863	0.479
1322.500	742.623	79.996	19.997	100.992	20.039	9.966	0.497
1323.000	742.868	79.996	19.996	100.992	20.046	9.473	0.512
1323.500	743.113	79.997	19.996	100.991	20.045	9.578	0.495
1324.000	743.362	79.995	19.996	100.989	20.042	9.790	0.492
1324.500	743.638	79.996	19.997	100.988	20.046	9.506	0.510
