Sample ID:	C:\MCC\MCC Cal\Test\Carpet_Polyolefin_LowPile_211007_R1.txt
Sample Weight (mg):	4.38
Heating Rate (C/s):	0.5
Combustor Temp (C):	900
N2 Flow Rate (cc/min):	80
O2 Flow Rate (cc/min):	20
Calibration File:	C:\MCC\MCC Cal\Coeff1 JN10440_30_210304.txt.txt
T Correction Coefficients:	0	1.024463	0
Time Shift (s):	14
*
Time (s)	Temperature (C)	N2 flow rate (cc/min)	O2 flow rate (cc/min)	Flow Rate (cc/min)	Oxygen (%)	HRR (W/g)	Heating rate (C/s)
0.000	106.250	79.997	19.997	100.664	20.267	0.404	0.003
0.499	106.201	79.996	19.996	100.664	20.271	0.102	0.017
1.000	106.230	79.997	19.996	100.669	20.266	0.490	-0.013
1.500	106.214	79.998	19.996	100.674	20.269	0.295	-0.004
2.000	106.196	79.997	19.996	100.680	20.267	0.420	-0.010
2.500	106.217	79.997	19.995	100.680	20.270	0.191	-0.015
3.000	106.186	79.997	19.998	100.679	20.271	0.119	-0.003
3.500	106.195	79.999	19.999	100.679	20.268	0.377	-0.016
4.000	106.215	79.997	19.998	100.681	20.266	0.492	0.004
4.500	106.184	79.998	20.000	100.681	20.268	0.381	0.009
5.000	106.249	79.997	19.998	100.683	20.271	0.119	0.011
5.500	106.244	79.996	19.996	100.689	20.271	0.104	0.047
6.000	106.246	79.998	19.998	100.688	20.270	0.211	0.028
6.500	106.228	79.997	19.997	100.682	20.271	0.113	-0.009
7.000	106.220	79.998	19.997	100.677	20.274	-0.070	-0.020
7.500	106.230	79.998	19.995	100.677	20.272	0.037	-0.012
8.000	106.238	79.997	19.996	100.676	20.270	0.240	0.010
8.500	106.209	79.997	19.996	100.678	20.268	0.344	-0.002
8.999	106.191	79.997	19.996	100.678	20.272	0.100	-0.034
9.499	106.231	79.996	19.996	100.683	20.271	0.119	-0.012
9.999	106.209	79.996	19.996	100.684	20.268	0.358	0.020
10.499	106.217	79.996	19.997	100.685	20.270	0.231	0.002
10.999	106.190	79.998	19.996	100.685	20.269	0.281	-0.016
11.499	106.207	79.997	19.996	100.685	20.272	0.041	-0.015
11.999	106.201	79.997	19.996	100.684	20.268	0.326	0.000
12.499	106.186	79.996	19.996	100.687	20.267	0.426	-0.005
12.999	106.196	79.995	19.996	100.689	20.270	0.184	-0.013
13.499	106.177	79.996	19.996	100.691	20.270	0.209	-0.006
13.999	106.178	79.995	19.995	100.697	20.269	0.293	-0.013
14.499	106.200	79.996	19.997	100.701	20.270	0.223	0.002
14.999	106.204	79.997	19.997	100.702	20.269	0.313	0.024
15.500	106.188	79.997	19.996	100.702	20.269	0.297	0.007
16.000	106.201	79.996	19.996	100.701	20.269	0.309	-0.007
16.500	106.231	79.995	19.995	100.701	20.268	0.344	0.020
17.000	106.215	79.996	19.997	100.701	20.268	0.354	0.029
17.500	106.227	79.996	19.996	100.703	20.267	0.455	0.005
18.000	106.243	79.996	19.997	100.708	20.267	0.399	0.011
18.500	106.229	79.996	19.996	100.713	20.263	0.702	0.015
19.000	106.259	79.995	19.997	100.720	20.263	0.680	0.009
19.500	106.295	79.996	19.997	100.727	20.267	0.430	0.041
20.000	106.243	79.997	19.997	100.733	20.264	0.614	0.025
20.500	106.249	79.996	19.997	100.736	20.263	0.745	-0.031
21.000	106.269	79.996	19.997	100.739	20.265	0.598	-0.010
21.500	106.281	79.996	19.997	100.739	20.263	0.741	0.029
22.000	106.321	79.994	19.997	100.739	20.261	0.835	0.042
22.500	106.313	79.996	19.996	100.739	20.259	0.969	0.042
23.000	106.320	79.996	19.997	100.739	20.262	0.795	0.016
23.500	106.362	79.997	19.996	100.744	20.258	1.089	0.024
24.000	106.339	79.997	19.997	100.747	20.256	1.180	0.034
24.500	106.352	79.995	19.998	100.751	20.257	1.130	0.004
25.000	106.394	79.996	19.996	100.758	20.255	1.267	0.023
25.500	106.394	79.997	19.997	100.766	20.257	1.143	0.049
26.000	106.402	79.997	19.996	100.771	20.256	1.247	0.025
26.500	106.427	79.996	19.996	100.776	20.259	1.003	0.020
27.000	106.449	79.997	19.996	100.780	20.257	1.167	0.040
27.500	106.490	79.996	19.996	100.780	20.258	1.038	0.055
28.000	106.491	79.997	19.996	100.774	20.251	1.590	0.052
28.500	106.495	79.998	19.996	100.769	20.255	1.261	0.023
29.000	106.549	79.997	19.995	100.767	20.254	1.377	0.032
29.500	106.573	79.997	19.996	100.768	20.255	1.303	0.068
30.000	106.594	79.998	19.995	100.768	20.253	1.441	0.062
30.500	106.620	79.997	19.997	100.775	20.254	1.355	0.046
31.000	106.646	79.997	19.996	100.780	20.251	1.547	0.050
31.500	106.655	79.998	19.996	100.782	20.250	1.616	0.043
32.000	106.711	79.998	19.996	100.786	20.248	1.786	0.049
32.499	106.733	79.997	19.995	100.789	20.248	1.755	0.071
32.999	106.716	79.999	19.996	100.788	20.249	1.706	0.042
33.499	106.766	79.999	19.997	100.788	20.248	1.767	0.019
33.999	106.822	79.998	19.995	100.787	20.251	1.563	0.070
34.500	106.866	79.999	19.995	100.784	20.248	1.786	0.103
35.001	106.893	79.999	19.995	100.783	20.250	1.637	0.085
35.501	106.929	79.996	19.995	100.783	20.250	1.628	0.067
36.000	106.919	79.997	19.995	100.786	20.247	1.894	0.045
36.499	106.985	79.999	19.995	100.793	20.244	2.068	0.041
36.999	107.004	79.998	19.996	100.803	20.243	2.132	0.070
37.499	107.042	79.998	19.995	100.815	20.245	2.037	0.071
37.999	107.076	79.998	19.995	100.827	20.243	2.182	0.065
38.499	107.131	79.998	19.996	100.834	20.242	2.236	0.081
38.999	107.180	79.997	19.995	100.841	20.243	2.150	0.096
39.499	107.224	79.997	19.994	100.845	20.241	2.315	0.098
40.000	107.275	79.997	19.996	100.846	20.239	2.430	0.094
40.500	107.326	79.998	19.995	100.849	20.243	2.172	0.098
40.999	107.378	79.997	19.996	100.854	20.240	2.377	0.102
41.500	107.415	79.998	19.996	100.856	20.239	2.467	0.096
42.001	107.430	79.998	19.996	100.860	20.240	2.399	0.071
42.500	107.505	79.998	19.995	100.862	20.237	2.612	0.071
42.999	107.593	79.999	19.996	100.866	20.236	2.630	0.126
43.499	107.607	79.998	19.996	100.871	20.235	2.730	0.133
43.999	107.711	79.998	19.996	100.877	20.231	3.017	0.110
44.499	107.784	79.999	19.995	100.879	20.233	2.892	0.147
45.000	107.850	79.998	19.995	100.879	20.232	2.945	0.158
45.500	107.892	79.997	19.995	100.877	20.234	2.812	0.124
45.999	107.975	79.998	19.996	100.872	20.233	2.845	0.117
46.499	108.018	79.997	19.993	100.871	20.231	3.035	0.125
46.999	108.095	79.999	19.995	100.873	20.227	3.266	0.123
47.499	108.153	79.999	19.996	100.876	20.231	3.009	0.128
48.000	108.227	79.997	19.996	100.883	20.229	3.158	0.134
48.500	108.324	79.998	19.995	100.888	20.226	3.350	0.152
48.999	108.413	79.999	19.995	100.890	20.228	3.260	0.178
49.499	108.531	79.998	19.995	100.890	20.229	3.127	0.196
50.000	108.608	80.000	19.997	100.892	20.227	3.324	0.201
50.500	108.661	79.999	19.994	100.893	20.228	3.252	0.162
50.999	108.762	79.999	19.995	100.894	20.226	3.363	0.142
51.499	108.858	79.999	19.996	100.894	20.225	3.458	0.176
51.999	108.931	79.999	19.995	100.895	20.223	3.581	0.183
52.500	109.033	80.000	19.995	100.897	20.225	3.446	0.172
53.001	109.113	80.000	19.995	100.900	20.222	3.644	0.178
53.500	109.199	79.999	19.995	100.902	20.224	3.511	0.174
53.999	109.330	79.999	19.994	100.906	20.222	3.634	0.191
54.499	109.446	80.000	19.995	100.906	20.226	3.397	0.232
55.000	109.499	80.001	19.996	100.903	20.222	3.624	0.208
55.500	109.638	80.001	19.995	100.900	20.222	3.636	0.181
55.999	109.712	79.999	19.996	100.899	20.224	3.513	0.202
56.499	109.813	80.000	19.994	100.895	20.222	3.628	0.194
56.999	109.936	80.001	19.995	100.894	20.222	3.642	0.199
57.499	110.002	80.000	19.995	100.894	20.221	3.730	0.206
57.999	110.118	80.000	19.995	100.894	20.223	3.579	0.186
58.499	110.258	79.999	19.995	100.893	20.222	3.652	0.219
58.999	110.364	79.999	19.995	100.894	20.222	3.640	0.251
59.499	110.461	80.000	19.995	100.898	20.220	3.826	0.225
59.999	110.557	79.999	19.996	100.899	20.221	3.748	0.198
60.499	110.707	79.999	19.995	100.900	20.224	3.550	0.219
60.999	110.816	79.998	19.995	100.900	20.224	3.507	0.252
61.499	110.918	79.998	19.996	100.900	20.224	3.539	0.235
61.999	111.065	79.998	19.995	100.895	20.221	3.709	0.230
62.500	111.165	79.996	19.996	100.900	20.226	3.404	0.248
63.000	111.315	79.998	19.995	100.907	20.221	3.762	0.249
63.499	111.427	79.996	19.996	100.914	20.221	3.719	0.256
63.999	111.564	79.997	19.996	100.918	20.221	3.746	0.256
64.499	111.692	79.997	19.995	100.919	20.221	3.748	0.257
64.999	111.792	79.996	19.996	100.919	20.221	3.760	0.246
65.499	111.898	79.995	19.995	100.912	20.219	3.879	0.217
65.999	112.043	79.996	19.996	100.907	20.224	3.533	0.229
66.499	112.167	79.997	19.996	100.906	20.224	3.537	0.260
66.999	112.286	79.996	19.995	100.907	20.222	3.641	0.256
67.499	112.414	79.997	19.995	100.904	20.225	3.423	0.245
67.999	112.563	79.996	19.995	100.906	20.224	3.539	0.262
68.499	112.713	79.997	19.995	100.908	20.223	3.590	0.288
68.999	112.864	79.997	19.995	100.909	20.223	3.582	0.299
69.499	112.998	79.996	19.995	100.910	20.220	3.786	0.293
69.999	113.132	79.996	19.995	100.914	20.222	3.631	0.277
70.499	113.284	79.997	19.995	100.919	20.222	3.668	0.277
70.999	113.426	79.997	19.995	100.918	20.221	3.754	0.290
71.499	113.527	79.996	19.995	100.923	20.221	3.701	0.268
71.999	113.732	79.997	19.995	100.928	20.221	3.741	0.274
72.499	113.842	79.997	19.995	100.931	20.220	3.819	0.310
72.999	114.009	79.996	19.995	100.933	20.223	3.617	0.296
73.499	114.150	79.997	19.996	100.936	20.222	3.684	0.292
73.999	114.321	79.997	19.995	100.935	20.220	3.803	0.310
74.499	114.479	79.996	19.996	100.936	20.218	3.972	0.321
74.999	114.656	79.997	19.996	100.936	20.223	3.611	0.332
75.499	114.765	79.997	19.995	100.931	20.223	3.623	0.311
75.999	114.943	79.997	19.996	100.932	20.223	3.600	0.287
76.499	115.117	79.997	19.994	100.930	20.221	3.737	0.319
76.999	115.222	79.997	19.996	100.928	20.219	3.866	0.315
77.499	115.380	79.997	19.995	100.928	20.221	3.723	0.272
77.999	115.539	79.997	19.996	100.932	20.220	3.788	0.290
78.499	115.701	79.997	19.995	100.931	20.219	3.876	0.319
78.999	115.867	79.997	19.996	100.933	20.219	3.897	0.325
79.499	116.001	79.997	19.997	100.935	20.224	3.537	0.314
79.999	116.188	79.997	19.995	100.936	20.218	3.944	0.310
80.499	116.357	79.997	19.995	100.934	20.218	3.932	0.338
80.999	116.545	79.998	19.995	100.935	20.222	3.682	0.356
81.499	116.655	79.997	19.995	100.935	20.221	3.725	0.327
81.999	116.852	79.998	19.996	100.935	20.221	3.735	0.303
82.499	117.020	79.997	19.996	100.934	20.222	3.643	0.336
82.999	117.190	79.997	19.995	100.936	20.218	3.962	0.351
83.499	117.374	79.998	19.996	100.936	20.223	3.594	0.346
83.999	117.544	79.998	19.995	100.936	20.220	3.829	0.354
84.500	117.741	79.997	19.995	100.937	20.217	3.991	0.360
85.000	117.855	79.997	19.996	100.937	20.218	3.935	0.339
85.499	118.056	79.996	19.996	100.937	20.219	3.876	0.313
85.999	118.225	79.996	19.997	100.937	20.220	3.831	0.342
86.499	118.364	79.996	19.996	100.937	20.219	3.909	0.339
86.999	118.569	79.997	19.996	100.936	20.220	3.780	0.326
87.500	118.713	79.996	19.995	100.937	20.220	3.823	0.347
88.000	118.898	79.996	19.997	100.937	20.219	3.841	0.339
88.499	119.091	79.996	19.996	100.937	20.220	3.770	0.353
88.999	119.272	79.996	19.996	100.937	20.217	3.997	0.376
89.499	119.473	79.996	19.996	100.937	20.217	4.050	0.378
89.999	119.676	79.997	19.996	100.935	20.216	4.126	0.393
90.499	119.820	79.996	19.996	100.931	20.215	4.142	0.376
90.999	120.029	79.996	19.996	100.930	20.219	3.876	0.350
91.499	120.190	79.996	19.996	100.930	20.218	3.956	0.361
91.999	120.368	79.997	19.995	100.931	20.215	4.175	0.355
92.500	120.543	79.996	19.996	100.934	20.218	3.940	0.346
93.000	120.718	79.996	19.996	100.937	20.216	4.103	0.352
93.499	120.942	79.998	19.997	100.939	20.217	3.995	0.375
93.999	121.132	79.996	19.996	100.940	20.214	4.208	0.406
94.499	121.312	79.997	19.997	100.940	20.216	4.091	0.392
94.999	121.491	79.997	19.996	100.940	20.216	4.075	0.365
95.499	121.682	79.996	19.997	100.940	20.219	3.844	0.364
95.999	121.892	79.997	19.995	100.940	20.215	4.171	0.385
96.499	122.103	79.998	19.996	100.939	20.221	3.739	0.411
96.999	122.290	79.997	19.996	100.938	20.218	3.983	0.410
97.499	122.449	79.997	19.997	100.938	20.217	4.052	0.372
97.999	122.649	79.997	19.996	100.939	20.218	3.952	0.352
98.499	122.883	79.997	19.997	100.939	20.216	4.089	0.396
98.999	123.027	79.995	19.997	100.938	20.216	4.091	0.406
99.499	123.220	79.997	19.996	100.939	20.214	4.259	0.358
99.999	123.413	79.996	19.996	100.938	20.217	3.993	0.362
100.499	123.645	79.998	19.997	100.937	20.215	4.144	0.406
100.999	123.865	79.996	19.995	100.936	20.217	4.015	0.438
101.500	124.052	79.998	19.996	100.936	20.217	4.038	0.429
102.000	124.249	79.997	19.995	100.935	20.218	3.940	0.395
102.499	124.432	79.997	19.997	100.934	20.218	3.950	0.382
102.999	124.650	79.997	19.996	100.934	20.212	4.353	0.391
103.499	124.803	79.997	19.996	100.934	20.214	4.257	0.386
103.999	124.996	79.997	19.997	100.934	20.215	4.181	0.359
104.499	125.210	79.998	19.997	100.935	20.216	4.075	0.377
104.999	125.448	79.998	19.996	100.935	20.216	4.079	0.429
105.499	125.607	79.997	19.997	100.936	20.216	4.097	0.424
105.999	125.817	79.998	19.997	100.936	20.216	4.112	0.383
106.499	126.013	79.997	19.997	100.936	20.217	4.011	0.388
106.999	126.237	79.998	19.997	100.936	20.220	3.807	0.413
107.500	126.436	79.998	19.998	100.935	20.214	4.228	0.421
108.000	126.662	79.997	19.996	100.935	20.215	4.134	0.424
108.499	126.831	79.997	19.996	100.935	20.214	4.257	0.410
108.999	127.080	79.998	19.995	100.935	20.217	3.995	0.406
109.500	127.245	79.998	19.997	100.935	20.220	3.827	0.416
110.001	127.465	79.999	19.996	100.935	20.213	4.336	0.400
110.500	127.687	79.998	19.997	100.935	20.214	4.214	0.414
110.999	127.906	79.998	19.996	100.935	20.215	4.134	0.442
111.499	128.107	79.999	19.996	100.934	20.216	4.056	0.431
111.999	128.350	79.999	19.995	100.934	20.218	3.977	0.432
112.499	128.534	79.998	19.997	100.934	20.215	4.187	0.435
112.999	128.728	79.998	19.996	100.933	20.216	4.105	0.402
113.499	128.955	79.999	19.997	100.933	20.217	3.987	0.400
113.999	129.140	79.999	19.997	100.933	20.221	3.729	0.417
114.499	129.372	79.997	19.996	100.936	20.217	3.993	0.414
114.999	129.557	79.998	19.996	100.936	20.216	4.064	0.417
115.499	129.781	79.998	19.998	100.936	20.214	4.256	0.414
115.999	130.052	79.998	19.997	100.937	20.215	4.191	0.453
116.499	130.246	79.997	19.997	100.937	20.218	3.975	0.480
116.999	130.428	79.998	19.996	100.933	20.218	3.928	0.420
117.499	130.656	79.998	19.997	100.934	20.216	4.065	0.393
117.999	130.893	79.998	19.997	100.934	20.214	4.220	0.437
118.499	131.091	79.999	19.996	100.933	20.218	3.962	0.450
118.999	131.319	79.998	19.995	100.933	20.218	3.972	0.430
119.499	131.565	79.998	19.996	100.934	20.216	4.120	0.450
119.999	131.759	79.999	19.996	100.934	20.216	4.109	0.457
120.499	131.971	79.998	19.996	100.934	20.215	4.152	0.423
120.999	132.186	79.998	19.997	100.935	20.212	4.351	0.416
121.499	132.404	79.997	19.997	100.935	20.212	4.353	0.430
122.000	132.623	80.001	19.995	100.935	20.214	4.248	0.435
122.500	132.848	79.999	19.996	100.935	20.215	4.173	0.440
122.999	133.057	79.998	19.995	100.934	20.215	4.146	0.439
123.499	133.300	80.000	19.997	100.935	20.213	4.314	0.443
123.999	133.535	79.999	19.996	100.937	20.214	4.259	0.465
124.499	133.728	79.998	19.996	100.939	20.216	4.110	0.453
124.999	133.970	79.999	19.996	100.941	20.216	4.118	0.432
125.500	134.156	79.998	19.996	100.942	20.217	4.019	0.431
126.000	134.421	79.998	19.996	100.941	20.217	3.995	0.439
126.499	134.649	79.999	19.996	100.939	20.215	4.162	0.472
126.999	134.885	79.998	19.996	100.936	20.215	4.150	0.478
127.499	135.115	79.998	19.995	100.935	20.227	3.310	0.465
127.999	135.327	80.000	19.995	100.935	20.217	4.036	0.454
128.500	135.537	80.000	19.996	100.935	20.214	4.216	0.432
129.000	135.803	79.999	19.995	100.935	20.215	4.160	0.449
129.500	135.994	80.000	19.995	100.937	20.215	4.171	0.466
130.000	136.244	79.999	19.995	100.936	20.216	4.068	0.449
130.500	136.521	79.999	19.995	100.936	20.213	4.330	0.484
131.000	136.726	80.000	19.995	100.937	20.214	4.218	0.505
131.500	136.935	80.000	19.995	100.936	20.218	3.978	0.448
132.000	137.198	79.998	19.996	100.937	20.212	4.365	0.443
132.500	137.391	79.999	19.995	100.938	20.226	3.398	0.464
133.000	137.663	80.000	19.994	100.937	20.217	4.015	0.461
133.500	137.864	80.001	19.996	100.937	20.217	4.028	0.469
134.000	138.071	80.000	19.994	100.937	20.221	3.745	0.440
134.500	138.295	80.001	19.996	100.936	20.213	4.316	0.419
135.000	138.549	80.000	19.995	100.935	20.220	3.794	0.455
135.500	138.806	79.999	19.995	100.935	20.217	4.021	0.495
136.000	139.016	79.999	19.995	100.936	20.222	3.631	0.488
136.500	139.227	80.000	19.995	100.936	20.226	3.394	0.444
137.000	139.481	79.999	19.996	100.938	20.225	3.437	0.443
137.500	139.701	79.998	19.995	100.939	20.216	4.113	0.470
138.000	139.919	79.998	19.995	100.940	20.209	4.571	0.456
138.500	140.166	79.999	19.995	100.940	20.213	4.305	0.451
139.000	140.427	79.998	19.995	100.940	20.212	4.391	0.486
139.500	140.630	79.999	19.996	100.939	20.214	4.271	0.486
140.000	140.876	79.998	19.995	100.938	20.209	4.561	0.456
140.500	141.105	79.998	19.995	100.938	20.214	4.234	0.462
141.000	141.360	79.997	19.996	100.938	20.213	4.277	0.479
141.500	141.545	79.997	19.996	100.942	20.211	4.436	0.462
142.000	141.829	79.996	19.996	100.941	20.208	4.651	0.454
142.500	142.032	79.997	19.995	100.941	20.213	4.340	0.478
143.000	142.336	79.997	19.996	100.941	20.214	4.228	0.497
143.500	142.604	79.996	19.996	100.941	20.213	4.287	0.540
144.000	142.813	79.997	19.996	100.937	20.211	4.426	0.525
144.500	143.081	79.996	19.996	100.937	20.214	4.255	0.477
145.000	143.273	79.998	19.997	100.938	20.213	4.314	0.469
145.500	143.516	79.997	19.996	100.939	20.214	4.240	0.448
146.000	143.739	79.997	19.995	100.939	20.211	4.483	0.450
146.500	143.991	79.996	19.996	100.940	20.216	4.122	0.470
147.000	144.256	79.997	19.995	100.939	20.213	4.314	0.496
147.500	144.512	79.997	19.995	100.940	20.213	4.312	0.519
148.000	144.759	79.996	19.996	100.939	20.214	4.212	0.512
148.500	144.998	79.996	19.996	100.940	20.216	4.107	0.495
149.000	145.250	79.996	19.996	100.940	20.214	4.265	0.488
149.500	145.496	79.997	19.996	100.941	20.209	4.577	0.494
150.000	145.730	79.997	19.996	100.941	20.212	4.391	0.489
150.500	145.983	79.997	19.996	100.940	20.216	4.126	0.484
151.000	146.197	79.996	19.995	100.940	20.212	4.408	0.477
151.500	146.451	79.997	19.995	100.940	20.212	4.347	0.467
152.000	146.674	79.997	19.996	100.940	20.211	4.418	0.473
152.500	146.900	79.996	19.996	100.939	20.212	4.355	0.463
153.000	147.200	79.997	19.996	100.939	20.211	4.453	0.487
153.500	147.389	79.997	19.995	100.939	20.209	4.614	0.507
154.000	147.649	79.996	19.995	100.938	20.212	4.343	0.469
154.500	147.883	79.997	19.996	100.938	20.214	4.208	0.472
155.000	148.146	79.996	19.996	100.939	20.214	4.265	0.496
155.500	148.405	79.997	19.995	100.938	20.212	4.365	0.509
156.000	148.720	79.997	19.995	100.939	20.214	4.261	0.547
156.500	148.916	79.996	19.995	100.939	20.212	4.353	0.542
157.000	149.157	79.996	19.995	100.939	20.216	4.103	0.474
157.500	149.417	79.996	19.995	100.939	20.214	4.253	0.469
158.000	149.669	79.997	19.995	100.939	20.214	4.261	0.507
158.500	149.932	79.998	19.996	100.939	20.211	4.439	0.514
159.000	150.155	79.997	19.996	100.939	20.214	4.265	0.500
159.500	150.451	79.997	19.996	100.939	20.214	4.210	0.502
160.000	150.678	79.997	19.994	100.939	20.215	4.193	0.521
160.500	150.911	79.997	19.995	100.938	20.214	4.220	0.492
161.000	151.162	79.997	19.996	100.938	20.210	4.527	0.472
161.500	151.412	79.997	19.996	100.938	20.215	4.138	0.493
162.000	151.671	79.997	19.995	100.938	20.211	4.449	0.505
162.500	151.923	79.996	19.997	100.938	20.215	4.193	0.509
163.000	152.148	79.997	19.995	100.937	20.214	4.220	0.494
163.500	152.444	79.997	19.996	100.936	20.213	4.304	0.499
164.000	152.665	79.997	19.995	100.936	20.213	4.328	0.519
164.500	152.923	79.997	19.996	100.935	20.216	4.116	0.499
165.000	153.182	79.998	19.996	100.932	20.212	4.345	0.498
165.500	153.417	79.996	19.996	100.931	20.214	4.216	0.505
166.000	153.640	79.998	19.996	100.931	20.213	4.294	0.475
166.500	153.895	79.997	19.997	100.930	20.215	4.149	0.468
167.000	154.170	79.997	19.997	100.931	20.217	4.024	0.504
167.500	154.421	79.996	19.996	100.933	20.218	3.965	0.528
168.000	154.645	79.996	19.997	100.933	20.217	4.036	0.501
168.500	154.905	79.997	19.996	100.932	20.214	4.263	0.480
169.000	155.134	79.996	19.997	100.932	20.217	4.037	0.486
169.500	155.411	79.998	19.996	100.931	20.217	4.018	0.497
170.000	155.645	79.998	19.997	100.931	20.218	3.978	0.508
170.500	155.888	79.998	19.995	100.933	20.218	3.935	0.494
171.000	156.183	79.996	19.997	100.933	20.215	4.150	0.507
171.500	156.426	79.997	19.996	100.934	20.213	4.340	0.539
172.001	156.657	79.996	19.995	100.936	20.215	4.143	0.507
172.501	156.878	79.997	19.995	100.935	20.218	3.953	0.463
173.000	157.170	79.997	19.997	100.934	20.214	4.229	0.482
173.500	157.409	79.996	19.996	100.934	20.214	4.200	0.522
174.000	157.694	79.998	19.998	100.933	20.215	4.175	0.528
174.500	157.928	79.997	19.998	100.933	20.214	4.218	0.521
175.000	158.170	79.997	19.996	100.930	20.216	4.118	0.497
175.500	158.398	79.996	19.998	100.931	20.216	4.106	0.473
176.000	158.663	79.996	19.997	100.931	20.216	4.120	0.481
176.500	158.958	79.997	19.998	100.930	20.215	4.190	0.526
177.000	159.196	79.997	19.995	100.927	20.215	4.149	0.546
177.500	159.450	79.998	19.998	100.931	20.214	4.229	0.513
178.000	159.703	79.997	19.996	100.929	20.214	4.211	0.500
178.500	159.919	79.998	19.997	100.927	20.215	4.138	0.488
179.000	160.196	79.997	19.997	100.927	20.218	3.970	0.481
179.500	160.454	79.997	19.995	100.926	20.213	4.285	0.514
180.000	160.673	79.998	19.998	100.919	20.216	4.107	0.506
180.500	160.959	79.996	19.996	100.915	20.216	4.080	0.491
181.000	161.180	79.997	19.996	100.912	20.215	4.131	0.506
181.500	161.491	79.998	19.996	100.906	20.215	4.192	0.519
182.000	161.741	79.998	19.995	100.904	20.214	4.246	0.547
182.500	161.966	79.998	19.996	100.906	20.216	4.111	0.518
183.000	162.250	79.997	19.996	100.908	20.218	3.935	0.492
183.500	162.476	79.997	19.997	100.913	20.214	4.256	0.509
184.000	162.739	79.997	19.997	100.920	20.215	4.197	0.500
184.500	162.955	79.998	19.997	100.925	20.217	4.000	0.485
185.000	163.241	79.998	19.997	100.929	20.217	4.035	0.491
185.500	163.483	79.999	19.996	100.927	20.216	4.103	0.515
186.000	163.728	80.000	19.998	100.922	20.215	4.188	0.507
186.500	163.983	80.000	19.997	100.920	20.214	4.221	0.493
187.000	164.215	79.999	19.996	100.916	20.212	4.395	0.493
187.500	164.499	79.999	19.996	100.912	20.213	4.301	0.502
188.000	164.769	79.999	19.996	100.910	20.214	4.242	0.535
188.500	165.003	80.000	19.996	100.909	20.213	4.303	0.529
189.000	165.274	80.000	19.995	100.904	20.217	4.006	0.504
189.500	165.525	79.999	19.997	100.901	20.217	4.045	0.513
190.000	165.775	80.000	19.996	100.899	20.214	4.210	0.511
190.500	166.073	79.998	19.997	100.898	20.214	4.247	0.524
191.000	166.273	79.998	19.997	100.901	20.217	4.043	0.523
191.500	166.547	79.999	19.996	100.906	20.213	4.285	0.486
192.000	166.796	79.998	19.996	100.906	20.213	4.279	0.498
192.500	167.044	79.999	19.996	100.907	20.215	4.160	0.510
193.000	167.283	79.998	19.997	100.906	20.214	4.219	0.492
193.500	167.529	79.999	19.996	100.903	20.214	4.266	0.486
194.000	167.763	79.997	19.996	100.897	20.216	4.113	0.482
194.500	168.034	79.998	19.996	100.897	20.218	3.945	0.493
195.000	168.287	79.998	19.997	100.899	20.215	4.127	0.514
195.500	168.535	79.997	19.996	100.900	20.218	3.966	0.512
196.000	168.786	79.997	19.997	100.905	20.213	4.307	0.500
196.500	169.031	79.996	19.995	100.905	20.220	3.827	0.497
197.000	169.288	79.997	19.997	100.907	20.219	3.890	0.499
197.500	169.572	79.996	19.996	100.904	20.216	4.107	0.522
198.000	169.798	79.996	19.997	100.903	20.215	4.138	0.526
198.500	170.052	79.996	19.996	100.900	20.218	3.947	0.495
199.000	170.284	79.996	19.996	100.906	20.220	3.806	0.483
199.500	170.544	79.996	19.996	100.911	20.220	3.806	0.488
200.000	170.824	79.996	19.997	100.914	20.217	4.039	0.515
200.500	171.059	79.996	19.996	100.918	20.215	4.132	0.527
201.000	171.271	79.997	19.995	100.918	20.214	4.234	0.481
201.500	171.537	79.997	19.999	100.911	20.218	3.949	0.463
202.000	171.795	79.997	19.996	100.906	20.219	3.845	0.501
202.500	172.037	79.995	19.996	100.903	20.219	3.894	0.512
203.000	172.328	79.997	19.999	100.901	20.221	3.731	0.516
203.500	172.559	79.997	19.996	100.901	20.219	3.843	0.527
204.000	172.801	79.996	19.998	100.906	20.222	3.630	0.497
204.500	173.051	79.997	19.997	100.909	20.223	3.567	0.483
205.000	173.323	79.997	19.997	100.908	20.222	3.686	0.507
205.500	173.545	79.996	19.997	100.908	20.219	3.839	0.508
206.000	173.793	79.998	19.995	100.908	20.222	3.643	0.482
206.500	174.066	79.997	19.996	100.902	20.222	3.669	0.496
207.000	174.297	79.998	19.996	100.899	20.219	3.839	0.513
207.500	174.576	79.998	19.996	100.899	20.221	3.737	0.507
208.000	174.837	79.998	19.996	100.898	20.224	3.530	0.525
208.500	175.075	79.998	19.996	100.900	20.222	3.686	0.519
209.000	175.338	79.998	19.996	100.901	20.223	3.602	0.499
209.500	175.593	79.998	19.996	100.901	20.223	3.610	0.509
210.000	175.841	79.999	19.996	100.901	20.225	3.442	0.511
210.500	176.104	80.000	19.996	100.901	20.224	3.536	0.507
211.000	176.301	79.999	19.995	100.898	20.221	3.735	0.486
211.500	176.580	80.000	19.995	100.898	20.225	3.418	0.468
212.000	176.831	79.998	19.996	100.901	20.224	3.536	0.503
212.500	177.038	79.999	19.995	100.902	20.222	3.677	0.494
213.000	177.316	80.000	19.995	100.903	20.222	3.643	0.472
213.500	177.565	80.000	19.996	100.903	20.223	3.559	0.506
214.000	177.790	79.999	19.995	100.901	20.223	3.594	0.500
214.500	178.048	79.999	19.995	100.897	20.220	3.776	0.478
215.000	178.314	79.999	19.996	100.895	20.222	3.626	0.503
215.500	178.572	79.998	19.996	100.892	20.225	3.475	0.524
216.000	178.846	80.000	19.995	100.892	20.223	3.596	0.528
216.500	179.080	79.999	19.996	100.892	20.222	3.637	0.520
217.000	179.332	79.997	19.996	100.893	20.226	3.375	0.497
217.500	179.594	79.997	19.994	100.895	20.221	3.743	0.500
218.000	179.844	79.999	19.995	100.899	20.224	3.518	0.513
218.500	180.088	79.997	19.997	100.899	20.223	3.567	0.503
219.000	180.356	79.997	19.997	100.899	20.218	3.915	0.503
219.500	180.619	79.997	19.994	100.899	20.220	3.800	0.521
220.000	180.864	79.996	19.996	100.900	20.221	3.708	0.520
220.500	181.093	79.998	19.996	100.900	20.219	3.856	0.492
221.000	181.337	79.997	19.995	100.900	20.220	3.794	0.473
221.500	181.602	79.996	19.996	100.900	20.221	3.758	0.491
222.000	181.830	79.996	19.996	100.900	20.222	3.680	0.501
222.500	182.123	79.997	19.997	100.899	20.217	4.023	0.507
223.000	182.374	79.996	19.996	100.899	20.220	3.788	0.533
223.500	182.623	79.998	19.997	100.899	20.221	3.733	0.522
224.000	182.877	79.998	19.996	100.898	20.219	3.851	0.501
224.500	183.082	79.998	19.996	100.898	20.220	3.825	0.480
225.000	183.337	79.998	19.995	100.898	20.223	3.583	0.459
225.500	183.574	79.998	19.996	100.897	20.220	3.766	0.476
226.000	183.839	79.998	19.996	100.897	20.222	3.678	0.497
226.500	184.079	79.998	19.997	100.898	20.222	3.627	0.503
227.000	184.298	79.996	19.995	100.897	20.220	3.772	0.482
227.500	184.589	79.997	19.996	100.897	20.222	3.686	0.484
228.000	184.841	79.998	19.996	100.897	20.223	3.590	0.526
228.500	185.072	79.998	19.994	100.896	20.222	3.651	0.513
229.000	185.323	79.997	19.996	100.896	20.224	3.532	0.483
229.500	185.557	79.996	19.996	100.895	20.224	3.536	0.483
230.000	185.836	79.997	19.995	100.895	20.223	3.604	0.499
230.500	186.077	79.997	19.995	100.893	20.222	3.661	0.517
231.000	186.322	79.996	19.996	100.893	20.219	3.884	0.503
231.500	186.582	79.998	19.995	100.893	20.219	3.856	0.495
232.000	186.812	79.997	19.996	100.893	20.224	3.488	0.498
232.500	187.091	79.996	19.996	100.891	20.219	3.891	0.499
233.000	187.328	79.998	19.995	100.893	20.219	3.909	0.512
233.500	187.545	79.997	19.996	100.893	20.219	3.874	0.486
234.000	187.807	79.997	19.995	100.893	20.225	3.459	0.467
234.500	188.074	79.996	19.996	100.894	20.221	3.714	0.504
235.000	188.299	79.997	19.996	100.896	20.222	3.669	0.510
235.500	188.549	79.999	19.996	100.895	20.223	3.573	0.483
236.000	188.770	79.998	19.996	100.895	20.223	3.586	0.473
236.500	189.054	79.997	19.995	100.894	20.225	3.408	0.488
237.000	189.283	79.997	19.995	100.893	20.222	3.623	0.509
237.500	189.504	79.997	19.996	100.892	20.221	3.702	0.482
238.000	189.778	79.998	19.995	100.892	20.224	3.486	0.473
238.500	190.035	79.999	19.995	100.891	20.224	3.508	0.513
239.000	190.319	79.997	19.995	100.892	20.225	3.416	0.536
239.500	190.525	79.996	19.995	100.893	20.225	3.408	0.515
240.000	190.772	79.997	19.997	100.893	20.225	3.412	0.471
240.500	191.018	79.998	19.995	100.894	20.225	3.479	0.473
241.000	191.250	79.997	19.994	100.893	20.225	3.469	0.486
241.500	191.489	79.999	19.996	100.891	20.225	3.440	0.474
242.000	191.735	79.999	19.995	100.887	20.226	3.354	0.478
242.500	192.014	79.997	19.995	100.886	20.226	3.365	0.505
243.000	192.205	79.999	19.996	100.886	20.228	3.252	0.498
243.500	192.478	79.998	19.997	100.887	20.228	3.254	0.468
244.000	192.724	79.997	19.996	100.890	20.226	3.402	0.492
244.500	192.942	79.999	19.996	100.895	20.225	3.445	0.492
245.000	193.221	79.998	19.995	100.895	20.223	3.563	0.480
245.500	193.455	79.997	19.995	100.895	20.223	3.553	0.505
246.000	193.682	79.998	19.995	100.894	20.224	3.512	0.487
246.500	193.942	79.999	19.995	100.893	20.225	3.447	0.474
247.000	194.152	79.998	19.995	100.891	20.227	3.308	0.478
247.500	194.390	79.998	19.995	100.890	20.227	3.308	0.459
248.000	194.686	79.999	19.994	100.888	20.228	3.230	0.491
248.500	194.905	79.998	19.995	100.885	20.227	3.294	0.525
249.000	195.138	79.997	19.995	100.883	20.230	3.093	0.483
249.500	195.399	79.997	19.994	100.883	20.231	3.013	0.473
250.000	195.659	79.997	19.996	100.883	20.229	3.130	0.508
250.500	195.899	79.998	19.995	100.886	20.225	3.410	0.511
251.000	196.119	79.998	19.995	100.890	20.226	3.357	0.480
251.500	196.347	79.996	19.995	100.893	20.232	2.974	0.454
252.000	196.631	79.996	19.995	100.894	20.224	3.488	0.480
252.500	196.855	79.998	19.995	100.896	20.229	3.171	0.510
253.000	197.122	79.998	19.996	100.895	20.227	3.328	0.499
253.500	197.373	79.997	19.997	100.895	20.226	3.338	0.504
254.000	197.592	79.997	19.996	100.893	20.227	3.279	0.494
254.500	197.857	79.996	19.996	100.891	20.224	3.498	0.477
255.000	198.094	79.996	19.996	100.890	20.228	3.222	0.493
255.500	198.322	79.995	19.996	100.890	20.227	3.275	0.484
256.000	198.577	79.997	19.996	100.886	20.226	3.392	0.474
256.500	198.844	79.998	19.997	100.883	20.225	3.431	0.502
257.000	199.081	79.997	19.995	100.880	20.227	3.288	0.513
257.500	199.348	79.996	19.997	100.877	20.229	3.163	0.504
258.000	199.576	79.997	19.996	100.873	20.222	3.652	0.500
258.500	199.790	79.996	19.996	100.873	20.224	3.480	0.469
259.000	200.006	79.996	19.996	100.876	20.224	3.521	0.436
259.500	200.283	79.997	19.997	100.879	20.226	3.394	0.461
260.000	200.499	79.998	19.996	100.879	20.225	3.408	0.493
260.500	200.769	79.998	19.996	100.877	20.228	3.259	0.490
261.000	201.010	79.996	19.996	100.876	20.223	3.570	0.499
261.500	201.255	79.997	19.997	100.874	20.224	3.521	0.498
262.000	201.498	79.998	19.997	100.874	20.226	3.339	0.487
262.500	201.785	79.998	19.997	100.877	20.222	3.674	0.509
263.000	202.041	79.997	19.996	100.879	20.225	3.459	0.537
263.500	202.273	79.998	19.998	100.881	20.226	3.373	0.515
264.000	202.567	79.998	19.997	100.884	20.226	3.367	0.507
264.500	202.783	79.999	19.997	100.886	20.224	3.524	0.518
265.000	203.017	79.998	19.997	100.888	20.223	3.598	0.480
265.500	203.252	80.000	19.998	100.890	20.224	3.545	0.460
266.000	203.497	79.998	19.997	100.888	20.225	3.465	0.474
266.500	203.719	79.998	19.995	100.881	20.226	3.377	0.473
267.000	203.999	80.000	19.997	100.875	20.225	3.467	0.485
267.500	204.190	79.999	19.996	100.874	20.225	3.455	0.486
268.000	204.424	79.998	19.998	100.873	20.229	3.181	0.447
268.500	204.682	79.998	19.997	100.875	20.227	3.299	0.459
269.000	204.929	79.999	19.997	100.881	20.226	3.379	0.499
269.500	205.147	79.998	19.997	100.885	20.224	3.484	0.485
270.000	205.401	80.000	19.996	100.884	20.223	3.588	0.468
270.500	205.638	79.999	19.996	100.880	20.223	3.552	0.482
271.000	205.868	79.999	19.997	100.877	20.225	3.466	0.479
271.500	206.131	79.998	19.997	100.872	20.225	3.427	0.480
272.000	206.366	79.998	19.996	100.869	20.225	3.463	0.496
272.500	206.586	79.999	19.995	100.870	20.226	3.355	0.477
273.000	206.864	79.997	19.996	100.876	20.228	3.212	0.476
273.500	207.115	79.999	19.996	100.881	20.225	3.461	0.514
274.000	207.341	79.998	19.996	100.887	20.223	3.598	0.503
274.500	207.560	79.998	19.997	100.887	20.225	3.412	0.461
275.000	207.840	79.999	19.996	100.887	20.226	3.374	0.472
275.500	208.100	79.998	19.996	100.888	20.226	3.390	0.519
276.000	208.299	79.998	19.997	100.888	20.226	3.343	0.499
276.500	208.557	79.997	19.997	100.887	20.227	3.306	0.458
277.000	208.810	79.997	19.996	100.891	20.226	3.398	0.484
277.500	209.014	79.997	19.997	100.892	20.225	3.462	0.484
278.000	209.286	79.998	19.997	100.891	20.227	3.279	0.466
278.500	209.520	79.997	19.996	100.892	20.224	3.480	0.491
279.000	209.753	79.997	19.997	100.890	20.224	3.525	0.487
279.500	209.976	79.998	19.997	100.885	20.230	3.114	0.462
280.000	210.237	79.999	19.997	100.879	20.227	3.310	0.470
280.500	210.496	79.997	19.997	100.875	20.227	3.265	0.502
281.000	210.715	79.998	19.996	100.874	20.225	3.417	0.499
281.500	210.965	79.998	19.997	100.871	20.225	3.437	0.474
282.000	211.199	79.998	19.996	100.872	20.227	3.328	0.477
282.500	211.472	79.997	19.996	100.873	20.224	3.482	0.496
283.000	211.692	80.000	19.997	100.877	20.225	3.443	0.500
283.500	211.913	79.999	19.998	100.878	20.227	3.281	0.467
284.000	212.159	79.999	19.996	100.883	20.226	3.341	0.454
284.500	212.471	79.998	19.996	100.881	20.226	3.392	0.512
285.000	212.668	79.999	19.996	100.879	20.225	3.443	0.533
285.500	212.891	79.998	19.997	100.875	20.226	3.363	0.464
286.000	213.189	79.999	19.997	100.870	20.226	3.355	0.471
286.500	213.431	79.999	19.995	100.865	20.227	3.273	0.531
287.000	213.693	79.998	19.996	100.864	20.224	3.490	0.522
287.500	213.910	79.999	19.995	100.866	20.224	3.503	0.491
288.000	214.181	80.000	19.997	100.868	20.224	3.503	0.483
288.500	214.409	80.000	19.997	100.871	20.229	3.181	0.494
289.000	214.664	79.999	19.996	100.872	20.225	3.460	0.491
289.500	214.919	80.001	19.997	100.876	20.228	3.249	0.496
290.000	215.129	80.001	19.997	100.878	20.229	3.173	0.487
290.500	215.386	79.999	19.997	100.878	20.228	3.226	0.466
291.000	215.658	80.000	19.996	100.875	20.226	3.367	0.498
291.500	215.863	80.000	19.997	100.874	20.228	3.212	0.503
292.000	216.107	80.000	19.998	100.872	20.226	3.345	0.463
292.500	216.369	80.000	19.998	100.872	20.226	3.383	0.477
293.000	216.605	80.000	19.996	100.875	20.230	3.070	0.502
293.500	216.844	79.999	19.996	100.878	20.225	3.428	0.486
294.000	217.078	79.998	19.996	100.878	20.228	3.236	0.474
294.500	217.349	79.999	19.997	100.882	20.225	3.421	0.489
295.000	217.602	79.999	19.996	100.882	20.229	3.135	0.514
295.500	217.810	80.000	19.997	100.879	20.226	3.382	0.493
296.000	218.109	79.999	19.996	100.879	20.226	3.364	0.484
296.500	218.335	79.998	19.997	100.881	20.224	3.503	0.516
297.000	218.571	79.998	19.996	100.881	20.226	3.382	0.494
297.500	218.834	79.998	19.998	100.880	20.224	3.509	0.481
298.000	219.088	79.998	19.998	100.876	20.222	3.638	0.508
298.500	219.330	79.998	19.997	100.871	20.226	3.337	0.506
299.000	219.585	79.998	19.996	100.871	20.226	3.378	0.497
299.500	219.862	79.999	19.995	100.868	20.223	3.556	0.514
300.000	220.094	79.998	19.997	100.866	20.224	3.493	0.521
300.500	220.328	79.997	19.997	100.868	20.224	3.540	0.487
301.000	220.546	79.998	19.997	100.871	20.224	3.515	0.459
301.500	220.785	79.999	19.996	100.873	20.223	3.585	0.455
302.000	221.074	79.998	19.997	100.874	20.222	3.660	0.493
302.500	221.281	79.997	19.996	100.875	20.222	3.646	0.512
303.000	221.543	79.998	19.997	100.881	20.224	3.480	0.483
303.500	221.817	79.998	19.996	100.886	20.220	3.818	0.503
304.000	222.039	79.998	19.996	100.884	20.221	3.752	0.516
304.500	222.305	79.997	19.996	100.883	20.231	2.987	0.492
305.000	222.518	79.996	19.996	100.879	20.233	2.891	0.484
305.500	222.762	79.997	19.997	100.872	20.231	3.026	0.468
306.000	223.045	79.997	19.995	100.865	20.222	3.660	0.492
306.500	223.314	79.997	19.995	100.860	20.224	3.495	0.540
307.000	223.515	79.998	19.996	100.858	20.226	3.364	0.511
307.500	223.748	79.996	19.996	100.858	20.225	3.429	0.452
308.000	224.029	79.997	19.996	100.860	20.225	3.448	0.474
308.500	224.288	79.997	19.996	100.863	20.227	3.276	0.527
309.000	224.519	79.997	19.996	100.865	20.224	3.527	0.515
309.500	224.738	79.998	19.996	100.864	20.228	3.241	0.470
310.000	225.033	79.998	19.995	100.864	20.229	3.182	0.482
310.500	225.275	79.998	19.995	100.863	20.222	3.670	0.525
311.000	225.517	79.998	19.996	100.862	20.222	3.681	0.510
311.500	225.751	79.997	19.996	100.861	20.222	3.636	0.480
312.000	226.028	79.998	19.996	100.862	20.223	3.591	0.494
312.500	226.216	79.998	19.996	100.863	20.224	3.523	0.488
313.000	226.512	79.997	19.996	100.866	20.226	3.382	0.475
313.500	226.760	79.998	19.996	100.869	20.222	3.652	0.514
314.000	226.977	79.998	19.996	100.870	20.228	3.245	0.504
314.500	227.209	79.998	19.996	100.874	20.223	3.554	0.457
315.000	227.509	79.998	19.995	100.872	20.225	3.421	0.491
315.500	227.739	79.999	19.996	100.870	20.229	3.169	0.531
316.000	228.010	79.998	19.996	100.868	20.228	3.229	0.515
316.500	228.283	79.998	19.996	100.868	20.224	3.483	0.522
317.000	228.477	79.999	19.995	100.864	20.227	3.276	0.506
317.500	228.726	79.998	19.996	100.864	20.226	3.341	0.455
318.000	229.047	79.998	19.995	100.862	20.227	3.312	0.507
318.500	229.182	79.998	19.997	100.859	20.226	3.347	0.514
319.000	229.445	79.998	19.996	100.859	20.223	3.552	0.427
319.500	229.700	79.998	19.995	100.858	20.228	3.194	0.458
320.000	229.981	79.998	19.996	100.861	20.223	3.597	0.526
320.500	230.249	79.998	19.995	100.862	20.221	3.722	0.542
321.000	230.516	79.997	19.996	100.862	20.226	3.362	0.542
321.500	230.732	79.998	19.995	100.866	20.222	3.648	0.509
322.000	231.040	79.997	19.996	100.871	20.223	3.566	0.503
322.500	231.195	79.996	19.995	100.870	20.221	3.734	0.493
323.000	231.490	79.998	19.996	100.870	20.225	3.453	0.457
323.500	231.725	79.998	19.996	100.872	20.226	3.370	0.490
324.000	231.930	79.997	19.994	100.873	20.228	3.198	0.485
324.500	232.175	79.997	19.995	100.874	20.228	3.245	0.445
325.000	232.488	79.998	19.995	100.873	20.223	3.570	0.504
325.500	232.736	79.997	19.995	100.872	20.226	3.335	0.559
326.000	232.954	79.997	19.995	100.871	20.227	3.333	0.514
326.500	233.177	79.996	19.996	100.865	20.225	3.413	0.454
327.000	233.446	79.997	19.994	100.860	20.223	3.562	0.466
327.500	233.748	79.997	19.995	100.859	20.224	3.499	0.531
328.000	233.964	79.996	19.997	100.859	20.220	3.797	0.545
328.500	234.231	79.997	19.995	100.859	20.222	3.667	0.501
329.000	234.492	79.996	19.997	100.865	20.222	3.626	0.505
329.500	234.733	79.996	19.995	100.865	20.224	3.507	0.515
330.000	234.956	79.997	19.994	100.865	20.225	3.415	0.483
330.500	235.237	79.995	19.995	100.865	20.224	3.536	0.484
331.000	235.478	79.996	19.995	100.865	20.224	3.527	0.513
331.500	235.709	79.996	19.995	100.861	20.224	3.519	0.497
332.000	235.927	79.996	19.996	100.864	20.221	3.734	0.460
332.500	236.205	79.998	19.995	100.866	20.222	3.652	0.473
333.000	236.460	79.997	19.994	100.869	20.227	3.280	0.515
333.500	236.728	79.997	19.995	100.868	20.227	3.270	0.528
334.000	236.991	79.998	19.995	100.869	20.226	3.384	0.527
334.500	237.219	79.996	19.995	100.867	20.227	3.304	0.511
335.000	237.428	79.997	19.996	100.865	20.225	3.427	0.464
335.500	237.708	79.997	19.995	100.863	20.226	3.396	0.463
336.000	237.937	79.996	19.994	100.863	20.223	3.572	0.499
336.500	238.194	79.997	19.995	100.863	20.229	3.122	0.498
337.000	238.478	79.997	19.995	100.862	20.230	3.098	0.514
337.500	238.718	79.998	19.995	100.864	20.225	3.452	0.533
338.000	238.989	79.998	19.995	100.864	20.221	3.699	0.517
338.500	239.233	79.997	19.996	100.863	20.225	3.456	0.513
339.000	239.478	79.997	19.995	100.863	20.224	3.538	0.502
339.500	239.706	79.999	19.995	100.862	20.222	3.666	0.481
340.000	239.947	79.997	19.996	100.859	20.225	3.425	0.471
340.500	240.225	79.998	19.995	100.860	20.222	3.630	0.494
341.000	240.456	79.998	19.993	100.861	20.229	3.131	0.514
341.500	240.715	79.997	19.995	100.861	20.224	3.497	0.500
342.000	240.927	79.998	19.995	100.862	20.229	3.167	0.480
342.500	241.186	79.997	19.995	100.862	20.223	3.558	0.471
343.000	241.440	79.997	19.995	100.862	20.222	3.671	0.492
343.500	241.684	79.997	19.996	100.862	20.222	3.654	0.505
344.000	241.996	79.998	19.995	100.862	20.226	3.337	0.527
344.500	242.242	79.998	19.995	100.862	20.226	3.376	0.557
345.000	242.442	79.998	19.994	100.863	20.223	3.566	0.502
345.500	242.712	79.998	19.995	100.862	20.224	3.501	0.458
346.000	242.954	79.999	19.995	100.861	20.221	3.716	0.491
346.500	243.224	79.999	19.995	100.861	20.224	3.528	0.513
347.000	243.482	79.998	19.994	100.861	20.224	3.489	0.520
347.500	243.708	79.998	19.995	100.861	20.232	2.967	0.506
348.000	243.968	79.998	19.997	100.861	20.231	2.996	0.485
348.500	244.197	79.999	19.995	100.861	20.230	3.080	0.487
349.000	244.453	79.998	19.995	100.864	20.222	3.659	0.487
349.500	244.706	79.998	19.997	100.865	20.231	3.037	0.496
350.000	244.988	79.997	19.997	100.865	20.221	3.740	0.522
350.500	245.184	79.998	19.996	100.866	20.216	4.084	0.507
351.000	245.453	79.998	19.996	100.865	20.221	3.704	0.472
351.500	245.707	79.997	19.996	100.862	20.217	4.027	0.494
352.000	245.953	79.997	19.996	100.860	20.221	3.761	0.511
352.500	246.222	79.997	19.997	100.858	20.220	3.810	0.508
353.000	246.503	79.997	19.996	100.856	20.219	3.867	0.533
353.500	246.790	79.996	19.996	100.856	20.215	4.133	0.558
354.000	246.969	79.998	19.996	100.856	20.222	3.689	0.517
354.500	247.242	79.997	19.996	100.857	20.217	4.019	0.459
355.000	247.483	79.997	19.996	100.857	20.223	3.583	0.483
355.500	247.743	79.996	19.996	100.857	20.220	3.831	0.507
356.000	248.029	79.997	19.996	100.857	20.223	3.562	0.524
356.500	248.247	79.997	19.998	100.857	20.219	3.859	0.525
357.000	248.493	79.997	19.996	100.856	20.218	3.978	0.484
357.500	248.734	79.997	19.996	100.855	20.220	3.829	0.476
358.000	249.040	79.998	19.996	100.856	20.220	3.816	0.517
358.500	249.294	79.996	19.997	100.856	20.218	3.966	0.553
359.000	249.550	79.997	19.997	100.856	20.219	3.900	0.535
359.500	249.816	79.997	19.996	100.856	20.216	4.113	0.516
360.000	250.073	79.997	19.995	100.856	20.218	3.917	0.522
360.500	250.323	79.998	19.996	100.855	20.219	3.876	0.515
361.000	250.580	79.999	19.997	100.855	20.222	3.673	0.507
361.500	250.804	79.997	19.995	100.855	20.218	3.935	0.494
362.000	251.070	79.998	19.996	100.855	20.223	3.585	0.485
362.500	251.297	79.998	19.996	100.855	20.222	3.691	0.491
363.000	251.574	79.998	19.998	100.855	20.218	3.947	0.498
363.500	251.815	79.999	19.997	100.855	20.218	3.953	0.511
364.000	252.078	79.997	19.997	100.856	20.217	3.990	0.511
364.500	252.401	79.998	19.996	100.856	20.220	3.820	0.545
365.000	252.603	80.000	19.995	100.856	20.220	3.810	0.555
365.500	252.906	79.999	19.996	100.856	20.223	3.565	0.514
366.000	253.156	79.998	19.996	100.854	20.222	3.653	0.529
366.500	253.360	79.999	19.996	100.854	20.216	4.109	0.504
367.000	253.648	79.998	19.996	100.855	20.219	3.857	0.473
367.500	253.857	80.000	19.996	100.854	20.225	3.421	0.495
368.000	254.117	80.000	19.996	100.853	20.230	3.076	0.483
368.500	254.418	80.000	19.996	100.854	20.232	2.908	0.515
369.000	254.623	79.999	19.996	100.853	20.232	2.973	0.534
369.500	254.888	79.998	19.995	100.852	20.221	3.741	0.488
370.000	255.171	80.000	19.996	100.852	20.224	3.503	0.508
370.500	255.451	80.001	19.996	100.853	20.223	3.605	0.555
371.000	255.676	79.999	19.996	100.853	20.218	3.951	0.534
371.500	255.915	79.998	19.996	100.852	20.229	3.178	0.485
372.000	256.152	79.998	19.996	100.852	20.233	2.846	0.470
372.500	256.413	80.000	19.996	100.852	20.232	2.959	0.487
373.000	256.672	79.998	19.996	100.851	20.224	3.511	0.509
373.500	256.889	79.998	19.996	100.852	20.220	3.783	0.498
374.000	257.126	79.998	19.996	100.852	20.221	3.759	0.465
374.500	257.439	79.997	19.997	100.852	20.219	3.902	0.502
375.000	257.661	79.999	19.996	100.853	20.217	4.033	0.542
375.500	257.944	79.998	19.996	100.853	20.217	3.990	0.521
376.000	258.151	79.998	19.997	100.853	20.222	3.659	0.498
376.500	258.476	79.997	19.996	100.854	20.220	3.798	0.511
377.000	258.672	79.997	19.996	100.854	20.220	3.771	0.526
377.500	258.918	79.998	19.997	100.853	20.218	3.915	0.482
378.000	259.196	79.995	19.996	100.853	20.219	3.880	0.483
378.500	259.446	79.997	19.997	100.853	20.220	3.810	0.526
379.000	259.733	79.996	19.996	100.853	20.220	3.800	0.533
379.500	259.972	79.997	19.997	100.854	20.218	3.943	0.531
380.000	260.175	79.997	19.996	100.854	20.221	3.746	0.483
380.500	260.482	79.996	19.996	100.854	20.218	3.957	0.476
381.000	260.654	79.996	19.996	100.854	20.219	3.861	0.495
381.500	260.903	79.996	19.996	100.854	20.220	3.794	0.450
382.000	261.122	79.996	19.997	100.854	20.221	3.708	0.445
382.500	261.384	79.997	19.997	100.854	20.223	3.566	0.475
383.000	261.692	79.996	19.997	100.854	20.217	4.000	0.525
383.500	261.926	79.996	19.998	100.854	20.221	3.761	0.556
384.000	262.153	79.995	19.997	100.854	20.218	3.974	0.501
384.500	262.390	79.996	19.997	100.854	20.218	3.921	0.463
385.000	262.686	79.996	19.997	100.854	20.220	3.820	0.498
385.500	262.934	79.996	19.996	100.855	20.224	3.511	0.538
386.000	263.166	79.996	19.997	100.855	20.221	3.732	0.512
386.500	263.431	79.997	19.997	100.850	20.222	3.624	0.489
387.000	263.673	79.997	19.997	100.847	20.224	3.503	0.502
387.500	263.906	79.996	19.996	100.847	20.223	3.612	0.491
388.000	264.223	79.998	19.998	100.847	20.223	3.587	0.512
388.500	264.441	79.998	19.997	100.848	20.224	3.505	0.543
389.000	264.716	79.996	19.995	100.853	20.221	3.716	0.515
389.500	264.981	79.997	19.996	100.857	20.224	3.489	0.517
390.000	265.221	79.997	19.995	100.857	20.227	3.294	0.522
390.500	265.466	79.998	19.997	100.858	20.221	3.708	0.495
391.000	265.723	79.997	19.996	100.858	20.221	3.720	0.493
391.500	266.012	79.995	19.996	100.858	20.222	3.638	0.524
392.000	266.242	79.996	19.996	100.858	20.224	3.525	0.533
392.500	266.427	79.997	19.996	100.859	20.221	3.695	0.467
393.000	266.726	79.997	19.995	100.859	20.221	3.708	0.449
393.500	266.970	79.996	19.995	100.859	20.223	3.577	0.513
394.000	267.218	79.996	19.996	100.857	20.218	3.960	0.517
394.500	267.482	79.998	19.995	100.856	20.219	3.845	0.502
395.000	267.704	79.997	19.996	100.856	20.219	3.851	0.499
395.500	267.984	79.998	19.996	100.856	20.224	3.544	0.494
396.000	268.267	79.998	19.995	100.855	20.224	3.534	0.532
396.500	268.515	79.997	19.995	100.856	20.223	3.607	0.547
397.000	268.694	79.997	19.995	100.857	20.223	3.562	0.479
397.500	268.970	79.997	19.995	100.857	20.221	3.697	0.440
398.000	269.238	79.998	19.996	100.857	20.219	3.857	0.499
398.500	269.471	79.997	19.996	100.857	20.224	3.519	0.523
399.000	269.714	79.998	19.995	100.855	20.222	3.663	0.489
399.500	270.016	79.997	19.996	100.856	20.221	3.712	0.510
400.000	270.258	79.998	19.995	100.857	20.225	3.448	0.544
400.500	270.527	79.998	19.996	100.857	20.221	3.753	0.528
401.000	270.795	79.997	19.996	100.857	20.222	3.675	0.524
401.500	271.041	79.997	19.995	100.859	20.223	3.575	0.526
402.000	271.287	79.996	19.995	100.859	20.224	3.540	0.503
402.500	271.558	79.998	19.995	100.858	20.224	3.528	0.504
403.000	271.836	79.996	19.996	100.858	20.222	3.685	0.532
403.500	272.059	79.996	19.995	100.856	20.219	3.847	0.525
404.000	272.342	79.996	19.996	100.856	20.218	3.945	0.504
404.500	272.600	79.996	19.995	100.853	20.220	3.785	0.524
405.000	272.807	79.997	19.995	100.852	20.223	3.597	0.503
405.500	273.057	79.996	19.995	100.852	20.221	3.728	0.461
406.000	273.321	79.997	19.997	100.854	20.222	3.638	0.485
406.500	273.600	79.996	19.996	100.855	20.225	3.430	0.529
407.000	273.811	79.997	19.996	100.856	20.222	3.633	0.516
407.500	274.039	79.997	19.995	100.855	20.223	3.553	0.464
408.000	274.313	79.997	19.994	100.855	20.222	3.635	0.470
408.500	274.507	79.996	19.997	100.855	20.218	3.944	0.485
409.000	274.779	79.996	19.996	100.855	20.220	3.802	0.467
409.500	275.080	79.997	19.997	100.856	20.224	3.491	0.520
410.000	275.342	79.997	19.996	100.859	20.224	3.542	0.568
410.500	275.558	79.996	19.996	100.856	20.222	3.632	0.520
411.000	275.837	79.996	19.995	100.852	20.220	3.768	0.486
411.500	276.072	79.995	19.995	100.846	20.222	3.692	0.505
412.000	276.289	79.996	19.996	100.843	20.216	4.062	0.483
412.500	276.543	79.996	19.996	100.843	20.217	3.994	0.462
413.000	276.792	79.996	19.996	100.842	20.220	3.794	0.487
413.500	277.109	79.997	19.996	100.846	20.221	3.724	0.535
414.000	277.318	79.996	19.996	100.851	20.218	3.951	0.546
414.500	277.559	79.996	19.996	100.852	20.217	4.017	0.488
415.000	277.793	79.998	19.996	100.851	20.221	3.755	0.462
415.500	278.055	79.996	19.995	100.855	20.218	3.954	0.486
416.000	278.308	79.997	19.996	100.852	20.219	3.893	0.505
416.500	278.530	79.998	19.996	100.851	20.218	3.932	0.495
417.000	278.788	79.997	19.995	100.849	20.220	3.831	0.477
417.500	279.042	79.996	19.995	100.846	20.217	4.010	0.496
418.000	279.270	79.996	19.996	100.838	20.218	3.960	0.497
418.500	279.507	79.998	19.995	100.836	20.220	3.794	0.474
419.000	279.791	79.998	19.996	100.838	20.218	3.958	0.493
419.500	280.027	79.999	19.996	100.840	20.219	3.878	0.520
420.000	280.237	79.998	19.994	100.842	20.217	4.000	0.483
420.500	280.500	79.998	19.996	100.845	20.219	3.868	0.460
421.000	280.784	79.998	19.995	100.848	20.218	3.976	0.510
421.500	281.019	79.999	19.995	100.846	20.218	3.966	0.533
422.000	281.287	79.998	19.994	100.844	20.216	4.052	0.511
422.500	281.479	79.998	19.994	100.844	20.216	4.052	0.481
423.000	281.738	79.999	19.995	100.847	20.216	4.120	0.455
423.500	282.010	80.000	19.996	100.849	20.217	3.983	0.491
424.000	282.223	79.999	19.996	100.850	20.216	4.083	0.508
424.500	282.475	79.999	19.995	100.852	20.217	4.009	0.475
425.000	282.702	79.999	19.996	100.850	20.217	4.048	0.473
425.500	282.970	79.998	19.994	100.847	20.216	4.083	0.487
426.000	283.229	80.000	19.995	100.847	20.217	4.027	0.511
426.500	283.465	79.999	19.995	100.846	20.216	4.107	0.511
427.000	283.727	79.998	19.995	100.840	20.216	4.064	0.496
427.500	283.973	79.999	19.997	100.838	20.214	4.246	0.503
428.000	284.213	79.999	19.995	100.834	20.214	4.238	0.497
428.500	284.436	79.997	19.995	100.830	20.217	3.990	0.475
429.000	284.693	79.997	19.995	100.830	20.217	4.036	0.471
429.500	284.946	79.999	19.996	100.836	20.214	4.220	0.495
430.000	285.185	79.998	19.996	100.840	20.214	4.261	0.501
430.500	285.451	80.000	19.995	100.847	20.216	4.060	0.498
431.000	285.714	79.999	19.996	100.851	20.218	3.966	0.517
431.500	285.929	79.997	19.995	100.851	20.212	4.344	0.503
432.000	286.154	79.998	19.996	100.851	20.217	4.013	0.459
432.500	286.432	79.999	19.994	100.850	20.216	4.115	0.472
433.000	286.662	79.999	19.994	100.845	20.214	4.230	0.505
433.500	286.917	79.999	19.996	100.845	20.217	3.992	0.496
434.000	287.151	79.999	19.996	100.843	20.219	3.904	0.487
434.500	287.384	79.997	19.995	100.841	20.216	4.076	0.478
435.000	287.656	79.999	19.996	100.843	20.216	4.064	0.486
435.500	287.893	79.999	19.996	100.847	20.214	4.224	0.507
436.000	288.134	79.997	19.995	100.843	20.212	4.392	0.493
436.500	288.361	79.997	19.995	100.846	20.218	3.946	0.473
437.000	288.608	79.999	19.997	100.848	20.215	4.153	0.472
437.500	288.866	79.999	19.995	100.847	20.217	4.024	0.490
438.000	289.084	79.999	19.996	100.848	20.214	4.206	0.490
438.500	289.357	79.999	19.996	100.852	20.215	4.171	0.483
439.000	289.603	79.998	19.995	100.850	20.217	4.044	0.505
439.500	289.830	79.999	19.995	100.847	20.210	4.502	0.496
440.000	290.114	79.998	19.996	100.846	20.211	4.469	0.492
440.500	290.352	79.998	19.998	100.843	20.214	4.250	0.517
441.000	290.622	79.998	19.997	100.841	20.224	3.483	0.515
441.500	290.845	79.999	19.996	100.843	20.232	2.945	0.501
442.000	291.113	80.000	19.996	100.845	20.217	4.021	0.492
442.500	291.361	79.999	19.998	100.847	20.223	3.604	0.503
443.000	291.614	79.999	19.996	100.849	20.217	4.021	0.508
443.500	291.871	80.000	19.996	100.849	20.227	3.309	0.506
444.000	292.108	79.999	19.997	100.850	20.231	3.033	0.502
444.500	292.346	79.999	19.996	100.851	20.220	3.817	0.485
445.000	292.609	79.999	19.996	100.849	20.223	3.618	0.488
445.500	292.852	79.999	19.996	100.848	20.213	4.275	0.503
446.000	293.067	79.999	19.996	100.845	20.212	4.392	0.482
446.500	293.317	80.001	19.997	100.839	20.210	4.514	0.462
447.000	293.561	80.000	19.996	100.837	20.214	4.201	0.480
447.500	293.844	80.000	19.996	100.837	20.210	4.492	0.511
448.000	294.058	80.001	19.996	100.835	20.215	4.142	0.512
448.500	294.338	79.998	19.994	100.838	20.216	4.087	0.496
449.000	294.594	79.999	19.995	100.842	20.212	4.404	0.515
449.500	294.804	79.999	19.996	100.841	20.215	4.156	0.501
450.000	295.073	80.000	19.996	100.840	20.209	4.598	0.472
450.500	295.310	79.999	19.996	100.841	20.209	4.576	0.492
451.000	295.595	79.999	19.997	100.842	20.210	4.545	0.514
451.500	295.841	79.999	19.995	100.844	20.213	4.325	0.527
452.000	296.068	80.000	19.996	100.846	20.215	4.171	0.502
452.500	296.315	79.998	19.996	100.848	20.214	4.216	0.473
453.000	296.626	79.999	19.995	100.848	20.215	4.145	0.516
453.500	296.761	80.000	19.995	100.847	20.210	4.537	0.502
454.000	297.025	79.998	19.996	100.845	20.212	4.388	0.423
454.500	297.326	79.999	19.995	100.847	20.211	4.455	0.482
455.000	297.547	79.999	19.996	100.845	20.212	4.367	0.543
455.500	297.836	79.999	19.996	100.846	20.213	4.287	0.516
456.000	298.125	79.999	19.995	100.846	20.212	4.349	0.544
456.500	298.326	79.996	19.996	100.848	20.212	4.386	0.534
457.000	298.590	79.997	19.996	100.847	20.211	4.421	0.478
457.500	298.837	79.997	19.995	100.845	20.208	4.646	0.488
458.000	299.050	79.996	19.995	100.841	20.212	4.361	0.485
458.500	299.328	79.995	19.995	100.837	20.210	4.502	0.475
459.000	299.553	79.996	19.998	100.835	20.208	4.648	0.497
459.500	299.813	79.998	19.995	100.835	20.213	4.304	0.494
460.000	300.087	79.997	19.997	100.838	20.207	4.738	0.510
460.500	300.345	79.997	19.996	100.845	20.210	4.548	0.533
461.000	300.595	79.997	19.995	100.847	20.210	4.492	0.520
461.500	300.865	79.997	19.995	100.844	20.211	4.453	0.514
462.000	301.091	79.998	19.997	100.839	20.212	4.390	0.508
462.500	301.358	79.997	19.998	100.836	20.208	4.629	0.494
463.000	301.560	79.996	19.997	100.830	20.209	4.607	0.481
463.500	301.813	79.996	19.997	100.831	20.207	4.724	0.462
464.000	302.072	79.997	19.997	100.832	20.208	4.633	0.483
464.500	302.320	79.995	19.995	100.836	20.206	4.787	0.509
465.000	302.568	79.996	19.996	100.840	20.210	4.492	0.502
465.500	302.833	79.998	19.996	100.845	20.208	4.639	0.505
466.000	303.099	79.995	19.997	100.844	20.206	4.815	0.522
466.500	303.325	79.997	19.997	100.841	20.207	4.752	0.512
467.000	303.587	79.996	19.997	100.840	20.209	4.615	0.490
467.500	303.861	79.997	19.995	100.840	20.208	4.662	0.512
468.000	304.066	79.996	19.998	100.839	20.206	4.836	0.508
468.500	304.290	79.996	19.996	100.841	20.209	4.607	0.454
469.000	304.561	79.997	19.997	100.843	20.206	4.791	0.462
469.500	304.803	79.996	19.996	100.839	20.204	4.921	0.505
470.000	305.039	79.997	19.997	100.837	20.206	4.777	0.495
470.500	305.303	79.997	19.996	100.833	20.208	4.644	0.489
471.000	305.556	79.999	19.996	100.829	20.207	4.723	0.509
471.500	305.821	79.996	19.995	100.829	20.207	4.719	0.517
472.000	306.063	79.996	19.996	100.834	20.210	4.530	0.512
472.500	306.354	79.996	19.997	100.834	20.205	4.899	0.520
473.000	306.539	79.995	19.997	100.835	20.207	4.707	0.504
473.500	306.792	79.997	19.997	100.835	20.204	4.922	0.457
474.000	307.029	79.996	19.996	100.837	20.204	4.940	0.464
474.500	307.312	79.995	19.997	100.837	20.206	4.773	0.506
475.000	307.544	79.996	19.996	100.839	20.203	5.018	0.517
475.500	307.799	79.997	19.997	100.843	20.201	5.131	0.501
476.000	308.030	79.997	19.997	100.842	20.203	4.992	0.486
476.500	308.301	79.997	19.996	100.842	20.204	4.970	0.494
477.000	308.535	79.997	19.996	100.840	20.202	5.080	0.504
477.500	308.808	79.997	19.996	100.842	20.204	4.925	0.506
478.000	309.027	79.998	19.996	100.844	20.202	5.070	0.499
478.500	309.296	79.998	19.996	100.844	20.202	5.124	0.490
479.000	309.547	79.997	19.997	100.839	20.203	5.057	0.504
479.500	309.788	79.998	19.996	100.835	20.198	5.402	0.506
480.000	310.039	79.998	19.995	100.829	20.202	5.126	0.491
480.500	310.273	80.000	19.994	100.827	20.203	4.998	0.488
481.000	310.503	79.998	19.996	100.829	20.200	5.207	0.475
481.500	310.780	79.998	19.996	100.836	20.201	5.154	0.486
482.000	311.037	79.998	19.996	100.843	20.200	5.221	0.520
482.500	311.325	79.998	19.994	100.848	20.197	5.444	0.539
483.000	311.562	79.998	19.996	100.851	20.200	5.205	0.535
483.500	311.828	79.997	19.995	100.851	20.202	5.127	0.515
484.000	312.087	79.999	19.996	100.849	20.198	5.350	0.514
484.500	312.366	79.998	19.995	100.845	20.198	5.399	0.531
485.000	312.592	79.998	19.996	100.841	20.197	5.426	0.522
485.500	312.846	79.997	19.995	100.837	20.198	5.348	0.492
486.000	313.156	79.998	19.997	100.834	20.200	5.250	0.522
486.500	313.347	79.996	19.997	100.829	20.197	5.448	0.533
487.000	313.585	79.998	19.996	100.828	20.199	5.299	0.465
487.500	313.854	79.997	19.996	100.826	20.194	5.640	0.468
488.000	314.083	79.997	19.996	100.824	20.195	5.591	0.502
488.500	314.335	79.996	19.995	100.829	20.196	5.544	0.489
489.000	314.592	79.997	19.996	100.835	20.196	5.538	0.495
489.500	314.835	79.998	19.995	100.842	20.195	5.587	0.505
490.000	315.074	79.998	19.996	100.845	20.196	5.552	0.491
490.500	315.334	79.997	19.996	100.846	20.200	5.213	0.490
491.000	315.580	79.995	19.996	100.842	20.197	5.458	0.502
491.500	315.828	79.997	19.996	100.839	20.193	5.720	0.500
492.000	316.096	79.997	19.996	100.831	20.193	5.747	0.505
492.500	316.338	79.996	19.996	100.828	20.193	5.716	0.513
493.000	316.589	79.997	19.996	100.829	20.197	5.442	0.502
493.500	316.852	79.997	19.996	100.832	20.201	5.178	0.504
494.000	317.072	79.997	19.996	100.836	20.194	5.657	0.499
494.500	317.324	79.997	19.995	100.840	20.190	5.946	0.478
495.000	317.592	79.997	19.996	100.839	20.186	6.212	0.496
495.500	317.822	79.997	19.995	100.837	20.189	6.013	0.509
496.000	318.064	79.997	19.995	100.835	20.190	5.936	0.485
496.500	318.309	79.997	19.996	100.833	20.191	5.868	0.479
497.000	318.603	79.998	19.995	100.831	20.193	5.710	0.513
497.500	318.811	80.000	19.995	100.832	20.191	5.851	0.521
498.000	319.066	79.999	19.995	100.835	20.193	5.729	0.483
498.500	319.321	79.998	19.996	100.836	20.190	5.935	0.487
499.000	319.530	80.000	19.997	100.837	20.191	5.885	0.487
499.500	319.781	80.000	19.995	100.840	20.190	5.948	0.462
500.000	320.089	79.998	19.996	100.844	20.184	6.407	0.509
500.500	320.282	80.000	19.997	100.846	20.185	6.345	0.530
501.000	320.498	79.999	19.995	100.843	20.189	6.005	0.455
501.500	320.775	80.000	19.996	100.840	20.184	6.358	0.451
502.000	321.018	79.999	19.995	100.840	20.187	6.161	0.506
502.500	321.271	80.000	19.996	100.841	20.186	6.269	0.508
503.000	321.575	80.001	19.997	100.840	20.186	6.210	0.527
503.500	321.821	80.000	19.995	100.840	20.185	6.333	0.554
504.000	322.049	79.999	19.997	100.841	20.187	6.167	0.512
504.500	322.301	80.000	19.996	100.838	20.192	5.804	0.477
505.000	322.549	80.000	19.995	100.832	20.185	6.347	0.490
505.500	322.796	79.999	19.994	100.828	20.185	6.310	0.498
506.000	322.992	79.999	19.995	100.826	20.182	6.552	0.469
506.500	323.300	79.999	19.995	100.828	20.182	6.529	0.473
507.000	323.504	80.000	19.995	100.828	20.184	6.380	0.508
507.500	323.768	79.999	19.995	100.834	20.185	6.298	0.490
508.000	324.021	79.998	19.996	100.836	20.181	6.589	0.492
508.500	324.275	79.999	19.994	100.837	20.180	6.681	0.512
509.000	324.542	79.998	19.996	100.834	20.177	6.918	0.514
509.500	324.865	80.000	19.995	100.831	20.178	6.808	0.555
510.000	325.091	79.999	19.995	100.828	20.179	6.746	0.569
510.500	325.349	79.999	19.996	100.827	20.178	6.812	0.517
511.000	325.625	79.999	19.996	100.825	20.182	6.494	0.509
511.500	325.826	79.999	19.995	100.827	20.179	6.760	0.506
512.000	326.085	79.998	19.996	100.828	20.176	6.973	0.469
512.500	326.346	79.998	19.996	100.825	20.178	6.836	0.490
513.000	326.614	79.998	19.993	100.823	20.175	7.049	0.524
513.500	326.838	79.997	19.995	100.826	20.174	7.137	0.510
514.000	327.086	79.996	19.995	100.828	20.176	6.992	0.482
514.500	327.356	79.998	19.995	100.831	20.181	6.586	0.495
515.000	327.633	79.998	19.996	100.834	20.185	6.314	0.532
515.500	327.838	80.000	19.996	100.836	20.190	5.960	0.515
516.000	328.116	79.999	19.994	100.833	20.187	6.136	0.483
516.500	328.367	79.998	19.994	100.832	20.178	6.813	0.506
517.000	328.622	79.998	19.995	100.832	20.175	7.016	0.517
517.500	328.876	79.999	19.996	100.831	20.180	6.705	0.507
518.000	329.161	79.999	19.995	100.830	20.177	6.914	0.524
518.500	329.394	80.000	19.996	100.831	20.177	6.875	0.529
519.000	329.645	79.999	19.995	100.829	20.174	7.075	0.501
519.500	329.842	79.997	19.995	100.829	20.175	7.056	0.466
520.000	330.101	79.998	19.995	100.827	20.171	7.286	0.452
520.500	330.398	79.998	19.994	100.828	20.173	7.192	0.506
521.000	330.665	79.999	19.995	100.828	20.170	7.394	0.560
521.500	330.914	79.999	19.995	100.829	20.172	7.276	0.540
522.000	331.174	79.999	19.996	100.831	20.173	7.188	0.513
522.500	331.427	79.999	19.995	100.835	20.171	7.354	0.511
523.000	331.664	79.999	19.996	100.834	20.167	7.600	0.501
523.500	331.899	80.000	19.994	100.834	20.168	7.551	0.481
524.000	332.178	80.000	19.996	100.831	20.165	7.743	0.493
524.500	332.439	79.999	19.995	100.828	20.163	7.876	0.527
525.000	332.711	79.999	19.995	100.827	20.164	7.790	0.536
525.500	332.948	79.999	19.996	100.833	20.167	7.618	0.521
526.000	333.178	79.997	19.995	100.834	20.163	7.896	0.488
526.500	333.473	80.000	19.996	100.836	20.167	7.591	0.496
527.000	333.711	79.999	19.995	100.837	20.168	7.545	0.529
527.500	333.942	79.999	19.996	100.834	20.165	7.780	0.501
528.000	334.356	79.998	19.995	100.830	20.165	7.739	0.557
528.500	334.464	79.999	19.996	100.831	20.164	7.851	0.583
529.000	334.767	79.999	19.996	100.833	20.162	7.968	0.466
529.500	335.024	79.999	19.996	100.834	20.162	7.966	0.486
530.000	335.267	79.998	19.996	100.838	20.158	8.228	0.530
530.500	335.497	79.999	19.995	100.841	20.159	8.194	0.487
531.000	335.793	79.998	19.997	100.839	20.156	8.370	0.499
531.500	336.065	79.998	19.997	100.838	20.157	8.316	0.547
532.000	336.296	79.999	19.995	100.836	20.154	8.533	0.535
532.500	336.573	79.997	19.996	100.831	20.154	8.514	0.506
533.000	336.862	79.997	19.995	100.827	20.153	8.606	0.537
533.500	337.092	79.998	19.995	100.825	20.160	8.143	0.543
534.000	337.340	79.998	19.995	100.822	20.150	8.796	0.498
534.500	337.611	79.997	19.996	100.821	20.151	8.782	0.498
535.000	337.866	79.996	19.997	100.829	20.149	8.904	0.523
535.500	338.117	79.996	19.996	100.833	20.152	8.666	0.516
536.000	338.332	79.997	19.995	100.834	20.152	8.648	0.486
536.500	338.585	79.996	19.995	100.834	20.149	8.873	0.467
537.000	338.856	79.996	19.997	100.835	20.153	8.586	0.496
537.500	339.064	79.996	19.996	100.828	20.149	8.916	0.502
538.000	339.384	79.997	19.997	100.823	20.151	8.750	0.504
538.500	339.595	79.997	19.995	100.825	20.149	8.875	0.529
539.000	339.879	79.997	19.997	100.829	20.148	8.987	0.513
539.500	340.128	79.995	19.995	100.828	20.144	9.224	0.514
540.000	340.403	79.997	19.996	100.830	20.155	8.498	0.529
540.500	340.632	79.996	19.995	100.832	20.153	8.635	0.514
541.000	340.951	79.997	19.995	100.830	20.145	9.180	0.526
541.500	341.190	79.998	19.996	100.825	20.139	9.618	0.553
542.000	341.473	79.997	19.994	100.825	20.141	9.461	0.540
542.500	341.666	79.996	19.995	100.828	20.145	9.187	0.499
543.000	341.947	79.998	19.998	100.832	20.139	9.635	0.475
543.500	342.191	79.997	19.996	100.837	20.139	9.604	0.499
544.000	342.452	79.996	19.997	100.839	20.143	9.356	0.515
544.500	342.681	79.996	19.995	100.840	20.140	9.567	0.497
545.000	342.939	79.998	19.997	100.834	20.141	9.473	0.488
545.500	343.183	79.998	19.996	100.831	20.140	9.575	0.495
546.000	343.404	79.998	19.996	100.825	20.136	9.827	0.484
546.500	343.680	79.996	19.997	100.826	20.139	9.620	0.481
547.000	343.972	79.997	19.995	100.823	20.138	9.698	0.533
547.500	344.251	79.998	19.997	100.824	20.137	9.729	0.569
548.000	344.458	79.998	19.994	100.826	20.134	9.993	0.528
548.500	344.729	79.998	19.996	100.831	20.135	9.922	0.482
549.000	345.003	79.997	19.995	100.829	20.137	9.793	0.512
549.500	345.251	79.997	19.995	100.831	20.132	10.131	0.534
550.000	345.514	79.997	19.995	100.836	20.132	10.086	0.517
550.500	345.771	79.997	19.996	100.835	20.129	10.303	0.515
551.000	346.022	79.997	19.995	100.831	20.129	10.310	0.513
551.500	346.252	79.997	19.996	100.832	20.128	10.412	0.494
552.000	346.545	79.996	19.996	100.830	20.127	10.447	0.503
552.500	346.787	79.996	19.997	100.824	20.126	10.515	0.529
553.000	347.052	79.996	19.997	100.821	20.125	10.648	0.521
553.500	347.344	79.997	19.997	100.820	20.123	10.763	0.532
554.000	347.562	79.997	19.996	100.819	20.126	10.536	0.534
554.500	347.776	79.996	19.997	100.823	20.122	10.849	0.471
555.000	348.033	79.997	19.997	100.823	20.126	10.564	0.452
555.500	348.403	79.997	19.996	100.825	20.119	11.053	0.549
556.000	348.832	79.996	19.996	100.825	20.121	10.936	0.712
556.500	348.861	79.996	19.996	100.824	20.120	11.000	0.628
557.000	349.098	79.995	19.996	100.823	20.117	11.211	0.362
557.500	349.349	79.997	19.996	100.824	20.117	11.213	0.378
558.000	349.646	79.996	19.997	100.822	20.119	11.025	0.518
558.500	349.905	79.997	19.997	100.823	20.115	11.354	0.552
559.000	350.154	79.997	19.997	100.823	20.113	11.450	0.532
559.500	350.458	79.995	19.996	100.820	20.117	11.196	0.531
560.000	350.687	79.997	19.996	100.818	20.110	11.667	0.543
560.500	350.918	79.997	19.998	100.818	20.111	11.661	0.496
561.000	351.215	79.995	19.996	100.817	20.109	11.770	0.494
561.500	351.472	79.997	19.998	100.818	20.106	12.013	0.541
562.000	351.686	79.996	19.997	100.820	20.107	11.936	0.513
562.500	351.960	79.995	19.996	100.825	20.107	11.939	0.479
563.000	352.243	79.996	19.996	100.825	20.106	11.982	0.522
563.500	352.508	79.996	19.997	100.825	20.106	12.019	0.552
564.000	352.770	79.996	19.997	100.823	20.101	12.312	0.538
564.500	353.061	79.995	19.997	100.820	20.100	12.443	0.540
565.000	353.278	79.997	19.997	100.816	20.098	12.537	0.530
565.500	353.583	79.997	19.997	100.819	20.099	12.473	0.515
566.000	353.824	79.996	19.997	100.824	20.100	12.422	0.534
566.500	354.095	79.996	19.996	100.825	20.093	12.897	0.529
567.000	354.383	79.996	19.996	100.826	20.093	12.930	0.535
567.500	354.610	79.996	19.996	100.826	20.093	12.885	0.537
568.000	354.889	79.996	19.996	100.822	20.093	12.910	0.511
568.500	355.137	79.997	19.996	100.820	20.089	13.215	0.517
569.000	355.400	79.997	19.995	100.822	20.090	13.167	0.519
569.500	355.644	79.997	19.995	100.825	20.087	13.334	0.509
570.000	355.926	79.997	19.996	100.826	20.091	13.064	0.517
570.500	356.166	79.996	19.996	100.828	20.089	13.205	0.525
571.000	356.404	79.997	19.995	100.826	20.080	13.823	0.500
571.500	356.710	79.996	19.994	100.824	20.081	13.817	0.511
572.000	356.950	79.998	19.995	100.822	20.085	13.519	0.544
572.500	357.195	79.997	19.995	100.822	20.080	13.822	0.515
573.000	357.508	79.998	19.995	100.822	20.082	13.730	0.522
573.500	357.737	79.998	19.996	100.824	20.084	13.542	0.550
574.000	357.956	79.998	19.995	100.824	20.081	13.753	0.495
574.500	358.240	79.998	19.995	100.823	20.081	13.767	0.476
575.000	358.487	79.998	19.995	100.823	20.071	14.492	0.517
575.500	358.701	79.997	19.994	100.824	20.070	14.556	0.495
576.000	358.981	79.997	19.996	100.825	20.072	14.431	0.478
576.500	359.259	79.999	19.995	100.826	20.069	14.672	0.526
577.000	359.554	79.997	19.995	100.826	20.065	14.922	0.566
577.500	359.787	79.997	19.994	100.827	20.071	14.488	0.551
578.000	360.049	79.997	19.996	100.824	20.069	14.621	0.512
578.500	360.256	79.999	19.996	100.822	20.057	15.485	0.482
579.000	360.544	79.998	19.995	100.821	20.060	15.307	0.482
579.500	360.800	79.999	19.995	100.822	20.058	15.470	0.519
580.000	361.077	80.001	19.995	100.827	20.053	15.767	0.538
580.500	361.314	79.998	19.996	100.832	20.061	15.220	0.523
581.000	361.568	80.000	19.995	100.834	20.060	15.276	0.502
581.500	361.853	79.999	19.995	100.837	20.050	15.986	0.515
582.000	362.043	80.000	19.996	100.836	20.046	16.301	0.507
582.500	362.336	79.999	19.995	100.831	20.046	16.293	0.479
583.000	362.582	79.999	19.995	100.827	20.053	15.778	0.511
583.500	362.828	79.999	19.995	100.827	20.046	16.326	0.515
584.000	363.130	80.001	19.996	100.825	20.044	16.457	0.520
584.500	363.337	79.998	19.995	100.825	20.036	16.985	0.529
585.000	363.580	79.998	19.995	100.824	20.037	16.918	0.480
585.500	363.833	79.999	19.997	100.824	20.032	17.266	0.473
586.000	364.108	79.998	19.996	100.822	20.032	17.274	0.512
586.500	364.369	79.998	19.995	100.822	20.029	17.498	0.532
587.000	364.623	79.999	19.996	100.823	20.026	17.714	0.526
587.500	364.883	79.998	19.995	100.822	20.027	17.643	0.514
588.000	365.071	79.998	19.995	100.821	20.026	17.698	0.481
588.500	365.423	79.999	19.997	100.820	20.027	17.640	0.494
589.000	365.623	79.999	19.997	100.820	20.024	17.851	0.546
589.500	365.859	79.998	19.996	100.820	20.019	18.264	0.494
590.000	366.173	79.998	19.995	100.820	20.013	18.637	0.493
590.500	366.374	79.998	19.996	100.822	20.015	18.513	0.533
591.000	366.649	79.996	19.996	100.824	20.014	18.611	0.495
591.500	366.908	79.998	19.996	100.825	20.005	19.260	0.505
592.000	367.109	79.998	19.994	100.826	20.010	18.873	0.497
592.500	367.402	80.000	19.995	100.827	20.001	19.515	0.477
593.000	367.630	79.998	19.995	100.825	20.008	19.025	0.508
593.500	367.868	79.997	19.995	100.823	19.994	20.008	0.494
594.000	368.182	79.998	19.995	100.822	19.990	20.350	0.509
594.500	368.389	79.999	19.995	100.822	20.002	19.460	0.536
595.000	368.720	79.998	19.994	100.822	19.995	19.980	0.529
595.500	368.930	79.998	19.996	100.822	19.996	19.866	0.539
596.000	369.155	79.999	19.995	100.821	19.993	20.089	0.488
596.500	369.468	79.998	19.995	100.821	19.987	20.563	0.487
597.000	369.728	79.999	19.995	100.819	19.984	20.744	0.555
597.500	369.957	79.999	19.996	100.819	19.986	20.572	0.531
598.000	370.207	79.998	19.994	100.820	19.982	20.900	0.484
598.500	370.518	79.999	19.995	100.820	19.977	21.219	0.520
599.000	370.755	79.998	19.996	100.822	19.976	21.289	0.554
599.500	370.976	79.999	19.994	100.824	19.975	21.417	0.503
600.000	371.336	79.999	19.995	100.824	19.972	21.632	0.520
600.500	371.462	80.001	19.995	100.823	19.967	21.995	0.534
601.000	371.757	80.000	19.995	100.823	19.961	22.373	0.454
601.500	372.053	80.000	19.995	100.821	19.963	22.226	0.506
602.000	372.316	80.000	19.995	100.820	19.958	22.597	0.575
602.500	372.601	79.999	19.994	100.820	19.953	22.990	0.554
603.000	372.840	80.001	19.994	100.821	19.955	22.861	0.536
603.500	373.044	80.001	19.995	100.823	19.956	22.777	0.483
604.000	373.491	80.001	19.996	100.826	19.953	22.993	0.547
604.500	373.455	80.000	19.996	100.825	19.949	23.270	0.531
605.000	374.051	80.001	19.994	100.824	19.950	23.186	0.486
605.500	374.037	80.000	19.996	100.824	19.945	23.575	0.571
606.000	374.494	80.000	19.995	100.822	19.943	23.677	0.512
606.500	374.474	80.002	19.995	100.820	19.937	24.126	0.440
607.000	375.055	80.000	19.996	100.820	19.936	24.228	0.499
607.500	374.845	80.000	19.995	100.822	19.935	24.234	0.466
608.000	375.180	80.000	19.995	100.820	19.935	24.273	0.248
608.500	375.409	79.999	19.995	100.818	19.933	24.422	0.345
609.000	376.016	80.001	19.996	100.817	19.927	24.823	0.700
609.500	376.233	80.000	19.997	100.817	19.924	25.062	0.830
610.000	376.446	80.000	19.996	100.818	19.920	25.327	0.627
610.500	376.692	79.999	19.995	100.820	19.923	25.124	0.445
611.000	376.862	79.999	19.995	100.820	19.916	25.635	0.438
611.500	377.193	79.998	19.996	100.820	19.915	25.683	0.459
612.000	377.503	80.000	19.995	100.821	19.911	26.012	0.571
612.500	377.661	79.998	19.994	100.820	19.905	26.391	0.554
613.000	377.938	80.000	19.995	100.817	19.906	26.381	0.452
613.500	378.279	79.997	19.996	100.818	19.902	26.617	0.527
614.000	378.341	79.998	19.996	100.819	19.899	26.881	0.510
614.500	378.739	79.997	19.995	100.819	19.896	27.057	0.431
615.000	378.882	79.998	19.996	100.820	19.891	27.432	0.501
615.500	379.172	79.997	19.995	100.821	19.890	27.508	0.487
616.000	379.470	79.997	19.995	100.820	19.885	27.888	0.510
616.500	379.629	79.997	19.996	100.819	19.885	27.876	0.522
617.000	379.945	79.997	19.996	100.819	19.881	28.142	0.466
617.500	380.205	79.997	19.998	100.818	19.876	28.523	0.526
618.000	380.486	79.996	19.996	100.818	19.875	28.541	0.559
618.500	380.724	79.997	19.995	100.819	19.870	28.928	0.530
619.000	380.945	79.997	19.995	100.819	19.867	29.158	0.489
619.500	381.307	79.998	19.996	100.821	19.868	29.090	0.521
620.000	381.484	79.997	19.996	100.822	19.861	29.579	0.561
620.500	381.757	79.998	19.997	100.822	19.856	29.917	0.494
621.000	382.000	79.997	19.996	100.821	19.856	29.907	0.483
621.500	382.240	79.997	19.996	100.821	19.852	30.212	0.500
622.000	382.482	79.998	19.997	100.822	19.850	30.341	0.483
622.500	382.787	79.998	19.997	100.822	19.841	31.018	0.515
623.000	383.026	79.997	19.997	100.821	19.843	30.873	0.545
623.500	383.250	79.996	19.997	100.821	19.840	31.071	0.503
624.000	383.554	79.997	19.997	100.822	19.833	31.612	0.496
624.500	383.766	79.998	19.996	100.819	19.832	31.690	0.522
625.000	383.994	79.997	19.997	100.818	19.826	32.066	0.478
625.500	384.258	79.998	19.997	100.817	19.827	32.040	0.466
626.000	384.533	79.997	19.996	100.817	19.821	32.460	0.515
626.500	384.809	79.997	19.996	100.818	19.820	32.529	0.545
627.000	385.006	79.998	19.996	100.818	19.817	32.740	0.512
627.500	385.284	79.998	19.997	100.818	19.814	32.926	0.474
628.000	385.509	79.998	19.996	100.817	19.809	33.320	0.489
628.500	385.807	79.999	19.996	100.818	19.811	33.163	0.513
629.000	386.025	79.998	19.995	100.818	19.804	33.681	0.519
629.500	386.278	79.997	19.996	100.818	19.800	33.959	0.494
630.000	386.556	79.997	19.997	100.818	19.797	34.207	0.501
630.500	386.736	79.999	19.996	100.818	19.792	34.529	0.495
631.000	387.028	79.998	19.996	100.817	19.789	34.782	0.465
631.500	387.270	79.997	19.997	100.817	19.787	34.922	0.503
632.000	387.531	79.998	19.995	100.817	19.788	34.832	0.519
632.500	387.785	79.997	19.996	100.818	19.783	35.167	0.510
633.000	388.004	79.998	19.996	100.818	19.782	35.241	0.494
633.500	388.331	79.997	19.997	100.818	19.782	35.274	0.509
634.000	388.570	79.997	19.995	100.818	19.776	35.675	0.555
634.500	388.797	79.996	19.996	100.818	19.773	35.929	0.516
635.000	389.039	79.997	19.996	100.818	19.771	36.056	0.468
635.500	389.291	79.998	19.995	100.817	19.762	36.687	0.482
636.000	389.545	79.997	19.995	100.817	19.762	36.661	0.500
636.500	389.751	79.999	19.996	100.817	19.761	36.732	0.482
637.000	390.021	79.997	19.996	100.817	19.758	36.996	0.468
637.500	390.309	79.997	19.995	100.817	19.751	37.460	0.518
638.000	390.513	79.997	19.995	100.818	19.750	37.569	0.525
638.500	390.750	79.998	19.996	100.818	19.748	37.704	0.466
639.000	391.055	79.996	19.996	100.820	19.743	38.043	0.491
639.500	391.249	79.995	19.994	100.820	19.744	37.995	0.520
640.000	391.557	79.996	19.996	100.820	19.738	38.415	0.500
640.500	391.769	79.997	19.996	100.820	19.734	38.695	0.511
641.000	392.009	79.997	19.996	100.820	19.731	38.911	0.486
641.500	392.255	79.996	19.996	100.819	19.727	39.165	0.469
642.000	392.550	79.996	19.995	100.819	19.725	39.327	0.513
642.500	392.785	79.996	19.996	100.817	19.721	39.651	0.536
643.000	393.059	79.995	19.997	100.816	19.720	39.717	0.520
643.500	393.285	79.996	19.997	100.813	19.714	40.128	0.504
644.000	393.522	79.995	19.997	100.813	19.711	40.378	0.481
644.500	393.759	79.996	19.998	100.813	19.707	40.604	0.469
645.000	394.058	79.995	19.997	100.812	19.705	40.798	0.505
645.500	394.323	79.996	19.997	100.813	19.702	41.021	0.550
646.000	394.573	79.995	19.997	100.812	19.698	41.308	0.539
646.500	394.832	79.996	19.997	100.810	19.694	41.545	0.512
647.000	395.119	79.996	19.998	100.809	19.694	41.574	0.528
647.500	395.362	79.995	19.997	100.810	19.689	41.959	0.538
648.000	395.633	79.996	19.998	100.810	19.687	42.038	0.522
648.500	395.871	79.996	19.997	100.813	19.686	42.161	0.512
649.000	396.125	79.995	19.998	100.811	19.686	42.164	0.501
649.500	396.363	79.996	19.997	100.807	19.675	42.939	0.492
650.000	396.582	79.996	19.997	100.808	19.685	42.193	0.475
650.500	396.866	79.996	19.997	100.805	19.675	42.927	0.480
651.000	397.121	79.997	19.998	100.805	19.665	43.649	0.520
651.500	397.408	79.996	19.997	100.807	19.659	44.089	0.540
652.000	397.632	79.996	19.996	100.809	19.657	44.258	0.527
652.500	397.879	79.996	19.997	100.807	19.657	44.259	0.491
653.000	398.142	79.996	19.996	100.809	19.650	44.731	0.490
653.500	398.422	79.997	19.997	100.808	19.647	44.983	0.527
654.000	398.645	79.997	19.996	100.811	19.644	45.153	0.523
654.500	398.896	79.997	19.997	100.812	19.642	45.294	0.488
655.000	399.158	79.997	19.996	100.811	19.636	45.769	0.493
655.500	399.412	79.997	19.996	100.809	19.630	46.136	0.515
656.000	399.668	79.998	19.996	100.804	19.631	46.116	0.513
656.500	399.932	79.997	19.996	100.800	19.629	46.253	0.515
657.000	400.130	79.997	19.996	100.799	19.620	46.882	0.491
657.500	400.425	79.999	19.996	100.800	19.622	46.762	0.477
658.000	400.610	79.998	19.997	100.801	19.616	47.183	0.486
658.500	400.891	79.998	19.994	100.805	19.615	47.197	0.473
659.000	401.153	79.999	19.995	100.807	19.605	47.940	0.505
659.500	401.393	79.999	19.995	100.807	19.604	47.995	0.522
660.000	401.648	79.998	19.994	100.808	19.602	48.148	0.498
660.500	401.920	79.998	19.996	100.810	19.598	48.417	0.511
661.000	402.135	79.999	19.995	100.808	19.596	48.595	0.507
661.500	402.447	79.998	19.995	100.806	19.592	48.897	0.507
662.000	402.663	79.998	19.995	100.802	19.590	48.992	0.528
662.500	402.886	79.997	19.994	100.804	19.583	49.525	0.483
663.000	403.175	79.999	19.995	100.805	19.580	49.754	0.475
663.500	403.388	79.998	19.996	100.808	19.577	49.924	0.507
664.000	403.630	80.000	19.994	100.813	19.575	50.102	0.479
664.500	403.874	79.999	19.996	100.817	19.572	50.315	0.470
665.000	404.141	79.999	19.996	100.814	19.565	50.829	0.499
665.500	404.386	79.997	19.994	100.810	19.561	51.120	0.511
666.000	404.660	79.998	19.996	100.804	19.559	51.271	0.515
666.500	404.903	79.998	19.995	100.796	19.553	51.677	0.518
667.000	405.202	79.998	19.995	100.790	19.549	51.960	0.529
667.500	405.396	79.998	19.996	100.786	19.547	52.087	0.517
668.000	405.700	79.998	19.995	100.784	19.541	52.544	0.495
668.500	405.911	79.998	19.996	100.784	19.538	52.765	0.507
669.000	406.180	79.999	19.997	100.786	19.533	53.085	0.498
669.500	406.420	79.998	19.996	100.786	19.532	53.205	0.494
670.000	406.708	79.999	19.996	100.786	19.539	52.704	0.518
670.500	406.907	79.999	19.995	100.784	19.541	52.565	0.508
671.000	407.215	79.998	19.996	100.785	19.523	53.802	0.497
671.500	407.429	79.997	19.996	100.783	19.528	53.439	0.514
672.000	407.675	79.999	19.996	100.782	19.525	53.662	0.491
672.500	407.937	79.997	19.996	100.780	19.516	54.326	0.484
673.000	408.158	79.997	19.995	100.780	19.510	54.775	0.496
673.500	408.385	79.999	19.996	100.779	19.503	55.255	0.466
674.000	408.638	79.998	19.996	100.779	19.498	55.610	0.464
674.500	408.903	79.997	19.995	100.778	19.494	55.910	0.499
675.000	409.207	79.998	19.996	100.779	19.487	56.433	0.544
675.500	409.425	79.997	19.995	100.779	19.484	56.656	0.546
676.000	409.693	79.997	19.995	100.779	19.483	56.723	0.504
676.500	409.932	79.999	19.995	100.779	19.480	56.945	0.497
677.000	410.195	79.999	19.995	100.779	19.475	57.255	0.505
677.500	410.394	79.998	19.996	100.779	19.473	57.409	0.482
678.000	410.651	79.998	19.996	100.781	19.467	57.847	0.459
678.500	410.908	79.999	19.995	100.781	19.464	58.100	0.485
679.000	411.144	79.998	19.996	100.781	19.460	58.356	0.503
679.500	411.425	80.000	19.996	100.781	19.456	58.656	0.505
680.000	411.669	80.000	19.995	100.781	19.452	58.943	0.521
680.500	411.943	79.999	19.995	100.778	19.446	59.336	0.522
681.000	412.195	79.999	19.995	100.777	19.440	59.785	0.522
681.500	412.414	79.999	19.996	100.777	19.441	59.709	0.498
682.000	412.659	79.999	19.996	100.777	19.435	60.164	0.468
682.500	412.942	80.000	19.996	100.777	19.428	60.612	0.496
683.000	413.170	80.000	19.996	100.777	19.425	60.873	0.520
683.500	413.474	79.999	19.995	100.777	19.417	61.446	0.522
684.000	413.628	80.001	19.995	100.776	19.413	61.741	0.495
684.500	413.888	80.000	19.995	100.775	19.409	61.980	0.436
685.000	414.105	80.000	19.995	100.774	19.407	62.184	0.446
685.500	414.361	80.000	19.995	100.772	19.401	62.592	0.475
686.000	414.569	80.000	19.995	100.771	19.398	62.821	0.468
686.500	414.836	80.000	19.995	100.771	19.390	63.354	0.470
687.000	415.089	80.000	19.995	100.772	19.388	63.528	0.498
687.500	415.326	80.000	19.995	100.774	19.380	64.091	0.505
688.000	415.591	80.001	19.994	100.775	19.379	64.171	0.496
688.500	415.838	79.999	19.995	100.775	19.372	64.673	0.507
689.000	416.062	80.000	19.994	100.775	19.369	64.831	0.491
689.500	416.345	79.999	19.995	100.771	19.362	65.359	0.489
690.000	416.589	80.000	19.996	100.768	19.361	65.416	0.517
690.500	416.823	79.999	19.996	100.765	19.353	66.003	0.503
691.000	417.125	80.000	19.995	100.762	19.350	66.222	0.507
691.500	417.354	79.999	19.995	100.756	19.345	66.560	0.534
692.000	417.610	79.999	19.995	100.757	19.338	67.119	0.508
692.500	417.848	79.998	19.995	100.759	19.338	67.123	0.490
693.000	418.101	79.999	19.995	100.758	19.331	67.564	0.493
693.500	418.372	79.997	19.996	100.759	19.328	67.803	0.507
694.000	418.593	79.998	19.995	100.760	19.319	68.436	0.508
694.500	418.843	79.998	19.995	100.761	19.317	68.566	0.482
695.000	419.136	79.997	19.995	100.762	19.314	68.820	0.507
695.500	419.313	79.997	19.995	100.765	19.304	69.553	0.506
696.000	419.542	79.997	19.996	100.767	19.302	69.653	0.438
696.500	419.831	79.998	19.996	100.767	19.294	70.243	0.462
697.000	420.060	79.998	19.996	100.761	19.288	70.684	0.518
697.500	420.364	79.998	19.996	100.754	19.284	70.944	0.525
698.000	420.571	79.998	19.996	100.747	19.279	71.337	0.522
698.500	420.837	79.997	19.996	100.742	19.273	71.739	0.492
699.000	421.098	79.997	19.996	100.741	19.265	72.333	0.500
699.500	421.321	79.998	19.995	100.745	19.262	72.565	0.505
700.000	421.558	79.997	19.995	100.745	19.255	73.017	0.472
700.500	421.825	79.997	19.997	100.745	19.255	73.081	0.482
701.000	422.073	79.996	19.996	100.745	19.247	73.621	0.509
701.500	422.329	79.996	19.996	100.744	19.242	73.994	0.510
702.000	422.582	79.997	19.997	100.741	19.235	74.473	0.507
702.500	422.828	79.997	19.995	100.741	19.229	74.877	0.504
703.000	423.022	79.998	19.996	100.742	19.221	75.516	0.469
703.500	423.327	79.996	19.995	100.742	19.214	75.998	0.470
704.000	423.496	79.996	19.996	100.742	19.214	75.988	0.486
704.500	423.830	79.996	19.996	100.742	19.211	76.222	0.488
705.000	424.022	79.997	19.996	100.742	19.203	76.805	0.515
705.500	424.325	79.996	19.996	100.741	19.199	77.084	0.511
706.000	424.498	79.997	19.997	100.741	19.188	77.875	0.486
706.500	424.812	79.996	19.996	100.742	19.186	77.961	0.482
707.000	425.033	79.997	19.996	100.742	19.183	78.216	0.511
707.500	425.292	79.996	19.996	100.742	19.169	79.231	0.508
708.000	425.570	79.996	19.996	100.742	19.167	79.331	0.508
708.500	425.725	79.997	19.996	100.741	19.159	79.937	0.485
709.000	425.980	79.996	19.996	100.741	19.154	80.292	0.421
709.500	426.235	79.996	19.996	100.741	19.149	80.617	0.460
710.000	426.464	79.997	19.997	100.741	19.147	80.783	0.497
710.500	426.733	79.998	19.996	100.741	19.135	81.637	0.491
711.000	426.914	79.995	19.996	100.741	19.129	82.032	0.474
711.500	427.200	79.996	19.994	100.740	19.123	82.510	0.459
712.000	427.450	79.996	19.996	100.740	19.117	82.885	0.502
712.500	427.679	79.995	19.996	100.740	19.111	83.384	0.507
713.000	427.914	79.996	19.996	100.740	19.104	83.866	0.472
713.500	428.161	79.998	19.996	100.739	19.100	84.112	0.473
714.000	428.405	79.997	19.996	100.739	19.093	84.612	0.486
714.500	428.682	79.996	19.996	100.739	19.088	85.016	0.506
715.000	428.869	79.998	19.996	100.738	19.079	85.631	0.493
715.500	429.114	79.997	19.997	100.735	19.074	85.986	0.448
716.000	429.345	79.997	19.996	100.734	19.066	86.563	0.454
716.500	429.600	79.997	19.996	100.734	19.064	86.745	0.481
717.000	429.860	79.997	19.996	100.734	19.054	87.433	0.501
717.500	430.104	79.997	19.997	100.733	19.046	88.015	0.510
718.000	430.331	79.997	19.996	100.732	19.037	88.675	0.488
718.500	430.601	79.996	19.995	100.734	19.033	88.941	0.484
719.000	430.808	79.997	19.996	100.731	19.027	89.355	0.487
719.500	431.054	79.996	19.995	100.727	19.019	89.983	0.465
720.000	431.290	79.996	19.995	100.722	19.010	90.560	0.468
720.500	431.560	79.997	19.995	100.718	19.008	90.722	0.494
721.000	431.788	79.996	19.995	100.710	19.001	91.208	0.502
721.500	432.057	79.997	19.995	100.708	18.990	92.031	0.498
722.000	432.291	79.996	19.995	100.707	18.984	92.442	0.500
722.500	432.564	79.996	19.996	100.706	18.977	92.953	0.505
723.000	432.804	79.996	19.995	100.707	18.971	93.388	0.510
723.500	433.046	79.996	19.996	100.708	18.962	94.051	0.498
724.000	433.298	79.995	19.996	100.708	18.954	94.572	0.488
724.500	433.578	79.996	19.995	100.707	18.948	95.043	0.513
725.000	433.803	79.995	19.997	100.706	18.945	95.244	0.519
725.500	434.065	79.995	19.997	100.706	18.935	95.972	0.496
726.000	434.306	79.996	19.996	100.704	18.924	96.728	0.495
726.500	434.551	79.997	19.995	100.702	18.918	97.193	0.494
727.000	434.823	79.996	19.997	100.703	18.908	97.915	0.501
727.500	435.079	79.996	19.997	100.703	18.901	98.417	0.523
728.000	435.321	79.996	19.995	100.703	18.903	98.284	0.514
728.500	435.565	79.996	19.997	100.705	18.887	99.369	0.492
729.000	435.788	79.995	19.997	100.706	18.882	99.742	0.476
729.500	436.032	79.998	19.997	100.704	18.871	100.564	0.467
730.000	436.307	79.996	19.996	100.704	18.868	100.747	0.493
730.500	436.589	79.997	19.996	100.705	18.861	101.235	0.538
731.000	436.825	79.996	19.997	100.704	18.847	102.228	0.537
731.500	437.055	79.997	19.996	100.704	18.840	102.760	0.492
732.000	437.295	79.996	19.997	100.703	18.832	103.348	0.468
732.500	437.538	79.998	19.996	100.703	18.826	103.736	0.477
733.000	437.824	79.999	19.997	100.699	18.815	104.509	0.506
733.500	438.067	79.998	19.996	100.699	18.807	105.082	0.529
734.000	438.308	79.997	19.996	100.698	18.800	105.634	0.507
734.500	438.578	79.997	19.997	100.697	18.793	106.118	0.497
735.000	438.803	79.997	19.997	100.697	18.783	106.808	0.503
735.500	439.064	79.999	19.996	100.697	18.773	107.540	0.490
736.000	439.322	79.999	19.996	100.697	18.765	108.141	0.502
736.500	439.609	79.997	19.996	100.697	18.757	108.707	0.532
737.000	439.848	79.998	19.996	100.697	18.750	109.182	0.536
737.500	440.091	79.999	19.997	100.695	18.745	109.575	0.504
738.000	440.363	79.999	19.998	100.692	18.734	110.364	0.498
738.500	440.587	79.997	19.997	100.691	18.727	110.863	0.506
739.000	440.820	79.998	19.996	100.686	18.715	111.722	0.477
739.500	441.090	79.998	19.996	100.681	18.707	112.254	0.480
740.000	441.363	79.998	19.996	100.680	18.695	113.095	0.523
740.500	441.573	79.996	19.996	100.678	18.688	113.634	0.514
741.000	441.862	79.998	19.996	100.673	18.680	114.186	0.491
741.500	442.088	79.999	19.996	100.672	18.672	114.770	0.507
742.000	442.328	79.998	19.997	100.669	18.664	115.381	0.491
742.500	442.589	79.997	19.997	100.664	18.652	116.171	0.483
743.000	442.882	79.997	19.997	100.663	18.639	117.115	0.527
743.500	443.158	79.997	19.996	100.662	18.635	117.386	0.562
744.000	443.395	79.998	19.997	100.660	18.623	118.270	0.541
744.500	443.650	79.997	19.996	100.659	18.613	119.008	0.502
745.000	443.889	79.998	19.995	100.659	18.603	119.673	0.493
745.500	444.179	79.998	19.997	100.658	18.596	120.225	0.512
746.000	444.446	79.997	19.997	100.658	18.587	120.851	0.543
746.500	444.684	79.996	19.995	100.658	18.579	121.455	0.531
747.000	444.984	79.998	19.997	100.657	18.572	121.935	0.522
747.500	445.213	79.997	19.996	100.658	18.562	122.635	0.534
748.000	445.482	79.998	19.997	100.658	18.554	123.224	0.513
748.500	445.719	79.998	19.996	100.659	18.544	123.901	0.502
749.000	445.970	79.997	19.996	100.659	18.536	124.490	0.497
749.500	446.220	79.997	19.995	100.657	18.528	125.052	0.494
750.000	446.466	79.997	19.995	100.653	18.518	125.770	0.499
750.500	446.728	79.997	19.996	100.651	18.514	126.101	0.503
751.000	447.011	79.997	19.996	100.651	18.500	127.045	0.526
751.500	447.241	79.997	19.995	100.649	18.493	127.566	0.529
752.000	447.501	79.998	19.996	100.649	18.482	128.364	0.502
752.500	447.768	79.996	19.996	100.648	18.477	128.691	0.509
753.000	448.031	79.999	19.996	100.647	18.464	129.653	0.528
753.500	448.282	79.998	19.996	100.641	18.453	130.404	0.521
754.000	448.571	79.997	19.995	100.635	18.445	131.020	0.527
754.500	448.806	79.998	19.997	100.631	18.438	131.504	0.532
755.000	449.079	79.999	19.996	100.631	18.429	132.180	0.516
755.500	449.355	79.998	19.994	100.629	18.423	132.590	0.529
756.000	449.597	79.999	19.996	100.631	18.415	133.138	0.534
756.500	449.877	79.999	19.996	100.634	18.404	133.948	0.520
757.000	450.110	79.998	19.996	100.633	18.398	134.310	0.518
757.500	450.324	79.998	19.996	100.632	18.389	134.972	0.480
758.000	450.615	80.000	19.996	100.628	18.385	135.286	0.476
758.500	450.869	79.999	19.997	100.624	18.373	136.147	0.525
759.000	451.117	79.998	19.996	100.621	18.366	136.643	0.523
759.500	451.391	79.999	19.994	100.621	18.361	136.992	0.512
760.000	451.652	79.998	19.996	100.621	18.354	137.459	0.528
760.500	451.882	79.999	19.995	100.621	18.347	137.989	0.513
761.000	452.176	79.999	19.995	100.621	18.339	138.568	0.508
761.500	452.444	80.001	19.995	100.620	18.329	139.274	0.544
762.000	452.706	79.999	19.996	100.617	18.326	139.473	0.546
762.500	452.973	80.000	19.995	100.610	18.315	140.252	0.529
763.000	453.231	79.999	19.995	100.609	18.308	140.804	0.527
763.500	453.483	79.999	19.994	100.609	18.304	141.038	0.518
764.000	453.765	79.999	19.995	100.610	18.294	141.770	0.522
764.500	454.048	80.000	19.996	100.613	18.291	141.981	0.549
765.000	454.290	79.998	19.995	100.619	18.280	142.809	0.544
765.500	454.598	79.999	19.996	100.617	18.278	142.951	0.537
766.000	454.819	80.000	19.995	100.615	18.270	143.491	0.540
766.500	455.119	80.000	19.995	100.610	18.264	143.889	0.526
767.000	455.355	80.000	19.995	100.603	18.255	144.517	0.529
767.500	455.595	79.998	19.996	100.596	18.254	144.626	0.505
768.000	455.866	79.999	19.995	100.591	18.245	145.245	0.494
768.500	456.168	79.998	19.995	100.586	18.238	145.729	0.542
769.000	456.407	79.998	19.995	100.583	18.233	146.088	0.557
769.500	456.665	80.000	19.995	100.583	18.233	146.075	0.519
770.000	456.922	79.999	19.996	100.583	18.225	146.709	0.506
770.500	457.192	79.998	19.995	100.584	18.218	147.208	0.521
771.000	457.455	79.998	19.997	100.584	18.211	147.673	0.530
771.500	457.709	79.998	19.997	100.584	18.209	147.815	0.525
772.000	457.980	79.997	19.995	100.583	18.207	147.982	0.521
772.500	458.287	79.997	19.995	100.581	18.199	148.535	0.552
773.000	458.534	79.998	19.995	100.581	18.197	148.707	0.566
773.500	458.799	79.997	19.996	100.581	18.197	148.682	0.533
774.000	459.080	79.998	19.995	100.580	18.190	149.168	0.529
774.500	459.362	79.996	19.996	100.578	18.186	149.505	0.555
775.000	459.604	79.996	19.995	100.580	18.184	149.627	0.544
775.500	459.854	79.997	19.996	100.579	18.179	149.952	0.509
776.000	460.137	79.997	19.997	100.578	18.178	150.044	0.513
776.500	460.395	79.998	19.996	100.576	18.171	150.565	0.537
777.000	460.682	79.996	19.997	100.571	18.171	150.569	0.543
777.500	460.916	79.997	19.995	100.564	18.165	150.971	0.533
778.000	461.197	79.998	19.995	100.557	18.164	151.023	0.518
778.500	461.443	79.996	19.996	100.551	18.161	151.258	0.521
779.000	461.701	79.997	19.996	100.547	18.161	151.266	0.515
779.500	461.995	79.997	19.996	100.546	18.156	151.595	0.528
780.000	462.258	79.997	19.996	100.546	18.158	151.452	0.554
780.500	462.496	79.997	19.996	100.548	18.157	151.524	0.529
781.000	462.779	79.997	19.995	100.548	18.155	151.666	0.511
781.500	463.076	79.997	19.995	100.548	18.155	151.677	0.551
782.000	463.346	79.996	19.993	100.547	18.154	151.735	0.574
782.500	463.560	79.997	19.994	100.547	18.152	151.860	0.525
783.000	463.853	79.996	19.996	100.545	18.154	151.748	0.495
783.500	464.082	79.998	19.996	100.546	18.152	151.845	0.515
784.000	464.377	79.997	19.996	100.547	18.152	151.868	0.524
784.500	464.610	79.997	19.994	100.548	18.154	151.745	0.526
785.000	464.858	79.998	19.996	100.548	18.152	151.826	0.504
785.500	465.146	79.997	19.995	100.548	18.157	151.465	0.508
786.000	465.425	79.998	19.995	100.546	18.157	151.486	0.551
786.500	465.674	79.997	19.996	100.546	18.158	151.422	0.548
787.000	465.959	79.998	19.994	100.544	18.162	151.142	0.531
787.500	466.245	79.997	19.995	100.544	18.163	151.093	0.552
788.000	466.481	79.997	19.995	100.544	18.169	150.664	0.546
788.500	466.754	79.997	19.995	100.541	18.174	150.320	0.515
789.000	467.023	79.997	19.994	100.540	18.177	150.070	0.526
789.500	467.260	79.997	19.995	100.539	18.184	149.596	0.524
790.000	467.554	79.997	19.996	100.537	18.183	149.672	0.518
790.500	467.786	79.997	19.995	100.537	18.188	149.257	0.529
791.000	468.062	79.997	19.996	100.540	18.194	148.867	0.517
791.500	468.331	79.997	19.995	100.539	18.199	148.466	0.526
792.000	468.568	79.997	19.996	100.541	18.207	147.918	0.525
792.500	468.830	79.998	19.995	100.543	18.212	147.528	0.503
793.000	469.088	79.997	19.995	100.539	18.218	147.172	0.510
793.500	469.370	79.997	19.996	100.535	18.226	146.593	0.530
794.000	469.676	79.997	19.996	100.533	18.233	146.040	0.564
794.500	469.898	79.996	19.996	100.529	18.244	145.242	0.557
795.000	470.170	79.997	19.996	100.521	18.251	144.759	0.511
795.500	470.449	79.997	19.996	100.517	18.258	144.249	0.523
796.000	470.675	79.997	19.996	100.514	18.271	143.318	0.528
796.500	470.943	79.997	19.996	100.511	18.280	142.741	0.500
797.000	471.179	79.997	19.996	100.509	18.291	141.945	0.499
797.500	471.460	79.997	19.997	100.510	18.299	141.400	0.511
798.000	471.686	79.998	19.995	100.512	18.311	140.481	0.512
798.500	471.981	79.997	19.995	100.516	18.323	139.627	0.514
799.000	472.240	79.995	19.997	100.521	18.335	138.787	0.538
799.500	472.498	79.996	19.997	100.525	18.348	137.873	0.536
800.000	472.778	79.997	19.996	100.525	18.362	136.841	0.528
800.500	473.006	79.995	19.996	100.523	18.374	136.003	0.523
801.000	473.251	79.996	19.996	100.520	18.386	135.175	0.490
801.500	473.539	79.997	19.996	100.516	18.404	133.832	0.503
802.000	473.778	79.996	19.996	100.512	18.417	132.933	0.530
802.500	474.091	79.996	19.997	100.514	18.433	131.805	0.540
803.000	474.364	79.997	19.996	100.515	18.451	130.492	0.569
803.500	474.642	79.996	19.997	100.515	18.470	129.099	0.568
804.000	474.889	79.996	19.996	100.520	18.483	128.185	0.538
804.500	475.150	79.995	19.996	100.521	18.504	126.691	0.517
805.000	475.386	79.996	19.996	100.521	18.523	125.342	0.503
805.500	475.656	79.996	19.996	100.519	18.542	123.998	0.502
806.000	475.872	79.996	19.996	100.518	18.559	122.771	0.496
806.500	476.200	79.996	19.996	100.518	18.581	121.167	0.515
807.000	476.432	79.997	19.996	100.522	18.600	119.841	0.552
807.500	476.695	79.996	19.997	100.526	18.617	118.604	0.527
808.000	476.929	79.996	19.995	100.533	18.641	116.899	0.496
808.500	477.209	79.997	19.997	100.540	18.661	115.484	0.506
809.000	477.450	79.996	19.996	100.542	18.682	113.978	0.517
809.500	477.704	79.998	19.996	100.542	18.704	112.395	0.508
810.000	477.997	79.998	19.996	100.543	18.726	110.809	0.521
810.500	478.221	79.998	19.996	100.543	18.748	109.230	0.532
811.000	478.494	79.997	19.996	100.545	18.770	107.687	0.507
811.500	478.771	79.997	19.998	100.546	18.792	106.107	0.524
812.000	479.025	79.998	19.996	100.546	18.814	104.483	0.541
812.500	479.299	79.998	19.995	100.547	18.838	102.794	0.529
813.000	479.550	79.998	19.996	100.550	18.865	100.848	0.527
813.500	479.812	79.998	19.996	100.550	18.884	99.489	0.519
814.000	480.052	79.998	19.997	100.550	18.908	97.804	0.507
814.500	480.318	79.998	19.995	100.551	18.936	95.783	0.504
815.000	480.582	79.998	19.995	100.551	18.961	93.995	0.518
815.500	480.833	79.998	19.997	100.548	18.985	92.270	0.523
816.000	481.154	79.999	19.995	100.548	19.015	90.165	0.544
816.500	481.364	80.000	19.996	100.554	19.040	88.345	0.551
817.000	481.636	80.000	19.996	100.558	19.070	86.219	0.506
817.500	481.917	79.999	19.997	100.564	19.095	84.446	0.517
818.000	482.189	79.999	19.996	100.571	19.124	82.349	0.553
818.500	482.428	79.999	19.997	100.574	19.153	80.322	0.533
819.000	482.676	79.999	19.996	100.576	19.181	78.323	0.499
819.500	482.961	80.000	19.997	100.576	19.209	76.288	0.510
820.000	483.245	79.997	19.997	100.574	19.242	73.946	0.550
820.500	483.471	79.999	19.997	100.572	19.271	71.827	0.539
821.000	483.776	79.999	19.996	100.572	19.298	69.926	0.521
821.500	484.005	79.998	19.996	100.568	19.328	67.770	0.533
822.000	484.250	79.998	19.996	100.569	19.361	65.406	0.504
822.500	484.494	79.998	19.997	100.571	19.394	63.043	0.482
823.000	484.774	79.998	19.997	100.574	19.421	61.136	0.507
823.500	485.071	79.997	19.995	100.575	19.454	58.773	0.550
824.000	485.329	79.997	19.996	100.579	19.484	56.579	0.566
824.500	485.588	79.998	19.997	100.580	19.515	54.413	0.536
825.000	485.826	79.997	19.996	100.581	19.544	52.285	0.507
825.500	486.101	79.997	19.997	100.587	19.578	49.866	0.505
826.000	486.361	79.998	19.997	100.595	19.606	47.893	0.524
826.500	486.628	79.997	19.996	100.603	19.639	45.505	0.531
827.000	486.904	79.998	19.997	100.612	19.669	43.379	0.535
827.500	487.133	79.996	19.996	100.619	19.694	41.571	0.524
828.000	487.401	79.997	19.998	100.626	19.725	39.356	0.501
828.500	487.652	79.997	19.997	100.632	19.752	37.390	0.508
829.000	487.887	79.997	19.997	100.641	19.775	35.715	0.502
829.500	488.189	79.999	19.997	100.649	19.804	33.627	0.511
830.000	488.429	79.999	19.995	100.661	19.827	32.007	0.539
830.500	488.688	79.998	19.995	100.670	19.851	30.275	0.521
831.000	488.929	79.997	19.997	100.680	19.873	28.703	0.500
831.500	489.233	79.997	19.997	100.687	19.893	27.302	0.522
832.000	489.507	79.998	19.996	100.696	19.917	25.529	0.561
832.500	489.732	79.998	19.997	100.702	19.937	24.148	0.539
833.000	490.020	79.998	19.996	100.706	19.958	22.614	0.506
833.500	490.262	79.998	19.996	100.713	19.974	21.434	0.521
834.000	490.543	79.998	19.996	100.721	19.991	20.271	0.526
834.500	490.814	79.998	19.997	100.727	20.008	19.032	0.538
835.000	491.049	79.999	19.997	100.734	20.023	17.936	0.529
835.500	491.307	79.998	19.996	100.742	20.041	16.663	0.499
836.000	491.576	79.999	19.995	100.752	20.051	15.938	0.510
836.500	491.805	79.998	19.996	100.756	20.067	14.816	0.513
837.000	492.037	79.998	19.996	100.762	20.077	14.056	0.480
837.500	492.349	79.998	19.995	100.766	20.086	13.386	0.502
838.000	492.620	80.000	19.995	100.767	20.097	12.657	0.563
838.500	492.814	80.000	19.995	100.764	20.107	11.881	0.524
839.000	493.135	79.999	19.995	100.767	20.115	11.359	0.490
839.500	493.336	79.999	19.995	100.767	20.124	10.714	0.518
840.000	493.598	80.001	19.995	100.771	20.131	10.212	0.492
840.500	493.873	79.999	19.995	100.775	20.137	9.786	0.500
841.000	494.129	80.001	19.995	100.776	20.145	9.164	0.534
841.500	494.365	80.000	19.995	100.774	20.151	8.762	0.512
842.000	494.625	79.998	19.996	100.776	20.155	8.455	0.494
842.500	494.903	80.000	19.994	100.776	20.163	7.912	0.517
843.000	495.140	80.000	19.996	100.776	20.166	7.701	0.527
843.500	495.438	80.000	19.995	100.778	20.173	7.193	0.525
844.000	495.672	79.999	19.994	100.781	20.175	7.051	0.533
844.500	495.936	79.999	19.995	100.781	20.177	6.851	0.515
845.000	496.177	80.000	19.995	100.781	20.180	6.644	0.501
845.500	496.442	79.999	19.995	100.781	20.180	6.654	0.505
846.000	496.718	79.999	19.994	100.781	20.187	6.163	0.524
846.500	496.964	80.000	19.993	100.781	20.192	5.807	0.531
847.000	497.218	79.998	19.996	100.782	20.192	5.795	0.510
847.500	497.477	79.998	19.995	100.782	20.196	5.496	0.507
848.000	497.719	79.998	19.995	100.782	20.195	5.596	0.508
848.500	497.999	79.997	19.996	100.782	20.197	5.453	0.511
849.000	498.256	79.998	19.995	100.781	20.201	5.160	0.529
849.500	498.523	79.998	19.995	100.781	20.200	5.201	0.531
850.000	498.784	79.999	19.995	100.782	20.201	5.162	0.526
850.500	499.046	79.996	19.996	100.782	20.206	4.830	0.525
851.000	499.262	79.996	19.996	100.782	20.203	5.007	0.501
851.500	499.540	79.996	19.995	100.783	20.207	4.712	0.486
852.000	499.781	79.996	19.996	100.784	20.209	4.574	0.506
852.500	500.037	79.998	19.995	100.784	20.209	4.562	0.508
853.000	500.303	79.997	19.996	100.787	20.210	4.537	0.509
853.500	500.553	79.996	19.996	100.787	20.211	4.453	0.519
854.000	500.806	79.996	19.996	100.790	20.211	4.441	0.510
854.500	501.029	79.998	19.997	100.793	20.212	4.349	0.490
855.000	501.291	79.998	19.995	100.796	20.214	4.203	0.481
855.500	501.572	79.996	19.995	100.797	20.214	4.242	0.514
856.000	501.814	79.997	19.995	100.798	20.214	4.206	0.533
856.500	502.095	79.997	19.996	100.794	20.215	4.142	0.523
857.000	502.333	79.995	19.996	100.791	20.218	3.939	0.521
857.500	502.602	79.996	19.995	100.787	20.215	4.191	0.513
858.000	502.859	79.998	19.996	100.787	20.217	4.007	0.517
858.500	503.101	79.997	19.996	100.787	20.219	3.861	0.512
859.000	503.348	79.996	19.996	100.787	20.217	4.043	0.493
859.500	503.608	79.996	19.996	100.788	20.220	3.779	0.498
860.000	503.851	79.995	19.996	100.789	20.217	4.033	0.506
860.500	504.118	79.996	19.996	100.785	20.219	3.839	0.506
861.000	504.403	79.997	19.996	100.785	20.220	3.771	0.531
861.500	504.635	79.996	19.995	100.787	20.217	4.025	0.535
862.000	504.893	79.995	19.997	100.788	20.216	4.082	0.504
862.500	505.129	79.996	19.996	100.789	20.218	3.965	0.492
863.000	505.381	79.997	19.997	100.791	20.219	3.857	0.492
863.500	505.672	79.998	19.995	100.789	20.219	3.844	0.515
864.000	505.917	79.998	19.996	100.790	20.221	3.709	0.539
864.500	506.164	79.998	19.995	100.791	20.221	3.750	0.514
865.000	506.392	79.998	19.997	100.793	20.222	3.662	0.483
865.500	506.668	79.998	19.996	100.794	20.218	3.945	0.489
866.000	506.913	79.998	19.996	100.795	20.219	3.892	0.512
866.500	507.186	79.997	19.997	100.794	20.222	3.654	0.520
867.000	507.451	79.999	19.998	100.789	20.222	3.644	0.528
867.500	507.654	79.998	19.996	100.788	20.221	3.714	0.503
868.000	507.929	79.998	19.995	100.791	20.223	3.583	0.473
868.500	508.183	79.998	19.996	100.794	20.220	3.773	0.504
869.000	508.452	79.997	19.996	100.796	20.223	3.612	0.526
869.500	508.717	79.999	19.995	100.801	20.221	3.718	0.528
870.000	508.997	79.999	19.996	100.802	20.222	3.658	0.539
870.500	509.234	79.998	19.996	100.802	20.220	3.797	0.531
871.000	509.502	79.997	19.996	100.804	20.222	3.662	0.511
871.500	509.755	79.997	19.995	100.805	20.221	3.732	0.513
872.000	509.996	79.998	19.996	100.806	20.220	3.785	0.508
872.500	510.245	79.997	19.995	100.808	20.221	3.761	0.492
873.000	510.479	79.997	19.996	100.808	20.225	3.460	0.487
873.500	510.748	79.998	19.996	100.808	20.223	3.619	0.493
874.000	510.989	79.997	19.996	100.812	20.223	3.601	0.506
874.500	511.267	79.997	19.995	100.813	20.221	3.755	0.515
875.000	511.496	79.996	19.995	100.814	20.223	3.560	0.513
875.500	511.720	79.997	19.995	100.816	20.223	3.613	0.480
876.000	511.989	79.996	19.995	100.815	20.227	3.304	0.473
876.500	512.257	79.997	19.995	100.813	20.222	3.659	0.515
877.000	512.486	79.998	19.996	100.809	20.222	3.663	0.517
877.500	512.772	79.999	19.997	100.807	20.224	3.507	0.506
878.000	513.006	79.997	19.995	100.801	20.223	3.607	0.518
878.500	513.272	79.999	19.997	100.797	20.221	3.732	0.510
879.000	513.552	79.997	19.997	100.797	20.223	3.587	0.523
879.500	513.778	79.997	19.995	100.799	20.222	3.671	0.526
880.000	514.027	79.997	19.995	100.801	20.222	3.663	0.491
880.500	514.305	79.997	19.997	100.807	20.222	3.669	0.501
881.000	514.563	79.997	19.996	100.811	20.220	3.822	0.531
881.500	514.826	79.997	19.996	100.813	20.221	3.714	0.528
882.000	515.085	79.998	19.995	100.816	20.219	3.881	0.521
882.500	515.348	79.996	19.996	100.815	20.221	3.750	0.522
883.000	515.582	79.997	19.996	100.814	20.220	3.828	0.510
883.500	515.827	79.996	19.995	100.811	20.223	3.556	0.488
884.000	516.100	79.996	19.997	100.809	20.221	3.756	0.498
884.500	516.363	79.997	19.996	100.807	20.220	3.822	0.527
885.000	516.613	79.996	19.996	100.804	20.222	3.663	0.524
885.500	516.873	79.997	19.996	100.804	20.220	3.788	0.511
886.000	517.132	79.996	19.997	100.806	20.220	3.825	0.515
886.500	517.382	79.996	19.995	100.804	20.221	3.706	0.514
887.000	517.638	79.996	19.996	100.799	20.222	3.683	0.507
887.500	517.881	79.996	19.996	100.798	20.220	3.777	0.503
888.000	518.125	79.996	19.998	100.797	20.222	3.664	0.493
888.500	518.372	79.997	19.997	100.797	20.223	3.580	0.489
889.000	518.609	79.996	19.996	100.800	20.224	3.503	0.487
889.500	518.910	79.997	19.996	100.803	20.224	3.509	0.511
890.000	519.147	79.997	19.996	100.805	20.226	3.382	0.539
890.500	519.399	79.997	19.997	100.803	20.223	3.591	0.513
891.000	519.628	79.998	19.997	100.805	20.226	3.384	0.485
891.500	519.904	79.996	19.995	100.807	20.225	3.476	0.493
892.000	520.170	79.996	19.995	100.807	20.223	3.593	0.524
892.500	520.400	79.997	19.996	100.807	20.225	3.449	0.519
893.000	520.665	79.997	19.995	100.810	20.223	3.576	0.495
893.500	520.899	79.997	19.995	100.810	20.226	3.347	0.497
894.000	521.184	79.997	19.996	100.810	20.225	3.455	0.510
894.500	521.442	79.998	19.996	100.812	20.227	3.320	0.531
895.000	521.660	79.998	19.997	100.815	20.223	3.554	0.509
895.500	521.910	79.998	19.997	100.809	20.229	3.136	0.472
896.000	522.174	79.998	19.996	100.802	20.226	3.345	0.491
896.500	522.431	79.998	19.995	100.801	20.224	3.519	0.517
897.000	522.679	79.998	19.996	100.798	20.225	3.413	0.513
897.500	522.938	79.997	19.995	100.796	20.227	3.317	0.506
898.000	523.192	79.998	19.995	100.803	20.225	3.419	0.510
898.500	523.443	79.998	19.996	100.809	20.225	3.446	0.509
899.000	523.721	80.000	19.995	100.812	20.228	3.213	0.517
899.500	523.961	79.999	19.994	100.815	20.223	3.589	0.524
900.000	524.212	79.998	19.996	100.815	20.225	3.419	0.505
900.500	524.474	79.997	19.995	100.810	20.225	3.450	0.502
901.000	524.754	79.998	19.995	100.806	20.227	3.260	0.527
901.500	524.961	79.997	19.994	100.800	20.225	3.407	0.515
902.000	525.242	79.998	19.994	100.799	20.226	3.389	0.488
902.500	525.488	79.998	19.995	100.799	20.227	3.323	0.507
903.000	525.764	79.998	19.995	100.803	20.226	3.335	0.525
903.500	526.034	79.997	19.998	100.809	20.224	3.544	0.534
904.000	526.297	79.997	19.996	100.813	20.223	3.589	0.540
904.500	526.551	79.996	19.996	100.815	20.227	3.263	0.525
905.000	526.773	79.996	19.996	100.817	20.227	3.329	0.496
905.500	527.027	79.997	19.997	100.817	20.226	3.396	0.476
906.000	527.314	79.997	19.995	100.815	20.228	3.222	0.508
906.500	527.598	79.996	19.995	100.816	20.226	3.357	0.556
907.000	527.826	79.997	19.995	100.815	20.224	3.542	0.542
907.500	528.086	79.997	19.995	100.812	20.227	3.278	0.500
908.000	528.328	79.996	19.996	100.806	20.226	3.378	0.495
908.500	528.599	79.996	19.995	100.803	20.228	3.216	0.507
909.000	528.868	79.997	19.994	100.797	20.230	3.099	0.526
909.500	529.079	79.996	19.997	100.794	20.224	3.490	0.510
910.000	529.380	79.996	19.994	100.791	20.227	3.306	0.496
910.500	529.587	79.998	19.996	100.791	20.229	3.161	0.510
911.000	529.866	79.996	19.995	100.789	20.225	3.449	0.497
911.500	530.136	79.997	19.996	100.790	20.227	3.284	0.518
912.000	530.407	79.996	19.997	100.788	20.224	3.511	0.545
912.500	530.599	79.996	19.996	100.791	20.227	3.291	0.502
913.000	530.893	79.996	19.996	100.797	20.227	3.295	0.474
913.500	531.180	79.997	19.995	100.802	20.229	3.141	0.533
914.000	531.424	79.996	19.996	100.808	20.231	3.039	0.556
914.500	531.654	79.997	19.997	100.811	20.228	3.251	0.502
915.000	531.959	79.998	19.996	100.810	20.226	3.349	0.504
915.500	532.189	79.997	19.995	100.810	20.229	3.137	0.535
916.000	532.448	79.996	19.996	100.812	20.231	3.044	0.512
916.500	532.695	79.998	19.996	100.813	20.230	3.063	0.498
917.000	532.909	79.998	19.996	100.812	20.229	3.186	0.484
917.500	533.211	79.997	19.996	100.810	20.227	3.270	0.489
918.000	533.479	79.997	19.996	100.808	20.228	3.217	0.543
918.500	533.691	79.998	19.997	100.805	20.228	3.243	0.524
919.000	533.990	79.998	19.995	100.805	20.225	3.411	0.495
919.500	534.231	79.999	19.996	100.807	20.226	3.376	0.526
920.000	534.533	79.999	19.996	100.811	20.228	3.202	0.542
920.500	534.767	79.999	19.997	100.811	20.227	3.290	0.539
921.000	535.010	79.998	19.998	100.814	20.226	3.372	0.506
921.500	535.244	79.999	19.996	100.811	20.227	3.321	0.477
922.000	535.546	79.999	19.995	100.809	20.226	3.384	0.507
922.500	535.811	79.999	19.997	100.804	20.229	3.182	0.551
923.000	536.091	80.000	19.996	100.797	20.227	3.262	0.556
923.500	536.337	79.999	19.996	100.789	20.228	3.249	0.536
924.000	536.567	79.998	19.997	100.785	20.228	3.229	0.501
924.500	536.857	79.997	19.996	100.784	20.226	3.335	0.498
925.000	537.069	79.999	19.996	100.790	20.224	3.505	0.511
925.500	537.342	80.000	19.996	100.797	20.227	3.280	0.493
926.000	537.597	79.999	19.995	100.801	20.224	3.492	0.507
926.500	537.889	79.998	19.996	100.801	20.228	3.247	0.537
927.000	538.133	79.999	19.995	100.800	20.227	3.317	0.541
927.500	538.355	79.998	19.995	100.798	20.227	3.274	0.501
928.000	538.639	79.998	19.995	100.794	20.226	3.386	0.486
928.500	538.897	79.998	19.996	100.793	20.228	3.227	0.524
929.000	539.145	79.997	19.995	100.796	20.229	3.140	0.524
929.500	539.402	79.997	19.995	100.795	20.229	3.151	0.506
930.000	539.655	79.998	19.997	100.795	20.229	3.122	0.507
930.500	539.965	79.996	19.996	100.800	20.227	3.329	0.536
931.000	540.204	79.996	19.996	100.804	20.229	3.167	0.556
931.500	540.438	79.997	19.995	100.807	20.231	2.995	0.512
932.000	540.697	79.998	19.996	100.812	20.230	3.053	0.483
932.500	540.961	79.996	19.995	100.810	20.224	3.511	0.508
933.000	541.221	79.997	19.995	100.803	20.226	3.368	0.524
933.500	541.458	79.998	19.996	100.798	20.223	3.562	0.511
934.000	541.722	79.998	19.996	100.796	20.225	3.431	0.499
934.500	541.970	79.997	19.997	100.796	20.226	3.386	0.506
935.000	542.225	79.997	19.997	100.800	20.223	3.578	0.507
935.500	542.490	79.996	19.995	100.807	20.225	3.406	0.511
936.000	542.752	79.998	19.997	100.811	20.227	3.273	0.523
936.500	543.027	79.998	19.994	100.809	20.229	3.145	0.532
937.000	543.283	79.997	19.995	100.808	20.227	3.273	0.534
937.500	543.520	79.997	19.996	100.806	20.224	3.493	0.512
938.000	543.755	79.998	19.995	100.805	20.226	3.401	0.483
938.500	544.026	79.998	19.995	100.806	20.226	3.396	0.489
939.000	544.259	79.998	19.996	100.809	20.226	3.384	0.506
939.500	544.488	79.999	19.996	100.805	20.226	3.337	0.483
940.000	544.770	79.997	19.995	100.806	20.224	3.537	0.486
940.500	545.043	79.997	19.996	100.807	20.225	3.451	0.533
941.000	545.309	79.998	19.996	100.802	20.226	3.388	0.548
941.500	545.562	79.998	19.996	100.799	20.226	3.376	0.529
942.000	545.817	79.998	19.995	100.802	20.228	3.257	0.513
942.500	546.075	79.999	19.995	100.803	20.226	3.386	0.510
943.000	546.308	79.998	19.997	100.799	20.224	3.480	0.502
943.500	546.543	79.998	19.995	100.804	20.225	3.417	0.480
944.000	546.832	79.998	19.997	100.806	20.225	3.462	0.496
944.500	547.122	79.996	19.997	100.808	20.227	3.317	0.551
945.000	547.363	79.998	19.995	100.810	20.225	3.413	0.555
945.500	547.592	79.997	19.997	100.813	20.227	3.264	0.501
946.000	547.861	79.997	19.997	100.814	20.225	3.476	0.484
946.500	548.108	79.997	19.997	100.814	20.227	3.323	0.507
947.000	548.361	79.998	19.996	100.809	20.223	3.601	0.508
947.500	548.626	79.998	19.996	100.808	20.223	3.574	0.509
948.000	548.862	79.997	19.996	100.807	20.223	3.564	0.509
948.500	549.117	79.997	19.996	100.806	20.224	3.499	0.496
949.000	549.388	79.998	19.996	100.805	20.224	3.488	0.508
949.500	549.633	79.997	19.995	100.812	20.226	3.376	0.521
950.000	549.910	79.997	19.997	100.811	20.224	3.494	0.520
950.500	550.149	79.997	19.995	100.812	20.223	3.577	0.519
951.000	550.421	79.999	19.996	100.812	20.224	3.538	0.513
951.500	550.645	79.996	19.996	100.811	20.228	3.243	0.503
952.000	550.921	79.997	19.996	100.808	20.227	3.304	0.498
952.500	551.158	79.998	19.996	100.803	20.223	3.576	0.506
953.000	551.391	79.997	19.995	100.802	20.223	3.617	0.491
953.500	551.672	79.998	19.998	100.802	20.222	3.672	0.492
954.000	551.927	79.996	19.996	100.806	20.226	3.333	0.525
954.500	552.149	79.998	19.995	100.805	20.228	3.245	0.506
955.000	552.421	79.996	19.995	100.804	20.221	3.711	0.485
955.500	552.690	79.997	19.995	100.802	20.227	3.300	0.518
956.000	552.928	79.997	19.996	100.797	20.222	3.648	0.525
956.500	553.203	79.998	19.995	100.796	20.226	3.333	0.510
957.000	553.415	79.997	19.996	100.800	20.225	3.423	0.500
957.500	553.700	79.996	19.996	100.807	20.226	3.388	0.492
958.000	553.998	79.997	19.996	100.806	20.225	3.410	0.540
958.500	554.235	79.997	19.996	100.809	20.228	3.230	0.559
959.000	554.476	79.996	19.996	100.810	20.228	3.246	0.506
959.500	554.754	79.997	19.995	100.810	20.224	3.496	0.498
960.000	555.021	79.997	19.995	100.809	20.225	3.439	0.532
960.500	555.249	79.997	19.996	100.812	20.227	3.290	0.520
961.000	555.513	79.997	19.996	100.813	20.226	3.401	0.494
961.500	555.771	79.997	19.996	100.806	20.232	2.969	0.507
962.000	556.020	79.997	19.995	100.805	20.229	3.174	0.515
962.500	556.267	79.996	19.996	100.806	20.227	3.313	0.502
963.000	556.553	79.997	19.997	100.809	20.225	3.456	0.514
963.500	556.764	79.997	19.996	100.811	20.225	3.415	0.515
964.000	557.028	79.997	19.997	100.818	20.225	3.435	0.486
964.500	557.266	79.996	19.997	100.817	20.226	3.370	0.489
965.000	557.524	79.996	19.995	100.813	20.228	3.257	0.499
965.500	557.798	79.997	19.996	100.812	20.228	3.255	0.514
966.000	558.054	79.999	19.997	100.812	20.228	3.233	0.531
966.500	558.300	79.997	19.996	100.807	20.226	3.396	0.516
967.000	558.541	79.996	19.996	100.808	20.225	3.405	0.495
967.500	558.825	79.995	19.995	100.813	20.230	3.108	0.507
968.000	559.108	79.998	19.996	100.813	20.226	3.349	0.546
968.500	559.350	79.997	19.996	100.813	20.229	3.153	0.546
969.000	559.575	79.998	19.995	100.818	20.228	3.193	0.496
969.500	559.850	79.998	19.996	100.820	20.227	3.261	0.483
970.000	560.121	79.996	19.996	100.819	20.227	3.267	0.523
970.500	560.333	79.999	19.994	100.818	20.226	3.349	0.515
971.000	560.622	79.997	19.996	100.811	20.224	3.544	0.492
971.500	560.885	79.999	19.995	100.804	20.224	3.537	0.527
972.000	561.143	79.998	19.995	100.798	20.225	3.414	0.536
972.500	561.414	79.997	19.997	100.795	20.226	3.400	0.525
973.000	561.678	79.999	19.996	100.793	20.224	3.490	0.532
973.500	561.929	79.997	19.996	100.795	20.224	3.511	0.525
974.000	562.172	79.998	19.995	100.799	20.226	3.404	0.504
974.500	562.416	79.998	19.995	100.804	20.227	3.292	0.491
975.000	562.667	79.999	19.995	100.808	20.227	3.271	0.491
975.500	562.932	79.997	19.996	100.811	20.224	3.480	0.506
976.000	563.188	79.997	19.996	100.815	20.231	3.019	0.519
976.500	563.450	79.998	19.997	100.815	20.224	3.500	0.520
977.000	563.694	79.997	19.995	100.810	20.227	3.292	0.512
977.500	563.944	79.999	19.996	100.804	20.227	3.265	0.500
978.000	564.169	79.999	19.996	100.803	20.229	3.136	0.485
978.500	564.442	79.997	19.997	100.802	20.226	3.366	0.487
979.000	564.680	79.999	19.997	100.804	20.227	3.292	0.504
979.500	564.977	79.998	19.997	100.810	20.226	3.391	0.522
980.000	565.197	79.997	19.996	100.814	20.228	3.239	0.526
980.500	565.448	79.997	19.996	100.815	20.228	3.224	0.495
981.000	565.713	79.998	19.995	100.815	20.226	3.366	0.494
981.500	565.958	79.999	19.997	100.815	20.226	3.337	0.513
982.000	566.222	79.998	19.996	100.814	20.229	3.124	0.509
982.500	566.462	79.999	19.997	100.815	20.229	3.187	0.507
983.000	566.756	79.998	19.996	100.815	20.228	3.236	0.519
983.500	566.969	79.999	19.997	100.816	20.225	3.443	0.520
984.000	567.223	79.998	19.996	100.816	20.228	3.241	0.487
984.500	567.501	79.999	19.997	100.816	20.230	3.087	0.500
985.000	567.709	79.998	19.996	100.813	20.226	3.360	0.509
985.500	567.984	79.998	19.995	100.813	20.226	3.355	0.485
986.000	568.239	79.998	19.996	100.812	20.229	3.124	0.506
986.500	568.493	79.997	19.997	100.812	20.225	3.433	0.520
987.000	568.745	79.996	19.996	100.813	20.225	3.456	0.508
987.500	568.992	79.998	19.995	100.816	20.228	3.200	0.502
988.000	569.266	79.998	19.995	100.813	20.229	3.155	0.510
988.500	569.520	79.998	19.996	100.810	20.227	3.298	0.525
989.000	569.744	79.997	19.996	100.807	20.227	3.267	0.503
989.500	570.009	79.998	19.996	100.804	20.226	3.366	0.483
990.000	570.278	79.998	19.997	100.800	20.226	3.339	0.511
990.500	570.544	79.999	19.997	100.797	20.224	3.537	0.534
991.000	570.778	79.998	19.997	100.799	20.226	3.372	0.517
991.500	571.020	79.998	19.996	100.803	20.229	3.179	0.488
992.000	571.286	79.998	19.995	100.806	20.229	3.189	0.492
992.500	571.540	79.998	19.995	100.810	20.227	3.331	0.514
993.000	571.788	79.999	19.995	100.815	20.227	3.288	0.511
993.500	572.030	79.998	19.995	100.813	20.228	3.202	0.496
994.000	572.288	79.998	19.995	100.812	20.229	3.173	0.494
994.500	572.552	79.999	19.996	100.812	20.228	3.231	0.511
995.000	572.803	79.999	19.995	100.806	20.228	3.237	0.519
995.500	573.057	79.999	19.995	100.806	20.226	3.393	0.510
996.000	573.320	79.998	19.996	100.807	20.227	3.264	0.511
996.500	573.549	79.998	19.996	100.805	20.230	3.086	0.504
997.000	573.843	80.000	19.995	100.803	20.230	3.106	0.507
997.500	574.115	79.998	19.997	100.808	20.228	3.225	0.544
998.000	574.338	80.000	19.996	100.806	20.228	3.233	0.531
998.500	574.632	79.998	19.995	100.802	20.230	3.098	0.506
999.000	574.861	79.998	19.995	100.802	20.227	3.325	0.520
999.500	575.165	80.000	19.996	100.804	20.229	3.147	0.528
1000.000	575.385	80.000	19.995	100.804	20.231	3.001	0.528
1000.500	575.653	79.998	19.996	100.806	20.229	3.159	0.506
1001.000	575.905	79.998	19.996	100.810	20.227	3.281	0.504
1001.500	576.144	80.000	19.996	100.813	20.226	3.386	0.506
1002.000	576.412	79.998	19.996	100.814	20.229	3.122	0.499
1002.500	576.701	80.000	19.995	100.814	20.226	3.389	0.532
1003.000	576.912	79.999	19.996	100.813	20.224	3.489	0.528
1003.500	577.162	80.000	19.995	100.810	20.227	3.278	0.480
1004.000	577.413	79.998	19.996	100.809	20.225	3.440	0.481
1004.500	577.665	79.999	19.996	100.810	20.227	3.271	0.502
1005.000	577.904	79.998	19.997	100.809	20.226	3.372	0.497
1005.500	578.190	79.997	19.997	100.804	20.227	3.322	0.508
1006.000	578.445	79.998	19.997	100.801	20.229	3.157	0.533
1006.500	578.703	79.997	19.998	100.798	20.230	3.087	0.527
1007.000	578.945	79.997	19.997	100.798	20.227	3.286	0.506
1007.500	579.220	79.996	19.997	100.797	20.229	3.179	0.509
1008.000	579.460	79.997	19.996	100.802	20.226	3.396	0.516
1008.500	579.733	79.996	19.996	100.801	20.230	3.091	0.514
1009.000	579.986	79.997	19.997	100.802	20.227	3.302	0.520
1009.500	580.240	79.996	19.996	100.802	20.228	3.230	0.517
1010.000	580.511	79.995	19.997	100.804	20.227	3.304	0.516
1010.500	580.781	79.997	19.997	100.804	20.227	3.326	0.533
1011.000	580.989	79.996	19.996	100.812	20.227	3.310	0.509
1011.500	581.241	79.996	19.997	100.814	20.224	3.543	0.469
1012.000	581.532	79.997	19.996	100.814	20.227	3.312	0.502
1012.500	581.789	79.997	19.996	100.809	20.227	3.271	0.546
1013.000	582.052	79.996	19.997	100.804	20.228	3.230	0.534
1013.500	582.303	79.997	19.996	100.797	20.226	3.402	0.516
1014.000	582.541	79.997	19.997	100.796	20.231	3.042	0.501
1014.500	582.821	79.997	19.996	100.796	20.229	3.152	0.504
1015.000	583.077	79.996	19.996	100.800	20.226	3.367	0.527
1015.500	583.303	79.997	19.995	100.806	20.225	3.472	0.509
1016.000	583.553	79.997	19.995	100.812	20.229	3.158	0.479
1016.500	583.800	79.998	19.996	100.814	20.230	3.111	0.486
1017.000	584.043	79.996	19.996	100.812	20.228	3.248	0.493
1017.500	584.292	79.998	19.995	100.811	20.228	3.259	0.491
1018.000	584.555	79.997	19.997	100.811	20.227	3.310	0.502
1018.500	584.809	79.998	19.995	100.811	20.225	3.408	0.515
1019.000	585.084	79.997	19.995	100.812	20.231	3.042	0.523
1019.500	585.313	79.997	19.996	100.814	20.226	3.353	0.517
1020.000	585.610	79.996	19.995	100.817	20.226	3.390	0.514
1020.500	585.863	79.997	19.995	100.817	20.227	3.304	0.537
1021.000	586.077	79.996	19.995	100.818	20.227	3.279	0.508
1021.500	586.392	79.998	19.997	100.818	20.227	3.261	0.498
1022.000	586.616	79.996	19.996	100.818	20.229	3.144	0.535
1022.500	586.857	79.996	19.994	100.818	20.232	2.958	0.502
1023.000	587.123	79.995	19.997	100.818	20.230	3.060	0.486
1023.500	587.412	79.996	19.998	100.818	20.228	3.210	0.531
1024.000	587.640	79.996	19.997	100.819	20.230	3.060	0.536
1024.499	587.879	79.997	19.996	100.819	20.230	3.058	0.492
1024.999	588.126	79.996	19.996	100.819	20.230	3.093	0.477
1025.499	588.376	79.998	19.995	100.819	20.228	3.197	0.492
1025.999	588.634	79.996	19.995	100.819	20.229	3.156	0.502
1026.499	588.872	79.997	19.996	100.819	20.231	3.013	0.502
1026.999	589.157	79.998	19.996	100.821	20.229	3.189	0.510
1027.499	589.383	79.996	19.996	100.821	20.227	3.316	0.517
1028.000	589.667	79.996	19.996	100.822	20.226	3.396	0.511
1028.500	589.932	79.996	19.996	100.822	20.227	3.332	0.529
1028.999	590.170	79.996	19.996	100.821	20.227	3.263	0.526
1029.499	590.442	79.997	19.995	100.821	20.226	3.365	0.507
1029.999	590.682	79.998	19.996	100.820	20.229	3.122	0.511
1030.499	590.942	79.997	19.997	100.819	20.227	3.293	0.506
1030.999	591.164	79.998	19.996	100.819	20.228	3.236	0.491
1031.499	591.484	79.998	19.997	100.819	20.226	3.402	0.512
1031.999	591.707	79.996	19.997	100.819	20.229	3.138	0.543
1032.499	591.988	79.997	19.996	100.819	20.229	3.173	0.524
1032.999	592.218	79.997	19.996	100.819	20.225	3.422	0.507
1033.499	592.472	79.997	19.996	100.819	20.224	3.500	0.497
1033.999	592.709	79.996	19.996	100.819	20.224	3.514	0.488
1034.499	592.977	79.997	19.997	100.819	20.223	3.549	0.498
1034.999	593.244	79.996	19.996	100.819	20.221	3.694	0.520
1035.499	593.487	79.995	19.996	100.820	20.226	3.404	0.522
1035.999	593.687	79.997	19.996	100.820	20.221	3.723	0.476
1036.500	593.973	79.997	19.996	100.821	20.222	3.625	0.465
1037.000	594.249	79.995	19.996	100.820	20.225	3.435	0.524
1037.499	594.504	79.997	19.995	100.821	20.224	3.519	0.546
1037.999	594.767	79.997	19.996	100.821	20.224	3.490	0.525
1038.499	595.037	79.997	19.996	100.821	20.225	3.447	0.526
1038.999	595.288	79.996	19.995	100.821	20.226	3.353	0.527
1039.499	595.530	79.994	19.996	100.821	20.221	3.701	0.507
1040.000	595.771	79.997	19.997	100.821	20.224	3.488	0.488
1040.500	596.042	79.996	19.996	100.821	20.223	3.598	0.498
1040.999	596.274	79.995	19.995	100.821	20.225	3.437	0.508
1041.499	596.517	79.996	19.996	100.822	20.224	3.519	0.489
1041.999	596.759	79.996	19.996	100.821	20.225	3.433	0.480
1042.499	597.035	79.996	19.996	100.820	20.225	3.467	0.501
1042.999	597.294	79.995	19.995	100.818	20.224	3.531	0.527
1043.499	597.532	79.996	19.997	100.819	20.221	3.750	0.516
1043.999	597.812	79.995	19.997	100.821	20.224	3.480	0.507
1044.499	598.056	79.995	19.995	100.824	20.223	3.570	0.521
1044.999	598.326	79.996	19.998	100.828	20.223	3.604	0.519
1045.499	598.549	79.996	19.998	100.829	20.220	3.801	0.503
1045.999	598.796	79.996	19.996	100.829	20.222	3.664	0.482
1046.499	599.076	79.997	19.996	100.827	20.224	3.516	0.499
1046.999	599.298	79.995	19.995	100.825	20.220	3.772	0.514
1047.499	599.545	79.997	19.996	100.822	20.226	3.365	0.485
1047.999	599.819	79.997	19.996	100.821	20.220	3.797	0.495
1048.499	600.059	79.996	19.997	100.820	20.220	3.791	0.517
1048.999	600.340	79.997	19.997	100.819	20.220	3.795	0.517
1049.499	600.539	79.997	19.997	100.820	20.220	3.776	0.501
1049.999	600.855	79.998	19.995	100.820	20.219	3.850	0.498
1050.499	601.093	79.999	19.996	100.821	20.219	3.844	0.534
1051.000	601.349	79.998	19.998	100.822	20.223	3.580	0.524
1051.500	601.595	79.998	19.996	100.822	20.224	3.547	0.498
1051.999	601.822	80.000	19.996	100.821	20.222	3.688	0.488
1052.499	602.099	79.998	19.996	100.825	20.220	3.772	0.489
1052.999	602.372	79.998	19.994	100.826	20.219	3.838	0.527
1053.499	602.587	79.998	19.996	100.828	20.219	3.872	0.518
1053.999	602.855	79.999	19.996	100.829	20.222	3.688	0.485
1054.500	603.125	79.999	19.996	100.828	20.220	3.771	0.510
1055.000	603.423	79.999	19.993	100.826	20.223	3.571	0.553
1055.499	603.616	79.998	19.996	100.827	20.219	3.851	0.530
1055.999	603.914	79.999	19.996	100.828	20.222	3.630	0.491
1056.499	604.189	79.999	19.996	100.830	20.221	3.702	0.532
1056.999	604.428	79.999	19.997	100.831	20.218	3.968	0.543
1057.499	604.669	79.999	19.996	100.827	20.219	3.877	0.496
1057.999	604.932	79.999	19.996	100.823	20.220	3.803	0.492
1058.499	605.222	79.998	19.996	100.820	20.222	3.637	0.529
1058.999	605.474	79.998	19.996	100.817	20.218	3.971	0.548
1059.499	605.683	79.999	19.996	100.817	20.218	3.945	0.501
1059.999	605.962	79.999	19.996	100.820	20.218	3.969	0.475
1060.499	606.226	79.999	19.997	100.827	20.218	3.936	0.516
1061.000	606.460	79.999	19.997	100.833	20.220	3.772	0.520
1061.500	606.784	79.998	19.996	100.836	20.216	4.052	0.528
1061.999	607.029	79.999	19.996	100.836	20.219	3.860	0.564
1062.499	607.269	79.998	19.994	100.833	20.217	4.029	0.527
1063.000	607.538	79.997	19.997	100.827	20.221	3.747	0.497
1063.500	607.769	79.997	19.996	100.821	20.221	3.694	0.504
1064.000	608.033	79.998	19.997	100.823	20.221	3.751	0.497
1064.501	608.315	79.998	19.997	100.831	20.219	3.896	0.520
1065.000	608.544	79.997	19.997	100.838	20.219	3.853	0.529
1065.499	608.795	79.999	19.997	100.846	20.217	3.994	0.495
1065.999	609.079	79.998	19.996	100.849	20.219	3.851	0.508
1066.499	609.333	79.998	19.997	100.848	20.221	3.710	0.537
1066.999	609.614	79.997	19.996	100.846	20.221	3.731	0.537
1067.499	609.895	79.997	19.997	100.840	20.222	3.676	0.548
1067.999	610.119	79.998	19.997	100.833	20.224	3.543	0.533
1068.500	610.380	79.998	19.996	100.829	20.218	3.976	0.495
1069.000	610.645	80.000	19.996	100.826	20.222	3.686	0.506
1069.499	610.902	79.998	19.996	100.821	20.220	3.800	0.524
1070.000	611.131	79.998	19.996	100.820	20.220	3.771	0.504
1070.500	611.422	79.997	19.996	100.819	20.220	3.782	0.502
1070.999	611.666	79.999	19.997	100.823	20.221	3.694	0.527
1071.499	611.914	79.999	19.996	100.829	20.219	3.878	0.514
1071.999	612.221	79.999	19.996	100.836	20.222	3.673	0.523
1072.499	612.465	79.999	19.997	100.841	20.217	3.982	0.553
1072.999	612.756	79.999	19.996	100.845	20.219	3.867	0.543
1073.499	612.995	80.000	19.997	100.847	20.217	4.000	0.532
1074.000	613.272	80.000	19.998	100.847	20.217	4.011	0.523
1074.501	613.463	79.999	19.995	100.848	20.218	3.974	0.492
1075.001	613.772	80.001	19.997	100.848	20.217	4.023	0.484
1075.501	614.025	80.000	19.997	100.852	20.216	4.064	0.531
1076.000	614.277	80.001	19.996	100.851	20.220	3.765	0.534
1076.499	614.575	80.001	19.996	100.849	20.219	3.900	0.528
1076.999	614.821	80.001	19.995	100.847	20.218	3.958	0.547
1077.499	615.071	80.001	19.996	100.845	20.221	3.763	0.520
1077.999	615.365	80.001	19.996	100.840	20.219	3.898	0.520
1078.499	615.610	80.000	19.996	100.838	20.219	3.882	0.542
1078.999	615.876	79.999	19.995	100.837	20.218	3.980	0.526
1079.499	616.146	80.000	19.994	100.838	20.217	4.037	0.524
1079.999	616.376	80.000	19.996	100.842	20.216	4.113	0.518
1080.499	616.631	80.001	19.996	100.845	20.215	4.138	0.492
1080.999	616.931	80.001	19.996	100.849	20.214	4.240	0.520
1081.499	617.208	80.001	19.996	100.852	20.215	4.127	0.566
1081.999	617.421	80.000	19.995	100.851	20.217	3.996	0.533
1082.499	617.708	80.000	19.996	100.849	20.212	4.393	0.494
1082.999	617.973	79.999	19.997	100.851	20.218	3.920	0.526
1083.499	618.206	80.000	19.997	100.851	20.216	4.101	0.525
1083.999	618.495	79.998	19.996	100.852	20.216	4.086	0.510
1084.499	618.741	79.998	19.997	100.853	20.217	3.992	0.529
1084.999	619.000	79.998	19.996	100.856	20.219	3.841	0.520
1085.499	619.266	79.997	19.996	100.857	20.212	4.375	0.515
1085.999	619.516	79.997	19.996	100.857	20.216	4.094	0.521
1086.499	619.745	79.997	19.996	100.854	20.213	4.273	0.497
1086.999	620.003	79.997	19.997	100.852	20.217	4.021	0.482
1087.499	620.297	79.997	19.996	100.852	20.215	4.174	0.519
1087.999	620.515	79.997	19.997	100.852	20.217	3.990	0.533
1088.499	620.836	79.996	19.996	100.853	20.215	4.139	0.526
1088.999	621.057	79.996	19.997	100.853	20.216	4.111	0.541
1089.499	621.323	79.996	19.999	100.853	20.215	4.144	0.514
1090.000	621.583	79.997	19.997	100.850	20.217	4.039	0.506
1090.500	621.851	79.996	19.998	100.849	20.219	3.902	0.527
1090.999	622.116	79.996	19.997	100.849	20.213	4.324	0.531
1091.500	622.340	79.997	19.997	100.851	20.216	4.082	0.511
1092.000	622.623	79.996	19.997	100.853	20.217	3.984	0.498
1092.500	622.875	79.996	19.997	100.855	20.217	3.982	0.521
1093.000	623.147	79.996	19.996	100.857	20.217	4.045	0.529
1093.499	623.396	79.996	19.996	100.857	20.215	4.149	0.522
1093.999	623.624	79.997	19.996	100.856	20.218	3.951	0.499
1094.499	623.880	79.997	19.997	100.856	20.215	4.186	0.481
1094.999	624.197	79.996	19.998	100.856	20.213	4.307	0.528
1095.499	624.439	79.996	19.996	100.856	20.213	4.334	0.566
1095.999	624.707	79.997	19.997	100.857	20.218	3.910	0.534
1096.499	624.927	79.996	19.998	100.857	20.219	3.849	0.499
1096.999	625.171	79.998	19.997	100.856	20.211	4.422	0.476
1097.499	625.446	79.996	19.997	100.855	20.211	4.458	0.492
1097.999	625.704	79.995	19.997	100.855	20.215	4.170	0.526
1098.499	625.984	79.996	19.997	100.855	20.214	4.241	0.535
1098.999	626.200	79.996	19.997	100.855	20.215	4.127	0.517
1099.499	626.439	79.997	19.996	100.856	20.214	4.223	0.476
1099.999	626.702	79.997	19.997	100.856	20.216	4.090	0.479
1100.499	626.978	79.997	19.996	100.856	20.214	4.201	0.520
1101.000	627.256	79.996	19.995	100.857	20.215	4.186	0.546
1101.500	627.505	79.996	19.996	100.857	20.216	4.092	0.540
1101.999	627.740	79.997	19.997	100.858	20.213	4.338	0.505
1102.499	628.009	79.997	19.996	100.859	20.213	4.272	0.494
1102.999	628.305	79.998	19.996	100.858	20.214	4.230	0.534
1103.499	628.516	79.996	19.996	100.858	20.213	4.299	0.536
1103.999	628.817	79.996	19.997	100.860	20.219	3.908	0.509
1104.499	629.048	79.997	19.996	100.860	20.217	4.041	0.522
1104.999	629.315	79.998	19.995	100.860	20.212	4.354	0.515
1105.499	629.592	79.997	19.994	100.861	20.217	4.019	0.521
1105.999	629.839	79.997	19.995	100.862	20.213	4.297	0.535
1106.499	630.078	79.997	19.995	100.861	20.216	4.117	0.505
1106.999	630.341	79.998	19.997	100.861	20.211	4.462	0.494
1107.499	630.599	79.997	19.995	100.861	20.210	4.526	0.511
1108.000	630.826	79.997	19.995	100.860	20.218	3.922	0.503
1108.500	631.094	79.997	19.994	100.860	20.214	4.229	0.489
1108.999	631.340	79.997	19.995	100.865	20.212	4.354	0.504
1109.500	631.623	79.996	19.995	100.865	20.213	4.300	0.522
1110.000	631.854	79.998	19.996	100.865	20.211	4.439	0.521
1110.500	632.130	79.999	19.996	100.864	20.213	4.270	0.511
1111.001	632.385	79.997	19.995	100.864	20.216	4.098	0.519
1111.501	632.652	79.997	19.995	100.858	20.214	4.264	0.526
1112.000	632.882	79.999	19.996	100.856	20.214	4.266	0.509
1112.499	633.129	79.997	19.996	100.855	20.214	4.221	0.487
1112.999	633.394	79.997	19.997	100.854	20.214	4.199	0.495
1113.500	633.633	79.996	19.994	100.854	20.216	4.113	0.508
1114.000	633.897	79.997	19.997	100.855	20.215	4.170	0.503
1114.499	634.156	79.997	19.996	100.856	20.212	4.384	0.513
1114.999	634.420	79.998	19.995	100.857	20.213	4.274	0.523
1115.499	634.702	79.997	19.998	100.857	20.214	4.211	0.535
1115.999	634.944	79.998	19.996	100.858	20.215	4.189	0.535
1116.499	635.197	79.997	19.996	100.860	20.215	4.189	0.509
1116.999	635.439	79.997	19.997	100.861	20.210	4.546	0.495
1117.499	635.733	79.998	19.995	100.863	20.216	4.104	0.516
1117.999	635.974	79.998	19.996	100.863	20.214	4.227	0.535
1118.499	636.237	79.997	19.997	100.863	20.217	4.047	0.519
1118.999	636.507	79.997	19.994	100.868	20.216	4.118	0.518
1119.499	636.720	79.997	19.997	100.873	20.215	4.135	0.508
1119.999	636.999	79.997	19.995	100.874	20.210	4.549	0.488
1120.499	637.255	79.997	19.996	100.875	20.215	4.155	0.514
1120.999	637.481	79.996	19.997	100.875	20.215	4.196	0.508
1121.499	637.739	79.996	19.996	100.866	20.214	4.213	0.483
1121.999	638.022	79.998	19.997	100.859	20.215	4.153	0.513
1122.499	638.223	79.998	19.996	100.858	20.213	4.303	0.513
1122.999	638.522	79.997	19.996	100.856	20.214	4.251	0.492
1123.499	638.759	79.997	19.996	100.856	20.212	4.392	0.518
1124.000	639.037	79.996	19.997	100.856	20.213	4.337	0.526
1124.500	639.271	79.996	19.997	100.862	20.215	4.173	0.514
1124.999	639.519	79.996	19.996	100.852	20.210	4.505	0.497
1125.499	639.806	79.997	19.996	100.836	20.210	4.488	0.508
1125.999	640.047	79.997	19.996	100.822	20.209	4.593	0.531
1126.499	640.274	79.998	19.997	100.814	20.212	4.355	0.498
1126.999	640.522	79.997	19.996	100.803	20.214	4.206	0.472
1127.499	640.798	79.998	19.996	100.810	20.215	4.192	0.499
1127.999	641.066	79.998	19.996	100.834	20.211	4.464	0.534
1128.500	641.306	79.999	19.996	100.883	20.212	4.373	0.526
1129.000	641.602	79.998	19.995	100.908	20.214	4.261	0.522
1129.499	641.846	79.999	19.996	100.921	20.215	4.146	0.538
1129.999	642.072	79.999	19.996	100.923	20.221	3.760	0.506
1130.499	642.351	80.000	19.996	100.917	20.216	4.073	0.488
1130.999	642.604	80.000	19.997	100.887	20.215	4.175	0.518
1131.499	642.850	80.000	19.998	100.871	20.217	4.049	0.515
1131.999	643.109	79.999	19.996	100.865	20.212	4.349	0.502
1132.499	643.375	80.000	19.997	100.867	20.211	4.429	0.516
1132.999	643.614	80.001	19.996	100.867	20.212	4.381	0.515
1133.500	643.843	79.999	19.996	100.867	20.211	4.457	0.486
1134.001	644.125	79.999	19.994	100.868	20.211	4.430	0.489
1134.500	644.346	79.999	19.996	100.871	20.208	4.637	0.507
1134.999	644.635	79.998	19.996	100.876	20.212	4.353	0.507
1135.499	644.863	80.000	19.995	100.877	20.209	4.590	0.513
1135.999	645.100	79.998	19.994	100.876	20.210	4.551	0.491
1136.499	645.371	79.999	19.995	100.877	20.212	4.394	0.487
1136.999	645.609	79.998	19.995	100.879	20.207	4.741	0.509
1137.499	645.850	79.999	19.995	100.877	20.210	4.551	0.494
1137.999	646.140	79.999	19.994	100.875	20.210	4.537	0.505
1138.499	646.397	79.999	19.995	100.878	20.208	4.647	0.539
1138.999	646.632	79.999	19.995	100.881	20.209	4.608	0.519
1139.499	646.895	79.999	19.996	100.883	20.203	5.048	0.495
1140.000	647.164	79.999	19.996	100.885	20.206	4.798	0.515
1140.500	647.415	79.998	19.996	100.887	20.204	4.980	0.526
1141.000	647.691	79.998	19.996	100.884	20.205	4.847	0.524
1141.500	647.915	79.998	19.996	100.879	20.205	4.854	0.514
1141.999	648.166	79.998	19.995	100.877	20.209	4.622	0.487
1142.499	648.443	79.999	19.995	100.878	20.213	4.273	0.501
1142.999	648.687	79.999	19.996	100.881	20.210	4.520	0.525
1143.499	648.951	79.998	19.997	100.886	20.211	4.430	0.515
1143.999	649.199	79.999	19.995	100.887	20.205	4.905	0.510
1144.499	649.453	79.998	19.996	100.890	20.211	4.433	0.507
1144.999	649.736	79.997	19.996	100.892	20.211	4.479	0.519
1145.499	649.928	79.998	19.996	100.891	20.207	4.739	0.506
1145.999	650.207	79.997	19.993	100.890	20.210	4.541	0.473
1146.499	650.449	79.997	19.997	100.888	20.205	4.862	0.496
1146.999	650.707	79.998	19.996	100.888	20.206	4.835	0.511
1147.499	650.958	79.998	19.996	100.887	20.210	4.535	0.505
1147.999	651.208	79.998	19.996	100.888	20.208	4.653	0.505
1148.499	651.428	79.998	19.995	100.891	20.206	4.794	0.485
1148.999	651.675	79.997	19.995	100.895	20.208	4.682	0.469
1149.499	651.935	79.997	19.995	100.896	20.206	4.806	0.488
1149.999	652.206	79.997	19.996	100.896	20.207	4.772	0.519
1150.499	652.423	79.998	19.996	100.897	20.205	4.900	0.509
1150.999	652.670	79.998	19.996	100.896	20.204	4.946	0.476
1151.499	652.926	79.999	19.997	100.897	20.209	4.561	0.484
1151.999	653.209	79.998	19.996	100.897	20.208	4.633	0.521
1152.499	653.462	79.999	19.997	100.897	20.202	5.080	0.537
1152.999	653.692	79.999	19.995	100.896	20.204	4.952	0.509
1153.499	653.956	79.997	19.997	100.894	20.204	4.950	0.489
1153.999	654.211	80.001	19.996	100.891	20.202	5.076	0.507
1154.500	654.454	79.999	19.994	100.891	20.202	5.078	0.508
1155.001	654.711	79.998	19.996	100.889	20.204	4.925	0.499
1155.501	655.016	79.998	19.996	100.891	20.199	5.283	0.531
1156.000	655.259	79.999	19.996	100.892	20.195	5.586	0.555
1156.499	655.528	80.000	19.996	100.894	20.201	5.158	0.530
1156.999	655.769	79.999	19.995	100.894	20.199	5.303	0.512
1157.500	656.010	80.000	19.996	100.895	20.201	5.182	0.496
1158.000	656.257	79.998	19.995	100.895	20.203	4.996	0.485
1158.499	656.518	79.999	19.997	100.896	20.200	5.257	0.498
1158.999	656.750	80.000	19.998	100.897	20.200	5.267	0.501
1159.499	657.040	79.999	19.995	100.900	20.197	5.451	0.508
1159.999	657.262	79.999	19.996	100.900	20.199	5.322	0.517
1160.499	657.545	80.000	19.994	100.900	20.200	5.235	0.508
1160.999	657.807	79.999	19.997	100.900	20.199	5.302	0.525
1161.499	658.035	79.998	19.997	100.899	20.201	5.155	0.518
1161.999	658.311	79.999	19.995	100.897	20.195	5.589	0.497
1162.499	658.546	79.998	19.996	100.898	20.198	5.393	0.507
1162.999	658.815	79.997	19.995	100.899	20.202	5.096	0.508
1163.499	659.034	79.998	19.996	100.900	20.197	5.437	0.496
1163.999	659.306	79.998	19.996	100.900	20.198	5.417	0.490
1164.499	659.542	79.998	19.995	100.899	20.203	5.059	0.499
1164.999	659.842	79.998	19.996	100.899	20.200	5.214	0.522
1165.499	660.084	79.998	19.996	100.899	20.199	5.300	0.539
1165.999	660.332	79.997	19.995	100.899	20.199	5.286	0.516
1166.499	660.544	79.997	19.996	100.900	20.204	4.967	0.475
1166.999	660.815	79.997	19.996	100.900	20.201	5.165	0.472
1167.499	661.034	79.996	19.996	100.901	20.201	5.137	0.487
1167.999	661.305	79.996	19.995	100.905	20.198	5.374	0.490
1168.499	661.562	79.994	19.995	100.910	20.200	5.247	0.509
1169.000	661.782	79.997	19.996	100.913	20.199	5.334	0.502
1169.500	662.052	79.996	19.996	100.917	20.199	5.343	0.483
1169.999	662.302	79.995	19.996	100.922	20.194	5.687	0.505
1170.500	662.534	79.995	19.996	100.925	20.198	5.374	0.501
1171.000	662.800	79.997	19.996	100.924	20.198	5.417	0.490
1171.499	663.065	79.996	19.995	100.925	20.200	5.263	0.514
1171.999	663.326	79.998	19.996	100.925	20.202	5.087	0.529
1172.499	663.560	79.997	19.996	100.921	20.198	5.389	0.510
1172.999	663.799	79.997	19.996	100.916	20.199	5.293	0.484
1173.499	664.072	79.995	19.995	100.915	20.195	5.604	0.493
1174.000	664.310	79.996	19.996	100.917	20.198	5.369	0.512
1174.501	664.581	79.997	19.996	100.919	20.196	5.508	0.510
1175.000	664.813	79.996	19.997	100.920	20.197	5.488	0.506
1175.499	665.080	79.996	19.997	100.921	20.198	5.396	0.501
1176.000	665.317	79.996	19.995	100.923	20.197	5.453	0.501
1176.500	665.588	79.997	19.997	100.919	20.196	5.527	0.506
1176.999	665.825	79.996	19.997	100.916	20.200	5.220	0.508
1177.499	666.083	79.996	19.995	100.913	20.194	5.637	0.502
1177.999	666.329	79.995	19.996	100.916	20.200	5.224	0.500
1178.499	666.601	79.997	19.996	100.916	20.196	5.512	0.511
1178.999	666.842	79.997	19.997	100.920	20.194	5.659	0.516
1179.499	667.097	79.995	19.996	100.924	20.195	5.633	0.504
1179.999	667.342	79.997	19.995	100.929	20.197	5.475	0.498
1180.499	667.604	79.998	19.996	100.925	20.196	5.563	0.503
1180.999	667.880	79.997	19.998	100.923	20.195	5.629	0.523
1181.499	668.132	79.997	19.997	100.922	20.199	5.326	0.533
1181.999	668.419	79.997	19.997	100.923	20.192	5.809	0.534
1182.499	668.651	79.996	19.998	100.925	20.198	5.381	0.528
1182.999	668.922	79.996	19.998	100.931	20.193	5.715	0.511
1183.499	669.180	79.997	19.996	100.933	20.196	5.494	0.517
1184.000	669.389	79.996	19.996	100.933	20.192	5.817	0.498
1184.500	669.661	79.996	19.996	100.933	20.197	5.440	0.474
1184.999	669.903	79.995	19.997	100.932	20.194	5.683	0.498
1185.499	670.167	79.996	19.996	100.932	20.194	5.669	0.510
1186.000	670.431	79.997	19.997	100.931	20.192	5.837	0.517
1186.500	670.675	79.998	19.997	100.930	20.193	5.726	0.518
1186.999	670.920	79.997	19.998	100.930	20.192	5.820	0.499
1187.500	671.210	79.997	19.997	100.930	20.193	5.742	0.512
1188.000	671.421	79.995	19.996	100.930	20.191	5.888	0.518
1188.499	671.708	79.996	19.997	100.931	20.190	5.951	0.499
1188.999	671.962	79.995	19.997	100.933	20.193	5.740	0.520
1189.499	672.207	79.996	19.997	100.933	20.193	5.716	0.521
1189.999	672.489	79.996	19.997	100.933	20.192	5.798	0.513
1190.499	672.758	79.996	19.996	100.933	20.193	5.741	0.539
1190.999	672.972	79.996	19.998	100.933	20.191	5.904	0.517
1191.499	673.231	79.996	19.998	100.933	20.191	5.884	0.478
1191.999	673.440	79.996	19.998	100.934	20.195	5.592	0.471
1192.500	673.751	79.997	19.996	100.934	20.197	5.463	0.494
1193.000	673.985	79.995	19.996	100.934	20.196	5.501	0.532
1193.500	674.255	79.996	19.997	100.934	20.195	5.607	0.525
1194.001	674.532	79.997	19.996	100.934	20.198	5.357	0.525
1194.500	674.805	79.995	19.997	100.934	20.196	5.535	0.549
1194.999	675.082	79.997	19.996	100.934	20.192	5.833	0.550
1195.499	675.285	79.996	19.996	100.939	20.190	5.974	0.515
1195.999	675.598	79.997	19.996	100.940	20.195	5.593	0.498
1196.499	675.799	79.997	19.997	100.940	20.190	5.989	0.515
1196.999	676.064	79.996	19.996	100.941	20.195	5.626	0.490
1197.499	676.338	79.996	19.997	100.942	20.191	5.857	0.503
1197.999	676.592	79.996	19.996	100.941	20.189	6.049	0.534
1198.499	676.804	79.998	19.997	100.944	20.193	5.769	0.497
1198.999	677.083	79.997	19.996	100.944	20.194	5.704	0.478
1199.500	677.314	79.997	19.997	100.943	20.194	5.640	0.501
1200.000	677.586	79.995	19.995	100.944	20.194	5.648	0.507
1200.499	677.856	79.997	19.997	100.940	20.193	5.768	0.522
1200.999	678.113	79.996	19.996	100.938	20.192	5.787	0.535
1201.499	678.339	79.997	19.996	100.938	20.193	5.779	0.505
1201.999	678.574	79.996	19.997	100.937	20.189	6.032	0.472
1202.499	678.874	79.995	19.995	100.935	20.189	6.040	0.498
1202.999	679.124	79.997	19.997	100.936	20.194	5.659	0.542
1203.500	679.369	79.996	19.997	100.938	20.193	5.770	0.523
1204.000	679.617	79.997	19.996	100.943	20.189	6.009	0.494
1204.499	679.863	79.997	19.997	100.951	20.197	5.477	0.494
1204.999	680.132	79.995	19.996	100.958	20.194	5.686	0.505
1205.499	680.365	79.996	19.996	100.963	20.191	5.890	0.508
1205.999	680.649	79.999	19.996	100.963	20.192	5.843	0.509
1206.500	680.891	79.997	19.997	100.964	20.193	5.772	0.522
1207.000	681.176	79.998	19.996	100.957	20.191	5.875	0.527
1207.499	681.449	79.998	19.997	100.951	20.188	6.081	0.542
1207.999	681.691	79.998	19.997	100.947	20.184	6.359	0.536
1208.499	681.928	79.997	19.996	100.944	20.189	6.057	0.497
1208.999	682.211	79.998	19.996	100.939	20.187	6.177	0.500
1209.499	682.445	79.997	19.996	100.940	20.188	6.095	0.519
1209.999	682.714	79.998	19.996	100.947	20.187	6.207	0.509
1210.499	682.940	79.997	19.995	100.953	20.185	6.321	0.499
1210.999	683.174	79.996	19.996	100.955	20.188	6.113	0.478
1211.499	683.464	79.998	19.995	100.956	20.190	5.929	0.492
1211.999	683.710	79.998	19.994	100.957	20.191	5.917	0.530
1212.499	683.925	79.998	19.995	100.954	20.187	6.144	0.499
1212.999	684.196	79.998	19.995	100.952	20.186	6.281	0.473
1213.499	684.475	79.998	19.996	100.959	20.186	6.238	0.518
1213.999	684.667	79.997	19.995	100.965	20.189	6.023	0.510
1214.499	684.914	79.997	19.995	100.965	20.187	6.151	0.455
1214.999	685.220	79.999	19.995	100.968	20.182	6.568	0.496
1215.500	685.514	79.999	19.996	100.971	20.187	6.196	0.577
1216.000	685.698	79.998	19.996	100.968	20.187	6.161	0.539
1216.499	685.986	79.998	19.995	100.965	20.185	6.341	0.475
1216.999	686.251	79.999	19.996	100.966	20.184	6.401	0.513
1217.499	686.502	79.998	19.993	100.963	20.186	6.219	0.534
1217.999	686.758	79.999	19.995	100.957	20.183	6.452	0.511
1218.499	687.014	79.997	19.995	100.953	20.182	6.546	0.509
1218.999	687.261	79.999	19.996	100.953	20.186	6.245	0.507
1219.499	687.497	79.999	19.995	100.954	20.185	6.294	0.493
1219.999	687.790	79.997	19.996	100.957	20.182	6.540	0.506
1220.499	688.013	79.997	19.996	100.962	20.182	6.562	0.523
1220.999	688.254	79.999	19.996	100.968	20.184	6.407	0.490
1221.499	688.529	79.998	19.995	100.972	20.188	6.143	0.490
1221.999	688.763	79.998	19.996	100.972	20.184	6.374	0.512
1222.499	689.038	79.999	19.997	100.971	20.183	6.441	0.509
1222.999	689.270	79.998	19.995	100.968	20.175	7.022	0.508
1223.500	689.525	79.997	19.994	100.967	20.182	6.545	0.497
1224.000	689.746	79.997	19.995	100.967	20.180	6.682	0.482
1224.499	689.993	79.996	19.995	100.967	20.182	6.546	0.472
1224.999	690.302	79.997	19.995	100.973	20.186	6.278	0.512
1225.499	690.532	79.997	19.995	100.978	20.180	6.701	0.547
1226.000	690.791	79.998	19.995	100.980	20.182	6.533	0.513
1226.500	691.029	79.996	19.995	100.982	20.180	6.705	0.493
1226.999	691.273	79.997	19.995	100.982	20.180	6.680	0.490
1227.500	691.557	79.997	19.995	100.980	20.181	6.621	0.505
1228.000	691.760	79.998	19.997	100.978	20.183	6.465	0.507
1228.499	692.014	79.998	19.995	100.977	20.174	7.140	0.472
1228.999	692.257	79.999	19.995	100.976	20.181	6.593	0.477
1229.499	692.530	79.997	19.995	100.976	20.179	6.766	0.506
1229.999	692.825	79.999	19.994	100.977	20.180	6.672	0.542
1230.499	693.068	79.998	19.993	100.978	20.181	6.628	0.553
1230.999	693.319	79.997	19.995	100.978	20.181	6.606	0.516
1231.499	693.560	79.998	19.995	100.979	20.176	6.946	0.493
1231.999	693.803	79.999	19.995	100.979	20.178	6.816	0.488
1232.499	694.070	79.998	19.994	100.980	20.181	6.625	0.497
1232.999	694.328	79.999	19.995	100.979	20.181	6.640	0.517
1233.500	694.591	80.000	19.995	100.979	20.177	6.877	0.523
1234.000	694.876	79.999	19.995	100.979	20.178	6.834	0.534
1234.500	695.085	80.000	19.995	100.981	20.175	7.066	0.521
1235.000	695.335	80.000	19.995	100.979	20.177	6.891	0.476
1235.499	695.583	80.001	19.996	100.980	20.179	6.785	0.478
1235.999	695.819	80.002	19.995	100.981	20.178	6.859	0.491
1236.499	696.056	80.001	19.995	100.980	20.176	6.957	0.479
1236.999	696.342	79.999	19.993	100.980	20.174	7.100	0.498
1237.499	696.582	80.000	19.996	100.983	20.175	7.028	0.525
1237.999	696.825	80.000	19.995	100.983	20.178	6.852	0.505
1238.499	697.145	79.999	19.997	100.985	20.175	7.017	0.523
1238.999	697.323	80.000	19.995	100.985	20.172	7.234	0.530
1239.499	697.601	80.000	19.994	100.982	20.173	7.154	0.477
1239.999	697.839	79.999	19.995	100.980	20.172	7.260	0.486
1240.499	698.113	80.000	19.996	100.984	20.176	6.939	0.514
1240.999	698.355	79.999	19.996	100.988	20.175	7.027	0.514
1241.499	698.569	80.000	19.996	100.994	20.180	6.719	0.486
1241.999	698.845	79.999	19.995	100.999	20.176	6.958	0.472
1242.499	699.086	79.997	19.995	101.005	20.176	7.003	0.503
1242.999	699.347	79.997	19.996	101.006	20.175	7.009	0.510
1243.500	699.613	79.997	19.995	101.006	20.175	7.058	0.515
1244.000	699.860	79.997	19.994	101.006	20.177	6.917	0.520
1244.499	700.098	79.998	19.995	101.009	20.173	7.154	0.499
1244.999	700.346	79.997	19.996	101.010	20.179	6.772	0.486
1245.500	700.612	79.996	19.996	101.011	20.178	6.864	0.500
1246.000	700.855	79.997	19.996	101.010	20.181	6.609	0.512
1246.499	701.112	79.997	19.997	101.004	20.175	7.021	0.505
1246.999	701.365	79.996	19.997	101.001	20.178	6.844	0.505
1247.499	701.609	79.996	19.996	100.999	20.176	6.978	0.503
1247.999	701.887	79.997	19.996	100.999	20.174	7.150	0.509
1248.499	702.150	79.996	19.997	101.000	20.180	6.668	0.532
1248.999	702.394	79.996	19.997	101.007	20.179	6.762	0.524
1249.500	702.648	79.997	19.997	101.011	20.178	6.833	0.502
1250.000	702.909	79.997	19.995	101.014	20.175	7.066	0.506
1250.499	703.135	79.997	19.996	101.014	20.180	6.711	0.501
1250.999	703.391	79.997	19.996	101.015	20.173	7.199	0.485
1251.499	703.689	79.996	19.996	101.015	20.176	6.992	0.518
1251.999	703.898	79.998	19.997	101.014	20.178	6.827	0.531
1252.499	704.151	79.996	19.996	101.013	20.175	7.065	0.485
1252.999	704.429	79.998	19.996	101.014	20.176	6.980	0.497
1253.499	704.666	79.997	19.996	101.014	20.174	7.129	0.523
1253.999	704.923	79.994	19.996	101.014	20.176	6.998	0.504
1254.499	705.199	79.998	19.995	101.014	20.180	6.677	0.513
1254.999	705.423	79.997	19.998	101.015	20.173	7.169	0.517
1255.499	705.675	79.997	19.997	101.014	20.179	6.781	0.488
1255.999	705.944	79.997	19.998	101.014	20.174	7.118	0.498
1256.499	706.201	79.996	19.996	101.015	20.176	7.003	0.523
1256.999	706.434	79.996	19.996	101.014	20.178	6.798	0.508
1257.499	706.681	79.996	19.997	101.013	20.176	6.970	0.486
1257.999	706.971	79.997	19.996	101.012	20.177	6.882	0.508
1258.499	707.211	79.997	19.996	101.012	20.178	6.841	0.533
1258.999	707.467	79.997	19.997	101.012	20.177	6.913	0.513
1259.499	707.726	79.997	19.995	101.013	20.174	7.142	0.506
1259.999	707.978	79.997	19.996	101.013	20.172	7.264	0.513
1260.499	708.259	79.998	19.996	101.014	20.171	7.320	0.522
1260.999	708.507	79.996	19.997	101.014	20.174	7.097	0.531
1261.499	708.762	79.998	19.995	101.013	20.178	6.799	0.516
1262.000	708.999	79.997	19.996	101.016	20.182	6.568	0.497
1262.500	709.246	79.996	19.997	101.018	20.174	7.097	0.488
1263.000	709.536	79.998	19.995	101.021	20.175	7.036	0.511
1263.500	709.782	79.997	19.996	101.024	20.178	6.828	0.536
1263.999	710.029	79.998	19.997	101.024	20.177	6.911	0.515
1264.499	710.245	79.997	19.996	101.021	20.173	7.178	0.478
1264.999	710.510	79.997	19.995	101.021	20.176	7.009	0.472
1265.500	710.758	79.996	19.996	101.023	20.171	7.342	0.497
1266.000	710.988	79.997	19.996	101.027	20.174	7.111	0.496
1266.500	711.267	79.996	19.995	101.034	20.172	7.256	0.493
1267.001	711.503	79.997	19.997	101.038	20.178	6.864	0.511
1267.500	711.739	79.996	19.995	101.043	20.173	7.164	0.493
1268.000	712.044	79.997	19.995	101.046	20.174	7.143	0.507
1268.500	712.283	79.998	19.996	101.047	20.177	6.874	0.542
1268.999	712.525	79.997	19.996	101.048	20.175	7.057	0.512
1269.499	712.851	79.998	19.998	101.049	20.173	7.221	0.525
1269.999	713.045	79.995	19.996	101.044	20.175	7.031	0.544
1270.499	713.318	79.997	19.996	101.042	20.173	7.160	0.493
1271.000	713.610	79.998	19.996	101.042	20.170	7.440	0.516
1271.500	713.817	79.997	19.996	101.037	20.175	7.019	0.532
1271.999	714.106	79.997	19.996	101.039	20.176	6.972	0.498
1272.499	714.306	79.997	19.997	101.040	20.177	6.929	0.492
1272.999	714.587	79.997	19.997	101.037	20.177	6.927	0.484
1273.499	714.810	79.995	19.996	101.037	20.174	7.136	0.492
1273.999	715.088	79.996	19.997	101.040	20.173	7.156	0.503
1274.499	715.326	79.996	19.996	101.036	20.176	6.988	0.509
1275.000	715.588	79.997	19.997	101.038	20.175	7.053	0.508
1275.500	715.833	79.996	19.998	101.043	20.175	7.051	0.504
1275.999	716.096	79.995	19.998	101.044	20.176	6.953	0.508
1276.499	716.389	79.996	19.996	101.043	20.181	6.631	0.532
1276.999	716.619	79.996	19.996	101.047	20.180	6.704	0.540
1277.499	716.886	79.995	19.998	101.050	20.176	7.000	0.510
1277.999	717.098	79.995	19.996	101.049	20.174	7.131	0.488
1278.499	717.399	79.996	19.997	101.049	20.175	7.047	0.496
1278.999	717.612	79.996	19.998	101.051	20.173	7.213	0.513
1279.500	717.853	79.995	19.996	101.050	20.175	7.042	0.484
1280.000	718.113	79.995	19.997	101.050	20.175	7.061	0.478
1280.500	718.375	79.995	19.998	101.050	20.172	7.288	0.512
1281.001	718.648	79.997	19.998	101.048	20.171	7.331	0.528
1281.500	718.855	79.996	19.996	101.047	20.171	7.321	0.507
1282.000	719.128	79.997	19.996	101.048	20.173	7.188	0.480
1282.500	719.372	79.997	19.996	101.048	20.171	7.359	0.499
1283.000	719.611	79.995	19.997	101.045	20.170	7.372	0.500
1283.501	719.895	79.996	19.997	101.043	20.172	7.253	0.503
1284.000	720.123	79.997	19.997	101.044	20.170	7.380	0.518
1284.499	720.370	79.998	19.996	101.043	20.167	7.601	0.494
1284.999	720.633	79.998	19.996	101.043	20.173	7.156	0.493
1285.499	720.919	79.998	19.996	101.047	20.173	7.154	0.529
1285.999	721.159	79.997	19.995	101.048	20.172	7.283	0.537
1286.499	721.355	79.998	19.996	101.049	20.171	7.299	0.481
1286.999	721.610	79.999	19.996	101.049	20.174	7.146	0.444
1287.499	721.903	79.999	19.996	101.048	20.172	7.293	0.499
1287.999	722.129	79.997	19.995	101.050	20.171	7.338	0.533
1288.499	722.392	79.998	19.995	101.051	20.169	7.499	0.504
1288.999	722.680	79.998	19.995	101.051	20.174	7.121	0.521
1289.499	722.914	79.998	19.995	101.048	20.173	7.208	0.537
1289.999	723.133	79.998	19.996	101.044	20.172	7.275	0.487
1290.499	723.384	80.000	19.996	101.039	20.172	7.280	0.462
1290.999	723.671	80.000	19.996	101.033	20.173	7.215	0.504
1291.499	723.901	79.999	19.995	101.026	20.170	7.379	0.527
1291.999	724.147	79.998	19.996	101.026	20.171	7.353	0.496
1292.499	724.386	79.998	19.996	101.025	20.173	7.220	0.480
1292.999	724.631	79.998	19.996	101.025	20.170	7.413	0.485
1293.499	724.889	80.000	19.996	101.025	20.170	7.415	0.494
1293.999	725.101	79.998	19.996	101.027	20.174	7.090	0.486
1294.499	725.349	79.999	19.996	101.024	20.174	7.109	0.465
1294.999	725.620	79.999	19.995	101.022	20.175	7.005	0.489
1295.499	725.880	79.997	19.996	101.020	20.171	7.355	0.525
1295.999	726.073	79.999	19.996	101.019	20.179	6.787	0.492
1296.499	726.356	79.998	19.996	101.018	20.176	6.992	0.464
1297.000	726.585	79.999	19.995	101.018	20.172	7.248	0.493
1297.500	726.865	79.999	19.995	101.017	20.178	6.819	0.511
1298.000	727.133	79.998	19.995	101.017	20.177	6.928	0.529
1298.500	727.348	79.997	19.997	101.016	20.178	6.852	0.515
1299.000	727.596	79.997	19.997	101.015	20.173	7.162	0.473
1299.500	727.848	79.998	19.996	101.015	20.177	6.904	0.482
1299.999	728.081	79.997	19.995	101.014	20.175	7.001	0.493
1300.500	728.365	79.999	19.996	101.009	20.176	6.983	0.501
1301.000	728.601	79.999	19.996	101.004	20.176	6.961	0.518
1301.500	728.829	79.998	19.996	101.002	20.172	7.234	0.492
1302.000	729.107	79.998	19.996	100.994	20.173	7.183	0.485
1302.499	729.353	79.998	19.997	100.986	20.177	6.898	0.515
1303.000	729.621	79.997	19.996	100.982	20.179	6.722	0.518
1303.500	729.882	79.998	19.996	100.979	20.174	7.068	0.521
1304.000	730.121	79.998	19.996	100.973	20.177	6.860	0.515
1304.501	730.376	79.999	19.996	100.972	20.179	6.767	0.497
1305.000	730.665	79.998	19.995	100.970	20.178	6.811	0.519
1305.499	730.860	79.998	19.996	100.964	20.179	6.762	0.514
1305.999	731.173	79.998	19.995	100.961	20.183	6.467	0.496
1306.499	731.428	79.997	19.995	100.954	20.184	6.402	0.538
1306.999	731.671	79.998	19.996	100.946	20.181	6.637	0.533
1307.499	731.903	79.999	19.996	100.941	20.186	6.244	0.487
1308.000	732.178	79.999	19.996	100.939	20.181	6.566	0.491
1308.501	732.439	80.000	19.996	100.934	20.183	6.454	0.521
1309.000	732.679	79.999	19.996	100.926	20.186	6.225	0.518
1309.499	732.944	80.000	19.996	100.920	20.189	6.018	0.503
1309.999	733.233	79.999	19.995	100.913	20.185	6.348	0.530
1310.499	733.482	79.999	19.996	100.905	20.188	6.112	0.546
1310.999	733.719	80.000	19.996	100.894	20.192	5.793	0.512
1311.499	733.980	80.001	19.997	100.889	20.190	5.949	0.492
1311.999	734.230	79.999	19.997	100.881	20.191	5.883	0.504
1312.500	734.530	79.999	19.994	100.874	20.192	5.810	0.531
1313.000	734.748	80.001	19.995	100.844	20.192	5.785	0.534
1313.499	734.974	80.000	19.997	100.817	20.192	5.812	0.481
1313.999	735.283	80.001	19.997	100.800	20.197	5.431	0.489
1314.500	735.536	80.001	19.996	100.790	20.191	5.861	0.549
1315.001	735.765	80.001	19.996	100.786	20.194	5.638	0.523
1315.501	736.014	80.000	19.995	100.826	20.196	5.544	0.480
1316.000	736.273	80.001	19.995	100.869	20.202	5.071	0.493
1316.499	736.566	80.000	19.996	100.889	20.195	5.581	0.530
1316.999	736.772	80.000	19.996	100.898	20.203	5.050	0.525
1317.499	737.024	80.001	19.995	100.897	20.200	5.243	0.479
1317.999	737.322	80.002	19.997	100.871	20.200	5.225	0.504
1318.499	737.585	80.001	19.995	100.844	20.202	5.103	0.555
1318.999	737.845	80.000	19.994	100.831	20.203	5.015	0.542
1319.499	738.083	80.000	19.995	100.823	20.202	5.093	0.511
1319.999	738.333	80.000	19.996	100.821	20.202	5.084	0.494
1320.499	738.613	80.000	19.996	100.819	20.204	4.959	0.509
1320.999	738.887	80.000	19.996	100.818	20.204	4.932	0.542
1321.499	739.097	79.999	19.994	100.817	20.202	5.061	0.519
1321.999	739.364	80.000	19.996	100.817	20.207	4.758	0.480
1322.499	739.619	79.998	19.995	100.814	20.203	5.004	0.499
1322.999	739.871	79.999	19.996	100.814	20.203	5.051	0.515
1323.499	740.117	80.000	19.996	100.814	20.206	4.776	0.503
1323.999	740.384	79.998	19.995	100.814	20.204	4.914	0.505
1324.499	740.628	79.999	19.995	100.813	20.203	5.043	0.512
1324.999	740.873	79.997	19.995	100.811	20.202	5.104	0.500
1325.499	741.148	79.998	19.996	100.810	20.204	4.965	0.505
1326.000	741.398	79.998	19.996	100.809	20.203	5.022	0.522
1326.500	741.655	79.998	19.996	100.809	20.201	5.137	0.516
1326.999	741.911	79.997	19.997	100.810	20.202	5.125	0.510
1327.499	742.177	79.996	19.996	100.812	20.206	4.832	0.518
1327.999	742.392	79.998	19.996	100.807	20.204	4.953	0.502
1328.499	742.651	79.999	19.996	100.801	20.209	4.596	0.477
1328.999	742.918	79.998	19.997	100.795	20.202	5.088	0.500
1329.499	743.200	79.999	19.996	100.789	20.205	4.881	0.538
1329.999	743.445	79.998	19.996	100.784	20.198	5.383	0.538
1330.499	743.660	79.997	19.996	100.786	20.199	5.294	0.494
1331.000	743.912	79.997	19.995	100.787	20.203	5.036	0.463
1331.500	744.215	79.998	19.996	100.789	20.205	4.856	0.510
1331.999	744.436	79.997	19.996	100.793	20.202	5.115	0.539
1332.499	744.713	79.997	19.996	100.798	20.202	5.059	0.512
1332.999	744.938	79.998	19.995	100.800	20.208	4.648	0.501
