Sample ID:	C:\MCC\MCC Cal\Test\Carpet_Polyolefin_LowPile_211008_R3.txt
Sample Weight (mg):	4.54
Heating Rate (C/s):	0.5
Combustor Temp (C):	900
N2 Flow Rate (cc/min):	80
O2 Flow Rate (cc/min):	20
Calibration File:	C:\MCC\MCC Cal\Coeff1 JN10440_30_210304.txt.txt
T Correction Coefficients:	0	1.024463	0
Time Shift (s):	14
*
Time (s)	Temperature (C)	N2 flow rate (cc/min)	O2 flow rate (cc/min)	Flow Rate (cc/min)	Oxygen (%)	HRR (W/g)	Heating rate (C/s)
0.000	105.580	79.999	19.996	100.670	20.031	-0.087	0.031
0.500	105.542	79.998	19.998	100.669	20.032	-0.169	0.032
1.000	105.531	79.999	19.996	100.669	20.028	0.085	-0.023
1.500	105.534	79.999	19.996	100.669	20.027	0.190	-0.029
2.000	105.582	79.999	19.997	100.668	20.028	0.119	0.021
2.500	105.544	80.000	19.996	100.668	20.030	-0.028	0.031
3.000	105.555	80.000	19.997	100.667	20.031	-0.062	-0.008
3.500	105.531	80.000	19.997	100.667	20.031	-0.094	-0.020
4.000	105.533	80.000	19.996	100.667	20.030	-0.006	-0.018
4.500	105.532	79.999	19.998	100.666	20.029	0.060	-0.010
5.000	105.543	80.000	19.996	100.667	20.030	0.006	0.006
5.500	105.517	79.998	19.996	100.668	20.035	-0.394	-0.003
6.000	105.541	79.999	19.997	100.669	20.029	0.021	-0.009
6.500	105.541	79.999	19.998	100.669	20.029	0.056	0.011
7.000	105.529	79.999	19.996	100.669	20.033	-0.222	0.006
7.500	105.552	79.998	19.997	100.670	20.029	0.013	-0.000
8.000	105.563	79.999	19.997	100.669	20.026	0.230	0.022
8.500	105.556	79.999	19.997	100.669	20.028	0.104	0.019
9.000	105.577	79.999	19.996	100.669	20.029	0.041	0.009
9.500	105.558	79.998	19.997	100.673	20.027	0.186	0.008
10.000	105.580	79.999	19.997	100.679	20.031	-0.066	0.002
10.500	105.557	79.999	19.996	100.687	20.033	-0.258	0.001
11.000	105.549	79.999	19.996	100.694	20.028	0.109	-0.016
11.500	105.584	79.998	19.996	100.701	20.026	0.222	-0.002
12.000	105.548	79.999	19.996	100.709	20.023	0.477	0.012
12.500	105.564	79.997	19.996	100.716	20.024	0.388	-0.010
13.000	105.576	79.998	19.996	100.728	20.025	0.343	0.005
13.500	105.576	79.999	19.997	100.743	20.022	0.541	0.020
14.000	105.552	80.000	19.996	100.754	20.022	0.558	-0.006
14.500	105.586	79.999	19.996	100.759	20.020	0.656	-0.007
15.000	105.603	79.997	19.997	100.764	20.016	0.980	0.031
15.500	105.604	79.999	19.998	100.764	20.017	0.906	0.035
16.000	105.646	80.000	19.996	100.761	20.015	0.989	0.030
16.500	105.664	79.998	19.998	100.762	20.022	0.533	0.051
17.000	105.682	79.999	19.997	100.770	20.020	0.660	0.048
17.500	105.681	79.998	19.997	100.768	20.015	1.035	0.027
18.000	105.712	79.998	19.998	100.768	20.016	0.918	0.023
18.500	105.711	79.999	19.996	100.770	20.016	0.959	0.030
19.000	105.741	79.999	19.997	100.769	20.017	0.876	0.030
19.500	105.759	79.998	19.996	100.768	20.011	1.291	0.038
20.000	105.810	79.998	19.996	100.774	20.013	1.174	0.059
20.500	105.852	79.999	19.997	100.783	20.015	1.020	0.081
21.000	105.862	79.998	19.997	100.793	20.014	1.117	0.072
21.500	105.915	80.001	19.997	100.803	20.011	1.296	0.058
22.000	105.938	79.998	19.997	100.811	20.008	1.532	0.070
22.500	105.947	80.000	19.997	100.818	20.004	1.754	0.054
23.000	105.997	80.000	19.997	100.821	20.009	1.417	0.045
23.500	106.012	79.999	19.996	100.821	20.007	1.536	0.061
24.000	106.075	79.999	19.997	100.822	20.008	1.534	0.071
24.500	106.126	80.000	19.998	100.827	20.004	1.788	0.096
25.000	106.146	80.001	19.999	100.835	19.998	2.197	0.093
25.500	106.250	80.000	19.998	100.842	20.001	2.011	0.098
26.000	106.303	80.000	19.997	100.849	20.000	2.067	0.140
26.500	106.287	80.001	19.997	100.853	19.996	2.309	0.097
27.000	106.339	79.999	19.997	100.855	20.001	1.990	0.037
27.500	106.386	79.999	19.997	100.854	19.998	2.162	0.068
28.000	106.433	79.998	19.997	100.855	19.998	2.226	0.097
28.500	106.528	80.000	19.998	100.856	20.001	1.983	0.118
29.000	106.562	80.001	19.997	100.858	19.998	2.160	0.136
29.500	106.611	79.999	19.997	100.858	19.996	2.337	0.106
30.000	106.667	80.002	19.997	100.857	20.000	2.049	0.094
30.500	106.750	80.000	19.997	100.857	19.998	2.194	0.122
31.000	106.775	80.000	19.998	100.854	19.993	2.537	0.123
31.500	106.895	79.998	19.996	100.849	19.999	2.126	0.126
32.000	106.954	80.000	19.996	100.846	19.995	2.392	0.162
32.500	107.021	79.999	19.996	100.844	19.997	2.286	0.153
33.000	107.051	79.999	19.996	100.840	20.000	2.083	0.112
33.500	107.136	80.000	19.996	100.842	19.997	2.292	0.106
34.000	107.207	80.000	19.996	100.842	19.996	2.355	0.135
34.500	107.295	79.998	19.996	100.837	19.999	2.157	0.158
35.000	107.325	79.999	19.995	100.834	19.994	2.483	0.138
35.500	107.449	79.998	19.996	100.838	19.998	2.179	0.136
36.000	107.519	79.998	19.996	100.838	19.992	2.592	0.174
36.500	107.576	79.998	19.998	100.843	19.995	2.413	0.161
37.000	107.688	79.998	19.997	100.851	19.995	2.377	0.149
37.500	107.771	79.998	19.996	100.858	19.997	2.257	0.182
38.000	107.823	79.999	19.996	100.859	19.996	2.364	0.165
38.500	107.895	79.999	19.996	100.860	19.992	2.579	0.129
39.000	107.989	79.998	19.996	100.862	19.994	2.487	0.145
39.500	108.006	79.998	19.996	100.870	19.995	2.370	0.139
40.000	108.147	79.997	19.996	100.877	19.996	2.325	0.135
40.500	108.256	79.997	19.997	100.878	19.991	2.705	0.204
41.000	108.348	79.998	19.998	100.878	19.993	2.555	0.226
41.501	108.479	79.996	19.998	100.877	19.997	2.298	0.212
42.001	108.489	79.997	19.995	100.869	19.995	2.381	0.182
42.500	108.620	79.998	19.996	100.863	19.990	2.773	0.141
43.000	108.695	79.996	19.995	100.865	19.993	2.568	0.174
43.500	108.823	79.998	19.995	100.871	19.989	2.809	0.204
44.001	108.880	79.997	19.996	100.877	19.990	2.779	0.194
44.501	108.989	79.998	19.996	100.885	19.989	2.802	0.176
45.001	109.108	79.997	19.995	100.892	19.992	2.617	0.197
45.501	109.199	79.998	19.996	100.896	19.990	2.764	0.219
46.001	109.317	79.999	19.996	100.894	19.986	3.007	0.210
46.501	109.467	79.998	19.996	100.892	19.984	3.190	0.239
47.001	109.546	79.998	19.996	100.886	19.989	2.794	0.248
47.501	109.647	79.998	19.996	100.882	19.986	3.026	0.204
48.001	109.751	79.998	19.996	100.882	19.988	2.866	0.193
48.501	109.877	79.998	19.996	100.887	19.984	3.177	0.218
49.001	109.966	79.997	19.996	100.890	19.987	2.979	0.222
49.500	110.098	79.999	19.996	100.894	19.986	3.055	0.218
50.000	110.205	79.999	19.996	100.898	19.989	2.789	0.230
50.500	110.330	79.998	19.997	100.896	19.987	2.924	0.235
51.000	110.417	79.999	19.997	100.893	19.990	2.726	0.222
51.500	110.546	79.998	19.995	100.893	19.986	3.030	0.214
52.000	110.660	79.999	19.997	100.890	19.989	2.838	0.229
52.500	110.754	79.998	19.996	100.889	19.986	2.992	0.226
53.000	110.903	79.998	19.996	100.892	19.983	3.247	0.226
53.500	111.026	79.999	19.995	100.896	19.984	3.179	0.258
54.000	111.151	79.998	19.996	100.897	19.988	2.875	0.260
54.500	111.293	79.998	19.997	100.902	19.985	3.126	0.257
55.000	111.397	79.999	19.995	100.902	19.984	3.168	0.256
55.500	111.546	79.999	19.997	100.901	19.986	3.000	0.249
56.000	111.685	79.999	19.996	100.901	19.985	3.100	0.271
56.500	111.800	79.998	19.997	100.901	19.986	3.038	0.271
57.000	111.912	79.998	19.996	100.901	19.985	3.102	0.240
57.500	112.083	80.000	19.996	100.903	19.984	3.177	0.255
58.000	112.165	79.999	19.996	100.905	19.981	3.405	0.268
58.500	112.312	79.999	19.996	100.909	19.981	3.373	0.241
59.000	112.440	79.999	19.997	100.910	19.984	3.196	0.252
59.500	112.608	79.998	19.997	100.910	19.982	3.334	0.286
60.000	112.739	79.998	19.995	100.909	19.988	2.909	0.298
60.500	112.839	79.998	19.995	100.908	19.985	3.090	0.265
61.000	112.991	79.997	19.996	100.904	19.981	3.355	0.241
61.500	113.152	79.999	19.996	100.904	19.986	3.055	0.282
62.000	113.291	79.997	19.996	100.903	19.980	3.411	0.306
62.500	113.441	79.998	19.996	100.904	19.983	3.251	0.295
63.000	113.578	79.997	19.996	100.904	19.985	3.083	0.288
63.500	113.744	79.997	19.995	100.904	19.983	3.255	0.295
64.000	113.900	79.996	19.996	100.904	19.984	3.140	0.313
64.500	114.028	79.998	19.996	100.904	19.984	3.153	0.303
65.000	114.205	79.998	19.996	100.905	19.983	3.253	0.294
65.501	114.372	79.997	19.996	100.905	19.986	2.993	0.324
66.001	114.538	79.998	19.996	100.909	19.986	3.053	0.339
66.500	114.695	79.998	19.995	100.916	19.981	3.340	0.328
67.000	114.815	79.997	19.995	100.919	19.982	3.306	0.300
67.500	114.970	79.998	19.996	100.919	19.980	3.440	0.276
68.000	115.161	79.999	19.996	100.918	19.982	3.294	0.310
68.500	115.315	79.997	19.996	100.915	19.983	3.228	0.346
69.001	115.465	79.998	19.995	100.906	19.983	3.208	0.325
69.501	115.619	79.998	19.996	100.903	19.980	3.444	0.304
70.000	115.811	79.999	19.996	100.903	19.985	3.116	0.325
70.501	115.962	79.997	19.996	100.902	19.984	3.150	0.345
71.001	116.141	79.999	19.997	100.902	19.982	3.302	0.336
71.501	116.302	79.997	19.996	100.905	19.983	3.270	0.335
72.000	116.446	79.996	19.996	100.909	19.984	3.138	0.322
72.500	116.584	79.997	19.996	100.909	19.982	3.276	0.293
73.000	116.776	79.997	19.996	100.909	19.986	3.017	0.306
73.500	116.969	79.999	19.997	100.909	19.988	2.923	0.358
74.000	117.111	79.998	19.996	100.907	19.985	3.089	0.360
74.500	117.282	79.997	19.996	100.907	19.981	3.346	0.324
75.000	117.436	79.997	19.996	100.910	19.985	3.116	0.319
75.500	117.632	79.998	19.995	100.910	19.987	2.965	0.337
76.000	117.783	79.997	19.995	100.912	19.987	2.984	0.349
76.500	117.944	79.998	19.996	100.914	19.985	3.106	0.330
77.000	118.166	79.998	19.995	100.916	19.984	3.182	0.347
77.500	118.349	79.998	19.996	100.915	19.984	3.146	0.394
78.000	118.516	79.996	19.996	100.917	19.983	3.214	0.378
78.500	118.710	79.999	19.997	100.916	19.989	2.797	0.356
79.000	118.872	80.000	19.996	100.916	19.988	2.874	0.358
79.500	119.074	79.999	19.995	100.915	19.987	2.985	0.360
80.000	119.229	80.000	19.996	100.916	19.984	3.174	0.361
80.500	119.434	79.999	19.997	100.920	19.985	3.085	0.358
81.000	119.583	79.997	19.996	100.923	19.987	2.934	0.357
81.500	119.789	80.000	19.998	100.926	19.990	2.780	0.355
82.000	119.946	80.001	19.997	100.925	19.984	3.157	0.360
82.500	120.118	80.000	19.997	100.925	19.988	2.917	0.346
83.000	120.328	79.999	19.997	100.923	19.990	2.755	0.356
83.500	120.524	80.000	19.998	100.918	19.989	2.829	0.393
84.000	120.693	79.999	19.997	100.916	19.986	3.040	0.385
84.500	120.896	79.998	19.999	100.917	19.987	2.950	0.369
85.000	121.092	79.999	19.996	100.918	19.987	2.944	0.386
85.500	121.301	79.998	19.997	100.922	19.983	3.208	0.402
86.000	121.478	79.999	19.996	100.925	19.983	3.210	0.396
86.500	121.687	79.999	19.998	100.929	19.987	2.956	0.386
87.000	121.891	79.998	19.997	100.931	19.988	2.914	0.399
87.500	122.059	79.999	19.997	100.932	19.986	3.014	0.392
88.000	122.274	79.998	19.997	100.927	19.984	3.180	0.377
88.500	122.469	79.997	19.997	100.926	19.987	2.944	0.397
89.000	122.652	79.999	19.997	100.924	19.984	3.138	0.394
89.500	122.885	80.000	19.997	100.922	19.982	3.276	0.397
90.000	123.048	79.999	19.996	100.922	19.985	3.117	0.406
90.501	123.244	79.998	19.997	100.924	19.985	3.099	0.377
91.001	123.442	79.997	19.997	100.924	19.986	3.053	0.376
91.500	123.645	79.999	19.997	100.923	19.985	3.080	0.397
92.000	123.846	79.999	19.997	100.918	19.982	3.287	0.402
92.500	124.093	80.000	19.996	100.913	19.986	3.040	0.426
93.000	124.227	79.999	19.997	100.910	19.983	3.223	0.415
93.500	124.499	80.000	19.998	100.912	19.985	3.065	0.393
94.000	124.687	79.998	19.997	100.911	19.981	3.374	0.433
94.500	124.857	80.000	19.997	100.914	19.984	3.174	0.409
95.000	125.095	79.998	19.996	100.918	19.982	3.291	0.383
95.500	125.297	79.998	19.997	100.923	19.982	3.300	0.424
96.000	125.509	79.997	19.996	100.924	19.986	3.042	0.427
96.500	125.695	79.999	19.997	100.929	19.984	3.197	0.406
97.000	125.905	80.000	19.996	100.933	19.984	3.176	0.397
97.500	126.133	80.000	19.997	100.935	19.987	2.985	0.417
98.000	126.351	79.996	19.996	100.934	19.983	3.248	0.442
98.500	126.554	79.998	19.996	100.934	19.986	3.052	0.433
99.000	126.748	79.999	19.996	100.929	19.983	3.220	0.409
99.500	126.916	80.000	19.997	100.926	19.985	3.078	0.380
100.000	127.139	79.998	19.997	100.924	19.987	2.965	0.377
100.500	127.383	80.000	19.996	100.925	19.988	2.897	0.429
101.000	127.606	79.998	19.995	100.925	19.984	3.172	0.467
101.500	127.778	79.999	19.996	100.929	19.984	3.146	0.431
102.000	128.010	80.001	19.996	100.928	19.986	3.027	0.399
102.501	128.207	79.999	19.996	100.926	19.984	3.133	0.417
103.001	128.417	79.997	19.995	100.925	19.978	3.551	0.418
103.501	128.655	79.999	19.996	100.925	19.983	3.204	0.428
104.001	128.855	79.999	19.996	100.926	19.985	3.072	0.443
104.500	129.101	80.000	19.996	100.930	19.987	2.959	0.442
105.000	129.284	80.000	19.997	100.933	19.986	3.016	0.437
105.500	129.530	79.999	19.998	100.935	19.983	3.218	0.429
106.000	129.743	79.999	19.996	100.930	19.983	3.223	0.444
106.500	129.963	79.998	19.995	100.927	19.985	3.101	0.446
107.000	130.186	79.999	19.997	100.925	19.983	3.248	0.439
107.500	130.407	79.998	19.996	100.922	19.979	3.480	0.443
108.000	130.633	80.000	19.997	100.922	19.985	3.106	0.445
108.500	130.804	80.000	19.996	100.926	19.984	3.174	0.422
109.000	131.039	80.000	19.996	100.930	19.984	3.155	0.402
109.500	131.246	79.999	19.998	100.932	19.984	3.184	0.424
110.001	131.483	80.000	19.997	100.936	19.982	3.329	0.443
110.501	131.721	79.999	19.996	100.938	19.983	3.225	0.459
111.001	131.939	80.002	19.997	100.936	19.986	3.036	0.466
111.501	132.174	79.998	19.996	100.934	19.982	3.272	0.455
112.001	132.382	79.999	19.998	100.933	19.979	3.498	0.448
112.500	132.655	79.999	19.997	100.933	19.982	3.272	0.462
113.000	132.861	79.997	19.996	100.934	19.986	2.995	0.480
113.500	133.080	79.999	19.996	100.931	19.984	3.184	0.452
114.000	133.281	80.000	19.998	100.928	19.985	3.069	0.423
114.500	133.555	79.999	19.996	100.928	19.985	3.131	0.447
115.000	133.775	80.000	19.996	100.927	19.986	3.025	0.484
115.500	133.993	79.998	19.998	100.926	19.986	3.050	0.466
116.000	134.175	79.998	19.997	100.930	19.984	3.161	0.419
116.500	134.410	79.998	19.997	100.931	19.989	2.818	0.409
117.000	134.628	79.998	19.997	100.931	19.984	3.155	0.435
117.500	134.890	79.997	19.997	100.931	19.984	3.170	0.467
118.000	135.147	79.997	19.996	100.931	19.989	2.836	0.499
118.500	135.364	79.996	19.996	100.931	19.985	3.081	0.496
119.000	135.568	79.996	19.997	100.933	19.986	3.034	0.448
119.500	135.769	79.996	19.997	100.935	19.984	3.145	0.413
120.000	136.000	79.996	19.996	100.931	19.985	3.123	0.419
120.500	136.258	79.997	19.998	100.930	19.986	2.997	0.461
121.000	136.506	79.997	19.997	100.928	19.989	2.827	0.498
121.500	136.684	79.997	19.998	100.926	19.988	2.905	0.466
122.000	136.921	79.996	19.999	100.921	19.986	2.993	0.420
122.500	137.220	79.997	19.996	100.925	19.988	2.882	0.475
123.000	137.451	79.998	19.997	100.926	19.988	2.867	0.533
123.500	137.666	79.997	19.996	100.928	19.989	2.793	0.488
124.000	137.895	79.997	19.997	100.931	19.986	3.059	0.445
124.500	138.136	79.998	19.996	100.933	19.986	3.032	0.456
125.001	138.387	79.997	19.996	100.933	19.988	2.889	0.481
125.501	138.580	79.998	19.995	100.931	19.986	3.059	0.468
126.001	138.806	79.997	19.997	100.929	19.989	2.842	0.432
126.501	139.046	79.998	19.997	100.927	19.990	2.769	0.443
127.001	139.311	79.997	19.997	100.926	19.986	2.999	0.486
127.500	139.501	79.997	19.995	100.927	19.990	2.753	0.480
128.000	139.757	79.997	19.995	100.926	19.988	2.874	0.450
128.500	139.993	79.997	19.995	100.922	19.985	3.079	0.469
129.000	140.252	79.999	19.996	100.920	19.987	2.927	0.493
129.500	140.478	79.997	19.995	100.919	19.989	2.844	0.490
130.000	140.723	79.998	19.996	100.914	19.987	2.976	0.478
130.500	141.008	79.997	19.996	100.916	19.984	3.198	0.501
131.000	141.219	79.998	19.996	100.921	19.984	3.149	0.513
131.500	141.448	79.997	19.996	100.923	19.985	3.126	0.468
132.000	141.694	79.996	19.996	100.928	19.985	3.092	0.458
132.500	141.934	79.997	19.996	100.933	19.988	2.904	0.481
133.000	142.155	79.997	19.995	100.935	19.985	3.068	0.474
133.500	142.407	79.998	19.996	100.932	19.982	3.321	0.467
134.000	142.626	79.998	19.996	100.930	19.987	2.951	0.472
134.500	142.845	79.996	19.995	100.928	19.986	2.998	0.454
135.000	143.143	79.997	19.996	100.921	19.981	3.360	0.477
135.500	143.379	79.997	19.995	100.921	19.981	3.358	0.525
136.000	143.625	79.998	19.996	100.923	19.987	2.955	0.509
136.500	143.919	79.997	19.997	100.927	19.987	2.938	0.511
137.000	144.126	79.998	19.996	100.929	19.987	2.975	0.520
137.500	144.378	79.998	19.996	100.930	19.986	3.043	0.480
138.000	144.622	79.998	19.996	100.928	19.988	2.887	0.478
138.500	144.841	79.998	19.997	100.923	19.984	3.145	0.479
139.000	145.146	79.999	19.997	100.918	19.989	2.830	0.493
139.500	145.370	79.998	19.996	100.916	19.990	2.732	0.526
140.000	145.623	79.998	19.996	100.914	19.991	2.647	0.503
140.500	145.847	79.999	19.997	100.913	19.987	2.940	0.477
141.000	146.107	79.999	19.996	100.913	19.990	2.762	0.480
141.500	146.326	80.000	19.997	100.913	19.988	2.881	0.482
142.000	146.595	79.998	19.997	100.912	19.985	3.076	0.484
142.500	146.798	79.998	19.997	100.912	19.985	3.070	0.480
143.000	147.073	79.998	19.996	100.910	19.987	2.983	0.475
143.500	147.286	79.998	19.996	100.911	19.984	3.160	0.483
144.000	147.524	79.997	19.996	100.911	19.982	3.286	0.469
144.500	147.789	79.998	19.995	100.908	19.986	3.015	0.477
145.000	148.010	79.997	19.996	100.907	19.989	2.836	0.495
145.500	148.255	80.000	19.997	100.905	19.987	2.945	0.476
146.000	148.599	79.997	19.995	100.906	19.985	3.122	0.528
146.500	148.773	79.997	19.997	100.905	19.985	3.117	0.554
147.000	149.072	79.997	19.997	100.904	19.990	2.776	0.496
147.500	149.259	79.998	19.996	100.904	19.990	2.723	0.480
148.000	149.523	79.999	19.995	100.905	19.990	2.776	0.468
148.500	149.746	79.996	19.996	100.903	19.990	2.755	0.468
149.001	150.031	79.997	19.996	100.903	19.987	2.962	0.497
149.501	150.247	79.997	19.996	100.903	19.985	3.122	0.505
150.000	150.528	79.998	19.998	100.903	19.989	2.804	0.499
150.500	150.787	79.997	19.996	100.904	19.987	2.970	0.518
151.000	151.030	79.996	19.996	100.907	19.987	2.975	0.521
151.500	151.267	79.997	19.997	100.909	19.988	2.902	0.491
152.000	151.527	79.997	19.996	100.909	19.991	2.698	0.489
152.500	151.745	79.998	19.996	100.912	19.991	2.700	0.488
153.000	152.007	79.997	19.997	100.910	19.991	2.702	0.479
153.500	152.292	79.997	19.996	100.906	19.989	2.787	0.514
154.000	152.545	79.997	19.996	100.904	19.991	2.702	0.542
154.500	152.794	79.997	19.996	100.904	19.987	2.960	0.520
155.000	153.041	79.998	19.996	100.902	19.990	2.740	0.499
155.500	153.259	79.997	19.997	100.902	19.987	2.962	0.480
156.000	153.491	79.998	19.996	100.902	19.988	2.921	0.457
156.500	153.729	79.998	19.996	100.903	19.993	2.521	0.460
157.000	154.006	79.998	19.996	100.905	19.994	2.478	0.493
157.500	154.208	79.998	19.996	100.905	19.988	2.887	0.498
158.000	154.471	79.999	19.996	100.905	19.990	2.747	0.472
158.500	154.709	80.000	19.996	100.904	19.989	2.787	0.483
159.000	154.944	79.998	19.996	100.903	19.988	2.909	0.487
159.500	155.212	79.999	19.996	100.901	19.992	2.615	0.488
160.000	155.477	80.000	19.997	100.901	19.994	2.466	0.518
160.500	155.731	80.000	19.996	100.901	19.991	2.666	0.526
161.000	156.010	79.999	19.995	100.901	19.988	2.907	0.526
161.500	156.211	80.000	19.996	100.902	19.993	2.568	0.506
162.000	156.463	80.001	19.996	100.902	19.994	2.478	0.466
162.500	156.742	80.000	19.995	100.902	19.995	2.421	0.492
163.000	156.945	80.000	19.996	100.906	19.991	2.651	0.507
163.500	157.205	80.001	19.996	100.907	19.994	2.457	0.472
164.000	157.450	80.001	19.997	100.908	19.993	2.568	0.484
164.500	157.740	80.000	19.996	100.909	19.995	2.385	0.520
165.000	157.966	80.001	19.997	100.909	19.994	2.440	0.526
165.500	158.191	80.000	19.995	100.905	19.991	2.708	0.484
166.000	158.484	79.999	19.997	100.903	19.997	2.232	0.484
166.500	158.709	80.001	19.995	100.902	19.992	2.638	0.517
167.000	159.008	80.000	19.996	100.902	19.997	2.281	0.521
167.500	159.237	79.998	19.995	100.901	19.998	2.202	0.526
168.000	159.485	80.000	19.996	100.901	19.999	2.157	0.502
168.500	159.734	79.999	19.995	100.902	20.001	2.006	0.487
169.000	159.975	80.001	19.996	100.902	19.997	2.264	0.494
169.500	160.254	79.999	19.996	100.901	19.998	2.215	0.505
170.000	160.450	79.998	19.996	100.902	19.996	2.338	0.498
170.500	160.750	79.999	19.996	100.902	19.994	2.481	0.486
171.000	160.971	79.999	19.995	100.902	19.999	2.097	0.509
171.500	161.259	79.999	19.996	100.902	19.996	2.332	0.515
172.000	161.477	79.998	19.995	100.903	19.997	2.281	0.507
172.500	161.743	80.000	19.996	100.902	19.997	2.240	0.495
173.000	161.976	79.999	19.996	100.902	19.998	2.217	0.491
173.500	162.259	79.998	19.995	100.901	19.996	2.306	0.507
174.000	162.519	80.000	19.996	100.902	20.000	2.044	0.529
174.500	162.741	79.998	19.996	100.902	19.997	2.257	0.512
175.000	162.957	79.998	19.996	100.902	19.996	2.310	0.460
175.500	163.205	79.997	19.997	100.902	19.999	2.131	0.451
176.000	163.469	79.999	19.997	100.902	19.997	2.291	0.488
176.500	163.744	79.999	19.996	100.899	19.997	2.261	0.526
177.000	163.997	79.999	19.996	100.900	19.998	2.204	0.534
177.500	164.249	79.999	19.996	100.900	19.999	2.123	0.517
178.000	164.512	79.997	19.995	100.898	19.993	2.555	0.510
178.500	164.755	79.998	19.997	100.899	19.998	2.225	0.510
179.001	165.001	79.998	19.996	100.902	20.001	2.010	0.498
179.500	165.237	79.997	19.997	100.901	19.995	2.379	0.486
180.000	165.535	79.998	19.997	100.902	19.998	2.164	0.508
180.500	165.757	79.998	19.995	100.903	19.998	2.200	0.527
181.000	166.009	79.999	19.996	100.903	19.997	2.297	0.497
181.500	166.296	79.999	19.997	100.901	19.998	2.215	0.507
182.000	166.518	79.999	19.996	100.901	19.999	2.134	0.524
182.500	166.779	79.998	19.996	100.901	19.997	2.291	0.495
183.000	167.034	79.998	19.997	100.901	19.998	2.204	0.499
183.500	167.271	80.000	19.997	100.902	19.999	2.106	0.504
184.000	167.535	80.000	19.996	100.904	19.999	2.100	0.497
184.500	167.753	79.999	19.997	100.904	19.998	2.225	0.491
185.000	168.003	80.000	19.997	100.904	19.997	2.251	0.475
185.500	168.255	80.000	19.997	100.903	19.997	2.247	0.485
186.000	168.474	79.998	19.997	100.902	20.000	2.027	0.487
186.500	168.698	79.999	19.995	100.902	20.000	2.078	0.457
187.000	168.990	80.000	19.997	100.902	20.001	1.989	0.479
187.500	169.233	79.999	19.996	100.901	19.998	2.183	0.526
188.001	169.507	80.000	19.996	100.899	20.000	2.081	0.526
188.500	169.755	79.999	19.996	100.898	19.997	2.274	0.519
189.000	169.981	80.000	19.997	100.894	20.000	2.042	0.498
189.500	170.241	79.999	19.996	100.894	20.000	2.027	0.480
190.000	170.473	79.999	19.996	100.895	19.998	2.181	0.489
190.500	170.702	80.000	19.996	100.897	19.997	2.279	0.476
191.000	170.933	80.001	19.996	100.898	19.997	2.245	0.460
191.500	171.238	80.000	19.996	100.900	19.999	2.157	0.498
192.001	171.446	80.001	19.995	100.900	20.000	2.023	0.525
192.501	171.692	80.000	19.994	100.899	20.001	1.991	0.484
193.000	171.979	80.001	19.996	100.895	19.998	2.170	0.494
193.500	172.212	79.999	19.996	100.890	19.999	2.117	0.527
194.000	172.450	79.999	19.996	100.887	19.995	2.402	0.495
194.500	172.700	80.000	19.996	100.885	19.997	2.232	0.479
195.000	172.952	79.999	19.995	100.883	20.001	1.981	0.495
195.500	173.175	79.999	19.996	100.887	19.999	2.142	0.489
196.000	173.418	79.998	19.996	100.893	19.998	2.195	0.471
196.500	173.683	79.998	19.995	100.897	19.998	2.212	0.487
197.000	173.910	79.997	19.997	100.896	20.002	1.931	0.500
197.500	174.184	79.998	19.996	100.897	20.004	1.751	0.497
198.000	174.410	79.997	19.995	100.895	20.002	1.927	0.501
198.500	174.672	79.998	19.995	100.894	20.002	1.919	0.494
199.000	174.865	79.999	19.997	100.892	20.001	1.975	0.471
199.500	175.181	79.998	19.996	100.895	20.000	2.062	0.482
200.000	175.426	79.999	19.996	100.894	20.001	1.974	0.535
200.500	175.664	79.999	19.997	100.891	19.999	2.134	0.522
201.000	175.869	80.000	19.994	100.886	19.998	2.202	0.463
201.500	176.150	79.999	19.997	100.883	20.002	1.945	0.465
202.000	176.391	79.999	19.997	100.883	20.000	2.083	0.504
202.500	176.602	79.998	19.997	100.884	20.000	2.079	0.487
203.000	176.882	79.999	19.997	100.882	19.999	2.123	0.471
203.500	177.104	79.998	19.997	100.885	20.008	1.516	0.497
204.000	177.340	79.997	19.997	100.887	20.000	2.055	0.480
204.500	177.606	79.998	19.997	100.885	20.002	1.919	0.480
205.000	177.803	79.999	19.996	100.881	20.003	1.829	0.482
205.500	178.062	79.998	19.998	100.886	19.998	2.164	0.459
206.000	178.333	79.997	19.998	100.888	20.002	1.893	0.493
206.500	178.550	79.999	19.997	100.891	20.000	2.045	0.509
207.000	178.809	79.997	19.997	100.892	20.004	1.806	0.482
207.500	179.052	79.998	19.996	100.896	20.002	1.934	0.489
208.000	179.313	79.997	19.998	100.895	20.004	1.783	0.503
208.500	179.508	79.996	19.997	100.889	20.000	2.081	0.480
209.000	179.787	79.998	19.997	100.885	19.999	2.113	0.465
209.500	180.016	79.999	19.998	100.879	20.002	1.904	0.491
210.000	180.293	79.998	19.998	100.872	20.000	2.036	0.506
210.500	180.522	79.997	19.997	100.872	20.002	1.917	0.506
211.000	180.784	79.998	19.997	100.877	20.000	2.030	0.499
211.501	181.030	79.997	19.997	100.876	20.000	2.043	0.500
212.001	181.264	79.998	19.997	100.880	20.003	1.830	0.494
212.500	181.529	79.998	19.998	100.882	20.000	2.057	0.489
213.000	181.725	79.997	19.997	100.879	20.000	2.064	0.480
213.500	181.986	79.998	19.997	100.874	20.000	2.036	0.459
214.000	182.204	80.000	19.997	100.877	20.000	2.047	0.468
214.500	182.452	79.998	19.997	100.877	19.996	2.323	0.472
215.000	182.687	79.999	19.997	100.880	20.000	2.042	0.475
215.500	182.924	79.998	19.997	100.877	20.003	1.828	0.478
216.000	183.200	79.998	19.996	100.883	20.001	1.966	0.493
216.500	183.419	79.999	19.997	100.880	19.998	2.179	0.504
217.000	183.697	79.999	19.997	100.877	19.998	2.205	0.496
217.500	183.924	79.999	19.997	100.873	20.000	2.070	0.501
218.000	184.156	79.999	19.996	100.874	20.000	2.034	0.482
218.500	184.388	79.998	19.997	100.867	19.998	2.173	0.461
219.000	184.637	79.999	19.997	100.869	19.999	2.090	0.472
219.500	184.916	79.998	19.997	100.872	20.000	2.062	0.504
220.000	185.140	79.997	19.996	100.876	19.998	2.228	0.516
220.500	185.372	79.998	19.996	100.877	19.999	2.156	0.480
221.000	185.644	79.999	19.996	100.880	19.997	2.252	0.480
221.500	185.916	80.000	19.996	100.882	19.999	2.103	0.524
222.000	186.144	79.999	19.996	100.881	19.998	2.213	0.522
222.500	186.411	79.999	19.996	100.880	19.995	2.413	0.498
223.000	186.653	79.999	19.996	100.878	19.998	2.194	0.502
223.500	186.899	79.999	19.995	100.878	20.001	1.979	0.499
224.000	187.154	79.998	19.997	100.881	19.999	2.134	0.495
224.500	187.389	79.998	19.997	100.883	20.001	2.000	0.496
225.001	187.637	79.998	19.997	100.882	19.999	2.128	0.486
225.500	187.884	79.998	19.996	100.882	20.001	1.958	0.489
226.000	188.085	79.998	19.996	100.879	20.003	1.879	0.472
226.500	188.335	79.999	19.997	100.877	20.001	1.983	0.449
227.000	188.598	79.998	19.995	100.874	20.002	1.913	0.482
227.500	188.854	79.999	19.996	100.872	19.999	2.117	0.516
228.000	189.035	79.998	19.996	100.873	20.000	2.081	0.478
228.500	189.297	79.998	19.996	100.875	20.000	2.066	0.440
229.000	189.535	79.998	19.996	100.870	19.998	2.209	0.472
229.500	189.792	79.997	19.997	100.869	19.997	2.234	0.498
230.000	190.023	79.998	19.996	100.869	19.999	2.096	0.492
230.500	190.321	79.998	19.995	100.867	20.003	1.877	0.508
231.000	190.547	79.997	19.996	100.864	20.004	1.781	0.526
231.500	190.792	79.997	19.998	100.864	20.003	1.845	0.497
232.000	190.997	79.998	19.996	100.863	20.005	1.691	0.461
232.500	191.254	79.997	19.995	100.864	20.003	1.817	0.456
233.000	191.460	79.997	19.995	100.864	20.008	1.519	0.462
233.500	191.756	79.997	19.997	100.864	20.005	1.725	0.482
234.000	191.932	79.997	19.997	100.864	20.003	1.866	0.487
234.500	192.231	79.997	19.997	100.866	20.001	1.968	0.474
235.000	192.441	79.997	19.997	100.865	20.005	1.700	0.492
235.500	192.707	79.997	19.996	100.865	20.004	1.785	0.493
236.000	192.914	79.999	19.996	100.866	20.004	1.768	0.475
236.500	193.174	79.998	19.997	100.867	20.002	1.947	0.470
237.000	193.441	79.998	19.996	100.865	20.007	1.547	0.497
237.500	193.666	79.996	19.996	100.865	20.004	1.808	0.509
238.000	193.919	79.997	19.997	100.866	20.006	1.613	0.485
238.500	194.161	79.998	19.996	100.866	20.001	1.973	0.487
239.000	194.386	79.997	19.996	100.869	20.003	1.817	0.481
239.500	194.665	79.998	19.996	100.869	20.004	1.774	0.486
240.001	194.890	80.000	19.996	100.869	20.004	1.762	0.505
240.500	195.176	79.999	19.997	100.868	20.003	1.858	0.508
241.000	195.393	79.998	19.996	100.868	20.002	1.883	0.507
241.500	195.570	79.997	19.996	100.866	20.002	1.898	0.448
242.000	195.803	79.998	19.996	100.866	20.005	1.691	0.402
242.500	196.022	79.999	19.996	100.866	20.004	1.791	0.431
243.000	196.296	79.999	19.998	100.867	20.003	1.813	0.472
243.500	196.541	80.000	19.997	100.867	20.006	1.613	0.506
244.000	196.863	79.999	19.995	100.867	20.003	1.855	0.543
244.500	197.042	79.999	19.995	100.868	20.004	1.749	0.534
245.000	197.297	79.999	19.996	100.868	20.003	1.874	0.467
245.500	197.526	79.999	19.996	100.867	20.003	1.853	0.459
246.000	197.824	80.001	19.996	100.867	20.004	1.794	0.505
246.500	198.053	79.999	19.996	100.866	20.003	1.872	0.527
247.000	198.346	79.999	19.996	100.864	19.999	2.098	0.525
247.500	198.588	79.999	19.997	100.864	20.005	1.710	0.528
248.000	198.783	79.998	19.996	100.864	20.001	1.960	0.486
248.500	199.059	79.999	19.996	100.864	20.001	1.970	0.454
249.000	199.271	79.999	19.996	100.864	20.005	1.738	0.479
249.500	199.538	80.000	19.996	100.863	20.003	1.853	0.483
250.000	199.757	80.000	19.994	100.863	20.006	1.630	0.483
250.500	199.963	80.000	19.997	100.862	20.004	1.796	0.456
251.000	200.233	80.000	19.995	100.862	20.003	1.840	0.451
251.500	200.439	80.001	19.997	100.862	20.003	1.877	0.476
252.000	200.658	79.999	19.996	100.865	20.005	1.702	0.451
252.500	200.919	80.000	19.995	100.866	20.001	1.993	0.453
253.000	201.217	80.000	19.997	100.866	20.005	1.727	0.519
253.500	201.431	79.999	19.996	100.867	20.003	1.851	0.535
254.000	201.695	79.998	19.995	100.867	20.002	1.947	0.495
254.500	201.930	79.998	19.996	100.865	20.003	1.847	0.489
255.000	202.143	79.999	19.995	100.865	20.002	1.908	0.474
255.500	202.405	79.998	19.995	100.865	20.002	1.932	0.461
256.000	202.622	79.999	19.996	100.866	20.000	2.062	0.477
256.500	202.888	79.999	19.995	100.866	20.002	1.909	0.481
257.000	203.143	79.999	19.995	100.866	20.002	1.909	0.502
257.500	203.400	79.999	19.995	100.866	20.005	1.719	0.516
258.000	203.597	79.998	19.995	100.866	20.000	2.047	0.483
258.500	203.819	79.998	19.995	100.867	20.002	1.894	0.436
259.000	204.076	79.999	19.996	100.866	20.005	1.732	0.449
259.500	204.347	79.999	19.996	100.867	20.004	1.783	0.504
260.000	204.583	79.998	19.995	100.868	20.003	1.826	0.518
260.500	204.805	79.999	19.996	100.870	20.006	1.657	0.483
261.000	205.073	79.998	19.995	100.869	20.003	1.834	0.474
261.500	205.302	80.000	19.996	100.869	20.003	1.819	0.493
262.000	205.559	80.000	19.996	100.869	20.005	1.683	0.491
262.500	205.779	80.000	19.995	100.869	20.005	1.728	0.482
263.000	206.018	80.001	19.996	100.872	20.003	1.870	0.469
263.500	206.298	79.999	19.996	100.878	20.005	1.713	0.489
264.000	206.516	80.000	19.996	100.881	20.002	1.896	0.508
264.500	206.739	80.001	19.996	100.883	20.001	1.986	0.469
265.000	206.990	80.000	19.997	100.881	20.005	1.719	0.458
265.500	207.233	80.001	19.997	100.876	20.004	1.800	0.484
266.000	207.489	79.998	19.995	100.870	20.007	1.540	0.497
266.500	207.729	80.000	19.996	100.865	20.003	1.843	0.497
267.000	207.968	80.000	19.995	100.862	20.002	1.909	0.488
267.500	208.203	80.000	19.997	100.865	20.003	1.868	0.477
268.000	208.475	80.001	19.997	100.866	20.004	1.751	0.490
268.500	208.703	80.000	19.996	100.866	20.007	1.583	0.503
269.000	208.905	80.000	19.998	100.867	20.004	1.800	0.465
269.500	209.205	80.001	19.996	100.866	20.007	1.572	0.466
270.000	209.413	80.000	19.997	100.863	20.003	1.817	0.505
270.500	209.698	80.001	19.996	100.861	20.002	1.932	0.501
271.000	209.907	80.002	19.997	100.861	20.002	1.902	0.494
271.500	210.163	80.001	19.995	100.861	20.000	2.058	0.480
272.000	210.418	80.000	19.996	100.860	20.004	1.811	0.488
272.500	210.660	80.001	19.996	100.860	20.002	1.930	0.504
273.000	210.905	80.001	19.996	100.859	20.003	1.841	0.492
273.500	211.151	80.001	19.996	100.859	20.003	1.862	0.489
274.000	211.421	79.999	19.996	100.859	20.003	1.819	0.503
274.500	211.661	80.000	19.996	100.858	20.004	1.757	0.513
275.000	211.895	80.001	19.997	100.858	20.001	2.013	0.492
275.500	212.110	80.000	19.997	100.859	20.005	1.677	0.462
276.000	212.390	80.000	19.997	100.861	20.004	1.811	0.472
276.500	212.642	80.001	19.997	100.863	20.004	1.766	0.514
277.000	212.876	80.001	19.997	100.865	20.007	1.574	0.509
277.500	213.129	80.000	19.998	100.865	20.003	1.839	0.487
278.000	213.356	80.000	19.996	100.866	20.006	1.626	0.484
278.500	213.614	79.999	19.996	100.864	20.005	1.696	0.482
279.000	213.863	79.999	19.996	100.862	20.006	1.625	0.496
279.500	214.090	79.998	19.996	100.862	20.005	1.675	0.492
280.000	214.349	79.998	19.997	100.862	20.008	1.510	0.481
280.500	214.587	79.997	19.996	100.862	20.007	1.542	0.491
281.000	214.826	79.998	19.997	100.862	20.006	1.621	0.487
281.500	215.112	79.999	19.997	100.862	20.007	1.553	0.501
282.000	215.324	79.998	19.997	100.862	20.008	1.527	0.512
282.500	215.608	79.999	19.996	100.863	20.008	1.485	0.497
283.000	215.852	80.000	19.997	100.862	20.009	1.451	0.512
283.500	216.070	79.999	19.997	100.863	20.004	1.792	0.495
284.000	216.315	79.999	19.996	100.863	20.009	1.459	0.463
284.500	216.548	79.999	19.996	100.863	20.007	1.559	0.471
285.000	216.796	80.000	19.996	100.862	20.006	1.643	0.479
285.500	217.047	80.000	19.996	100.862	20.006	1.621	0.490
286.001	217.298	79.999	19.997	100.862	20.009	1.430	0.501
286.500	217.575	80.000	19.998	100.862	20.010	1.372	0.515
287.000	217.782	79.997	19.997	100.861	20.007	1.598	0.506
287.500	218.029	79.997	19.997	100.861	20.008	1.513	0.469
288.000	218.296	79.998	19.996	100.860	20.010	1.395	0.483
288.500	218.564	79.998	19.997	100.859	20.007	1.557	0.524
289.000	218.787	79.999	19.997	100.857	20.008	1.534	0.513
289.500	219.067	79.999	19.996	100.857	20.008	1.470	0.498
290.000	219.265	79.997	19.997	100.857	20.008	1.502	0.491
290.500	219.497	79.998	19.997	100.858	20.007	1.570	0.454
291.000	219.785	79.999	19.996	100.860	20.006	1.634	0.475
291.500	220.066	79.998	19.997	100.858	20.005	1.689	0.545
292.000	220.265	79.999	19.996	100.857	20.009	1.400	0.524
292.500	220.561	79.999	19.997	100.854	20.007	1.596	0.487
293.000	220.782	79.999	19.997	100.854	20.007	1.568	0.506
293.500	221.062	79.998	19.997	100.852	20.006	1.660	0.509
294.000	221.277	79.998	19.997	100.854	20.007	1.566	0.497
294.500	221.556	79.998	19.996	100.856	20.006	1.643	0.494
295.000	221.810	79.999	19.996	100.855	20.006	1.643	0.514
295.500	222.060	79.998	19.997	100.853	20.006	1.619	0.519
296.000	222.308	79.999	19.997	100.853	20.005	1.704	0.501
296.500	222.522	79.997	19.996	100.854	20.005	1.713	0.480
297.000	222.825	79.999	19.997	100.851	20.007	1.542	0.490
297.500	223.055	79.997	19.997	100.854	20.008	1.510	0.525
298.000	223.317	79.997	19.997	100.856	20.008	1.521	0.512
298.500	223.534	79.997	19.997	100.856	20.007	1.536	0.485
299.000	223.784	79.998	19.997	100.855	20.011	1.282	0.473
299.500	224.060	79.997	19.997	100.857	20.011	1.282	0.497
300.000	224.269	79.997	19.997	100.857	20.009	1.427	0.505
300.500	224.564	79.998	19.997	100.856	20.004	1.802	0.495
301.000	224.782	79.997	19.999	100.857	20.007	1.555	0.509
301.500	225.029	79.997	19.997	100.856	20.003	1.862	0.489
302.000	225.301	79.998	19.996	100.857	20.011	1.263	0.492
302.500	225.539	79.997	19.997	100.858	20.008	1.534	0.515
303.000	225.796	79.998	19.998	100.857	20.010	1.332	0.503
303.500	226.011	79.998	19.997	100.854	20.012	1.234	0.484
304.000	226.265	79.998	19.997	100.852	20.008	1.494	0.471
304.500	226.504	79.999	19.997	100.847	20.005	1.679	0.481
305.000	226.743	79.999	19.998	100.846	20.009	1.421	0.486
305.500	226.949	79.998	19.997	100.844	20.005	1.736	0.462
306.000	227.243	79.997	19.997	100.848	20.009	1.436	0.472
306.500	227.520	79.998	19.997	100.852	20.008	1.528	0.536
307.000	227.699	79.997	19.996	100.855	20.010	1.357	0.514
307.500	228.011	79.998	19.997	100.855	20.006	1.643	0.474
308.000	228.170	79.997	19.997	100.857	20.006	1.653	0.481
308.500	228.519	79.998	19.996	100.853	20.006	1.660	0.489
309.000	228.744	79.997	19.997	100.853	20.009	1.434	0.540
309.500	229.018	79.999	19.996	100.852	20.008	1.495	0.536
310.000	229.271	79.999	19.997	100.853	20.005	1.700	0.513
310.500	229.519	79.998	19.996	100.855	20.007	1.591	0.514
311.000	229.671	79.996	19.996	100.854	20.007	1.585	0.451
311.501	230.113	79.997	19.997	100.848	20.008	1.480	0.497
312.001	230.124	79.998	19.995	100.850	20.007	1.549	0.523
312.500	230.367	79.997	19.995	100.850	20.008	1.508	0.353
313.000	230.763	79.997	19.996	100.847	20.004	1.749	0.447
313.500	231.248	79.996	19.996	100.848	20.008	1.519	0.760
314.000	231.204	79.998	19.997	100.851	20.007	1.589	0.661
314.500	231.332	79.997	19.997	100.851	20.005	1.700	0.263
315.000	231.727	79.996	19.996	100.851	20.007	1.604	0.304
315.500	231.837	79.996	19.996	100.854	20.006	1.628	0.514
316.000	232.338	79.997	19.996	100.856	20.007	1.551	0.558
316.500	232.354	79.997	19.996	100.852	20.004	1.760	0.564
317.000	232.732	79.998	19.995	100.847	20.008	1.511	0.456
317.500	233.034	79.998	19.995	100.847	20.008	1.470	0.537
318.000	233.219	79.998	19.996	100.845	20.011	1.306	0.583
318.500	233.492	79.997	19.996	100.846	20.006	1.611	0.472
319.000	233.667	79.998	19.996	100.851	20.007	1.551	0.453
319.500	233.904	79.999	19.996	100.856	20.009	1.400	0.430
320.000	234.210	79.997	19.994	100.857	20.007	1.583	0.478
320.500	234.471	79.997	19.996	100.859	20.007	1.564	0.555
321.000	234.723	79.998	19.995	100.860	20.005	1.732	0.540
321.500	234.917	79.999	19.998	100.861	20.010	1.366	0.479
322.000	235.233	79.999	19.996	100.862	20.008	1.517	0.478
322.500	235.444	79.999	19.995	100.863	20.006	1.658	0.519
323.000	235.716	79.999	19.996	100.864	20.011	1.276	0.505
323.500	235.957	79.998	19.995	100.864	20.005	1.685	0.497
324.000	236.180	79.999	19.997	100.862	20.011	1.264	0.488
324.500	236.478	79.999	19.996	100.861	20.011	1.321	0.493
325.000	236.676	79.999	19.995	100.859	20.008	1.472	0.509
325.500	236.930	80.000	19.996	100.859	20.009	1.458	0.474
326.000	237.183	80.000	19.995	100.855	20.012	1.225	0.480
326.500	237.412	80.000	19.995	100.853	20.010	1.370	0.495
327.000	237.669	79.999	19.996	100.848	20.009	1.404	0.484
327.500	237.945	80.001	19.996	100.846	20.010	1.330	0.509
328.000	238.129	80.000	19.996	100.844	20.012	1.246	0.496
328.500	238.426	80.000	19.996	100.847	20.012	1.227	0.470
329.000	238.627	80.000	19.995	100.849	20.009	1.457	0.490
329.500	238.938	80.000	19.997	100.851	20.007	1.564	0.505
330.000	239.153	80.000	19.997	100.852	20.007	1.557	0.519
330.500	239.425	79.999	19.997	100.854	20.006	1.632	0.506
331.000	239.652	80.000	19.996	100.851	20.008	1.506	0.493
331.500	239.925	80.000	19.997	100.846	20.010	1.349	0.500
332.000	240.141	79.999	19.996	100.842	20.010	1.364	0.494
332.500	240.433	80.000	19.996	100.841	20.008	1.528	0.498
333.000	240.666	79.998	19.996	100.841	20.008	1.479	0.517
333.500	240.948	79.999	19.996	100.840	20.010	1.344	0.520
334.000	241.145	79.999	19.996	100.845	20.010	1.387	0.497
334.500	241.339	79.998	19.997	100.851	20.009	1.402	0.435
335.000	241.635	79.998	19.995	100.846	20.008	1.515	0.440
335.500	241.862	80.001	19.995	100.844	20.003	1.824	0.506
336.000	242.115	79.998	19.996	100.839	20.003	1.820	0.502
336.500	242.388	80.000	19.996	100.836	20.008	1.506	0.503
337.000	242.638	79.998	19.995	100.836	20.009	1.455	0.525
337.500	242.900	79.999	19.997	100.838	20.005	1.734	0.518
338.000	243.160	79.999	19.997	100.834	20.009	1.438	0.517
338.500	243.421	79.999	19.996	100.834	20.009	1.417	0.522
339.000	243.652	80.000	19.996	100.839	20.015	1.033	0.507
339.500	243.918	79.999	19.996	100.840	20.007	1.543	0.494
340.000	244.160	79.998	19.995	100.844	20.014	1.085	0.503
340.500	244.382	79.998	19.995	100.850	20.009	1.400	0.486
341.000	244.671	80.000	19.995	100.857	20.010	1.362	0.487
341.501	244.908	79.998	19.995	100.857	20.009	1.421	0.519
342.001	245.172	79.999	19.996	100.857	20.009	1.438	0.514
342.500	245.426	79.999	19.996	100.851	20.007	1.558	0.509
343.000	245.650	79.999	19.995	100.847	20.008	1.473	0.498
343.500	245.919	79.999	19.996	100.844	20.012	1.212	0.486
344.000	246.142	79.999	19.996	100.839	20.011	1.268	0.493
344.500	246.374	80.001	19.995	100.838	20.012	1.236	0.473
345.000	246.681	80.000	19.996	100.841	20.010	1.370	0.497
345.500	246.880	80.000	19.995	100.845	20.011	1.326	0.523
346.000	247.144	80.001	19.995	100.847	20.008	1.494	0.485
346.500	247.427	79.999	19.996	100.849	20.009	1.436	0.505
347.000	247.672	80.001	19.995	100.846	20.010	1.396	0.537
347.500	247.934	80.000	19.995	100.845	20.009	1.400	0.517
348.000	248.165	80.001	19.995	100.839	20.011	1.317	0.500
348.500	248.403	80.002	19.994	100.836	20.008	1.517	0.481
349.000	248.619	80.001	19.996	100.838	20.007	1.539	0.461
349.500	248.917	80.000	19.995	100.837	20.009	1.428	0.484
350.000	249.138	80.004	19.996	100.834	20.011	1.302	0.516
350.500	249.421	80.003	19.996	100.834	20.009	1.408	0.512
351.000	249.680	80.001	19.996	100.834	20.012	1.249	0.523
351.500	249.956	80.001	19.995	100.835	20.008	1.526	0.539
352.000	250.216	80.001	19.995	100.835	20.008	1.492	0.536
352.500	250.484	80.001	19.996	100.837	20.012	1.206	0.532
353.000	250.744	80.000	19.996	100.841	20.016	0.931	0.528
353.500	250.990	79.999	19.996	100.837	20.012	1.240	0.517
354.000	251.247	80.001	19.996	100.831	20.010	1.368	0.505
354.500	251.507	80.001	19.995	100.831	20.013	1.151	0.510
355.000	251.762	80.002	19.997	100.832	20.015	0.995	0.516
355.500	252.020	80.002	19.995	100.831	20.011	1.291	0.514
356.000	252.260	80.000	19.996	100.832	20.009	1.428	0.505
356.500	252.482	80.000	19.995	100.833	20.009	1.453	0.480
357.000	252.735	79.999	19.996	100.835	20.009	1.426	0.469
357.500	252.989	79.999	19.995	100.833	20.010	1.394	0.491
358.000	253.255	80.000	19.997	100.829	20.012	1.245	0.514
358.500	253.504	79.999	19.997	100.828	20.008	1.526	0.517
359.000	253.738	79.999	19.996	100.827	20.011	1.326	0.499
359.500	253.971	79.999	19.997	100.825	20.011	1.261	0.475
360.000	254.244	79.997	19.997	100.826	20.008	1.466	0.486
360.500	254.486	79.998	19.997	100.830	20.014	1.097	0.510
361.000	254.729	79.998	19.997	100.832	20.011	1.319	0.500
361.500	254.979	79.998	19.996	100.832	20.011	1.325	0.489
362.000	255.253	79.999	19.996	100.835	20.010	1.340	0.509
362.500	255.512	79.998	19.996	100.835	20.010	1.372	0.529
363.000	255.764	79.998	19.997	100.833	20.010	1.345	0.522
363.500	256.008	79.998	19.997	100.831	20.011	1.289	0.503
364.000	256.300	79.997	19.996	100.831	20.010	1.381	0.516
364.500	256.512	79.998	19.996	100.826	20.011	1.293	0.520
365.000	256.745	79.997	19.997	100.824	20.010	1.358	0.474
365.500	257.010	79.998	19.997	100.824	20.010	1.385	0.471
366.000	257.290	79.997	19.996	100.825	20.012	1.221	0.522
366.500	257.525	79.997	19.996	100.826	20.012	1.219	0.530
367.000	257.804	79.997	19.996	100.827	20.014	1.087	0.514
367.500	258.023	79.997	19.997	100.828	20.009	1.398	0.506
368.000	258.305	79.997	19.997	100.829	20.012	1.189	0.499
368.500	258.531	79.997	19.995	100.829	20.009	1.423	0.504
369.000	258.809	79.998	19.997	100.828	20.013	1.181	0.506
369.501	259.065	79.998	19.997	100.828	20.012	1.245	0.519
370.000	259.269	79.998	19.997	100.830	20.011	1.279	0.497
370.500	259.526	79.998	19.996	100.834	20.009	1.462	0.461
371.000	259.780	79.996	19.995	100.839	20.013	1.155	0.486
371.500	260.064	79.999	19.997	100.842	20.010	1.359	0.524
372.000	260.303	79.999	19.996	100.841	20.011	1.308	0.531
372.500	260.520	79.999	19.995	100.839	20.010	1.357	0.490
373.000	260.809	80.000	19.997	100.833	20.014	1.066	0.481
373.500	261.019	79.998	19.996	100.828	20.012	1.202	0.502
374.000	261.283	79.997	19.996	100.828	20.012	1.200	0.487
374.500	261.502	80.000	19.995	100.829	20.011	1.279	0.479
375.000	261.778	79.998	19.995	100.829	20.010	1.394	0.489
375.500	262.039	79.998	19.998	100.830	20.012	1.206	0.516
376.001	262.252	79.998	19.997	100.829	20.014	1.112	0.505
376.500	262.526	79.998	19.996	100.827	20.010	1.394	0.481
377.000	262.750	79.998	19.997	100.826	20.012	1.202	0.492
377.500	263.007	79.998	19.997	100.826	20.010	1.332	0.489
378.000	263.294	79.998	19.996	100.826	20.010	1.374	0.512
378.500	263.530	79.999	19.997	100.825	20.010	1.336	0.534
379.000	263.725	79.998	19.996	100.825	20.010	1.353	0.477
379.500	264.057	79.997	19.997	100.827	20.011	1.264	0.479
380.000	264.280	79.998	19.997	100.827	20.011	1.262	0.541
380.500	264.553	79.999	19.997	100.830	20.012	1.219	0.525
381.000	264.790	79.998	19.997	100.831	20.013	1.123	0.503
381.500	264.990	79.998	19.997	100.833	20.010	1.355	0.473
382.000	265.276	79.998	19.997	100.834	20.012	1.204	0.462
382.500	265.517	80.000	19.997	100.836	20.011	1.276	0.506
383.000	265.750	79.999	19.996	100.836	20.013	1.170	0.500
383.500	266.041	79.998	19.997	100.835	20.013	1.159	0.499
384.000	266.286	79.998	19.997	100.833	20.014	1.053	0.530
384.500	266.498	79.997	19.997	100.831	20.010	1.370	0.497
385.000	266.771	79.997	19.996	100.829	20.014	1.110	0.471
385.500	267.027	79.997	19.997	100.829	20.012	1.198	0.507
386.000	267.253	79.996	19.997	100.828	20.017	0.910	0.506
386.500	267.485	79.996	19.996	100.829	20.013	1.166	0.470
387.000	267.757	79.997	19.996	100.828	20.013	1.125	0.481
387.500	268.016	79.996	19.996	100.829	20.016	0.946	0.518
388.000	268.283	79.996	19.997	100.829	20.014	1.072	0.528
388.500	268.504	79.997	19.997	100.829	20.011	1.283	0.507
389.000	268.743	79.997	19.997	100.830	20.013	1.146	0.474
389.500	269.010	79.996	19.996	100.832	20.012	1.249	0.483
390.000	269.285	79.995	19.996	100.833	20.014	1.055	0.524
390.501	269.497	79.996	19.996	100.831	20.012	1.213	0.514
391.001	269.740	79.996	19.998	100.831	20.014	1.057	0.471
391.500	270.015	79.998	19.998	100.830	20.014	1.100	0.487
392.000	270.218	79.998	19.998	100.829	20.013	1.179	0.498
392.500	270.523	79.997	19.998	100.827	20.012	1.213	0.493
393.000	270.759	79.997	19.997	100.827	20.012	1.243	0.524
393.500	271.017	79.996	19.997	100.826	20.011	1.319	0.517
394.000	271.282	79.996	19.998	100.826	20.012	1.257	0.509
394.500	271.541	79.997	19.997	100.824	20.011	1.262	0.524
395.000	271.775	79.996	19.997	100.824	20.015	1.027	0.509
395.500	272.053	79.997	19.997	100.823	20.011	1.262	0.503
396.000	272.293	79.996	19.997	100.823	20.015	1.002	0.515
396.500	272.527	79.996	19.996	100.824	20.012	1.247	0.496
397.000	272.804	79.999	19.997	100.823	20.013	1.128	0.492
397.500	273.018	79.997	19.997	100.823	20.017	0.902	0.501
398.000	273.260	79.998	19.998	100.824	20.016	0.963	0.473
398.500	273.544	79.997	19.997	100.831	20.015	1.027	0.491
399.000	273.756	79.999	19.998	100.837	20.012	1.189	0.511
399.500	274.031	79.998	19.997	100.839	20.013	1.159	0.491
400.000	274.301	79.998	19.997	100.839	20.012	1.196	0.516
400.500	274.526	79.998	19.996	100.838	20.016	0.959	0.520
401.000	274.802	79.999	19.997	100.831	20.012	1.242	0.498
401.500	275.036	79.997	19.997	100.824	20.012	1.219	0.505
402.000	275.289	79.998	19.997	100.821	20.010	1.368	0.498
402.500	275.536	79.998	19.997	100.821	20.014	1.059	0.494
403.000	275.797	79.999	19.997	100.820	20.012	1.211	0.504
403.500	276.039	80.000	19.996	100.820	20.013	1.125	0.506
404.000	276.268	79.998	19.996	100.820	20.009	1.417	0.487
404.500	276.532	80.000	19.998	100.820	20.012	1.232	0.482
405.000	276.797	80.000	19.997	100.820	20.014	1.080	0.511
405.500	277.000	79.997	19.996	100.821	20.011	1.283	0.498
406.000	277.273	79.998	19.997	100.821	20.008	1.532	0.472
406.500	277.501	79.999	19.996	100.821	20.011	1.283	0.489
407.000	277.788	79.999	19.996	100.820	20.014	1.100	0.509
407.500	277.984	79.999	19.996	100.819	20.008	1.517	0.499
408.000	278.263	79.999	19.996	100.819	20.012	1.217	0.479
408.500	278.510	79.999	19.996	100.820	20.007	1.560	0.501
409.000	278.772	79.998	19.996	100.820	20.012	1.189	0.517
409.500	279.028	80.000	19.997	100.821	20.010	1.356	0.513
410.000	279.250	79.999	19.996	100.821	20.009	1.398	0.498
410.500	279.487	80.000	19.996	100.822	20.011	1.268	0.469
411.001	279.736	79.998	19.995	100.821	20.012	1.209	0.473
411.501	280.034	79.999	19.996	100.822	20.015	1.032	0.517
412.000	280.264	80.000	19.996	100.819	20.015	1.038	0.537
412.501	280.490	79.998	19.996	100.817	20.009	1.417	0.492
413.001	280.763	79.998	19.995	100.818	20.012	1.253	0.477
413.500	280.981	79.999	19.996	100.819	20.013	1.144	0.495
414.000	281.251	79.999	19.995	100.820	20.012	1.215	0.490
414.500	281.499	79.998	19.996	100.823	20.010	1.347	0.503
415.000	281.719	79.998	19.996	100.824	20.014	1.087	0.493
415.500	281.957	79.999	19.996	100.824	20.010	1.345	0.462
416.001	282.208	79.997	19.995	100.822	20.013	1.140	0.473
416.500	282.479	80.000	19.996	100.820	20.011	1.300	0.506
417.000	282.727	79.998	19.996	100.819	20.010	1.349	0.521
417.500	282.977	79.996	19.996	100.819	20.011	1.275	0.508
418.000	283.257	79.999	19.995	100.819	20.011	1.283	0.514
418.500	283.503	79.998	19.997	100.819	20.011	1.294	0.528
419.000	283.729	79.999	19.996	100.820	20.007	1.586	0.499
419.500	283.934	79.999	19.997	100.822	20.011	1.262	0.451
420.000	284.208	79.999	19.997	100.822	20.014	1.059	0.455
420.500	284.489	79.997	19.996	100.817	20.013	1.149	0.517
421.000	284.690	79.999	19.997	100.816	20.007	1.541	0.518
421.500	284.992	79.998	19.997	100.816	20.010	1.360	0.492
422.000	285.188	79.999	19.997	100.815	20.009	1.453	0.500
422.500	285.455	79.999	19.997	100.816	20.012	1.223	0.480
423.000	285.740	79.998	19.996	100.820	20.008	1.475	0.507
423.500	285.922	80.000	19.996	100.820	20.010	1.394	0.509
424.000	286.204	79.999	19.995	100.821	20.010	1.341	0.466
424.500	286.464	79.999	19.997	100.821	20.012	1.226	0.503
425.000	286.734	80.000	19.996	100.819	20.009	1.424	0.536
425.500	286.979	79.998	19.996	100.818	20.012	1.213	0.523
426.000	287.233	80.001	19.997	100.816	20.010	1.349	0.507
426.500	287.458	80.000	19.996	100.809	20.011	1.281	0.489
427.000	287.689	79.999	19.997	100.805	20.011	1.319	0.467
427.500	287.943	80.000	19.997	100.808	20.013	1.166	0.470
428.000	288.206	80.000	19.996	100.808	20.012	1.243	0.501
428.500	288.455	80.000	19.995	100.810	20.010	1.381	0.515
429.000	288.715	80.000	19.995	100.816	20.012	1.247	0.511
429.500	288.957	80.000	19.995	100.821	20.012	1.215	0.506
430.000	289.174	80.000	19.995	100.820	20.012	1.238	0.480
430.500	289.439	80.001	19.996	100.820	20.014	1.104	0.470
431.000	289.688	80.001	19.996	100.820	20.013	1.176	0.498
431.500	289.934	80.001	19.995	100.820	20.013	1.157	0.505
432.000	290.184	80.000	19.996	100.820	20.011	1.320	0.496
432.500	290.440	80.000	19.996	100.821	20.013	1.168	0.501
433.000	290.685	80.000	19.996	100.819	20.013	1.166	0.503
433.500	290.930	80.001	19.995	100.817	20.012	1.215	0.496
434.000	291.181	79.999	19.995	100.817	20.015	0.995	0.493
434.500	291.458	80.000	19.996	100.817	20.011	1.294	0.512
435.000	291.696	80.001	19.995	100.816	20.010	1.347	0.522
435.500	291.934	79.999	19.995	100.814	20.011	1.281	0.496
436.000	292.186	80.002	19.995	100.815	20.013	1.159	0.483
436.500	292.424	80.000	19.995	100.815	20.010	1.328	0.490
437.000	292.663	79.999	19.996	100.813	20.011	1.260	0.483
437.500	292.924	79.999	19.996	100.813	20.014	1.061	0.488
438.000	293.189	79.999	19.995	100.816	20.009	1.418	0.513
438.500	293.430	79.999	19.995	100.818	20.007	1.564	0.517
439.000	293.684	79.999	19.995	100.815	20.009	1.424	0.501
439.500	293.935	79.999	19.995	100.817	20.012	1.209	0.500
440.000	294.161	79.998	19.996	100.817	20.008	1.479	0.491
440.500	294.418	79.997	19.994	100.816	20.011	1.298	0.480
441.000	294.667	79.998	19.996	100.815	20.010	1.358	0.494
441.500	294.968	79.998	19.997	100.817	20.010	1.387	0.528
442.001	295.226	79.999	19.997	100.812	20.012	1.192	0.554
442.501	295.405	79.998	19.996	100.808	20.006	1.650	0.498
443.000	295.707	79.999	19.996	100.805	20.010	1.343	0.459
443.500	295.948	79.997	19.996	100.803	20.006	1.613	0.512
444.000	296.177	79.997	19.998	100.803	20.010	1.375	0.507
444.500	296.414	79.997	19.996	100.806	20.007	1.535	0.468
445.000	296.658	79.999	19.995	100.811	20.006	1.671	0.474
445.500	296.928	79.996	19.996	100.814	20.010	1.394	0.498
446.000	297.136	79.997	19.996	100.814	20.008	1.501	0.496
446.500	297.410	79.996	19.996	100.813	20.007	1.573	0.480
447.000	297.666	79.997	19.996	100.810	20.010	1.387	0.506
447.500	297.918	79.997	19.996	100.808	20.009	1.464	0.519
448.000	298.146	79.995	19.996	100.804	20.008	1.475	0.494
448.500	298.400	79.995	19.996	100.806	20.008	1.503	0.481
449.000	298.671	79.997	19.997	100.804	20.008	1.531	0.504
449.500	298.886	79.996	19.996	100.808	20.010	1.377	0.506
450.000	299.197	79.997	19.997	100.809	20.005	1.709	0.506
450.500	299.407	79.997	19.996	100.813	20.005	1.727	0.523
451.000	299.635	79.997	19.997	100.813	20.011	1.304	0.480
451.500	299.898	79.996	19.997	100.815	20.005	1.718	0.465
452.000	300.118	79.997	19.996	100.815	20.007	1.577	0.487
452.500	300.392	79.998	19.998	100.816	20.006	1.633	0.488
453.000	300.622	79.997	19.996	100.814	20.008	1.533	0.499
453.500	300.883	79.996	19.995	100.816	20.006	1.622	0.498
454.000	301.091	79.996	19.997	100.818	20.006	1.605	0.480
454.500	301.336	79.996	19.996	100.815	20.003	1.835	0.461
455.000	301.606	79.998	19.995	100.811	20.005	1.695	0.484
455.500	301.844	79.997	19.996	100.811	20.008	1.494	0.511
456.000	302.085	79.996	19.996	100.812	20.005	1.714	0.493
456.501	302.377	79.997	19.997	100.812	20.007	1.579	0.506
457.001	302.603	79.997	19.997	100.816	20.004	1.769	0.526
457.500	302.814	79.999	19.996	100.814	20.008	1.526	0.478
458.000	303.097	79.996	19.998	100.812	20.007	1.545	0.466
458.500	303.299	79.997	19.997	100.806	20.006	1.671	0.489
459.000	303.569	79.999	19.998	100.804	20.007	1.590	0.479
459.500	303.827	79.997	19.997	100.803	20.006	1.652	0.500
460.000	304.046	79.998	19.997	100.802	20.005	1.677	0.502
460.500	304.313	79.997	19.998	100.805	20.003	1.814	0.482
461.000	304.589	79.998	19.997	100.810	20.006	1.669	0.515
461.500	304.849	79.998	19.996	100.812	20.007	1.592	0.539
462.000	305.077	79.997	19.997	100.814	20.003	1.846	0.512
462.500	305.336	79.997	19.996	100.820	20.004	1.748	0.487
463.000	305.586	79.998	19.996	100.819	20.002	1.914	0.498
463.500	305.828	79.998	19.996	100.814	20.003	1.843	0.501
464.000	306.098	79.997	19.997	100.808	20.005	1.677	0.501
464.500	306.312	79.998	19.996	100.806	20.002	1.903	0.498
465.000	306.565	79.997	19.997	100.806	20.003	1.841	0.476
465.500	306.835	79.998	19.997	100.808	20.000	2.065	0.495
466.000	307.048	79.997	19.996	100.813	20.002	1.882	0.503
466.500	307.277	79.998	19.997	100.818	20.005	1.722	0.463
467.000	307.512	79.997	19.996	100.819	20.002	1.895	0.453
467.500	307.777	79.998	19.996	100.818	20.003	1.861	0.482
468.000	308.022	79.996	19.996	100.818	20.003	1.871	0.505
468.500	308.274	79.998	19.996	100.819	20.003	1.859	0.503
469.000	308.501	79.997	19.997	100.819	19.999	2.127	0.488
469.500	308.786	79.996	19.997	100.819	20.000	2.051	0.495
470.000	309.033	79.998	19.998	100.820	20.003	1.852	0.522
470.500	309.279	79.997	19.998	100.819	20.000	2.080	0.512
471.000	309.542	79.998	19.997	100.819	20.002	1.942	0.501
471.500	309.819	79.998	19.997	100.819	20.001	1.989	0.525
472.000	310.076	79.996	19.997	100.821	20.002	1.923	0.537
472.500	310.306	79.997	19.996	100.820	20.001	1.980	0.511
473.000	310.564	79.997	19.997	100.820	20.000	2.027	0.488
473.500	310.808	79.997	19.997	100.820	20.000	2.021	0.495
474.000	311.047	79.997	19.998	100.820	20.003	1.865	0.492
474.500	311.312	79.997	19.997	100.821	20.004	1.774	0.494
475.000	311.591	79.997	19.998	100.821	20.001	1.999	0.524
475.500	311.817	79.997	19.997	100.822	19.999	2.157	0.524
476.000	312.089	79.996	19.997	100.818	19.999	2.119	0.501
476.500	312.328	79.997	19.996	100.811	19.999	2.097	0.505
477.000	312.612	79.997	19.997	100.806	20.002	1.933	0.517
477.500	312.896	79.997	19.997	100.803	20.002	1.948	0.545
478.000	313.078	79.996	19.997	100.801	20.002	1.929	0.517
478.500	313.346	79.998	19.997	100.805	20.000	2.038	0.458
479.000	313.606	79.997	19.996	100.810	20.001	1.985	0.489
479.500	313.854	79.998	19.997	100.809	19.999	2.113	0.518
480.000	314.095	79.998	19.997	100.809	19.999	2.130	0.498
480.500	314.363	79.998	19.998	100.809	20.002	1.904	0.499
481.001	314.635	79.998	19.997	100.809	19.997	2.287	0.524
481.500	314.904	79.998	19.998	100.810	20.001	1.954	0.540
482.000	315.123	79.999	19.998	100.810	19.998	2.161	0.515
482.500	315.380	79.999	19.998	100.807	20.000	2.085	0.482
483.000	315.641	79.998	19.998	100.801	19.995	2.379	0.497
483.500	315.916	79.999	19.996	100.797	19.997	2.255	0.527
484.000	316.178	79.999	19.996	100.797	19.996	2.362	0.536
484.500	316.444	79.998	19.997	100.800	19.997	2.295	0.533
485.000	316.673	79.998	19.997	100.804	19.997	2.253	0.512
485.500	316.902	79.999	19.997	100.808	20.000	2.038	0.476
486.000	317.194	79.998	19.997	100.812	19.999	2.095	0.489
486.500	317.418	79.998	19.998	100.812	19.997	2.230	0.519
487.000	317.680	79.998	19.998	100.812	19.998	2.196	0.501
487.500	317.963	79.998	19.998	100.813	19.995	2.434	0.515
488.000	318.221	79.998	19.997	100.809	19.996	2.323	0.543
488.500	318.446	79.998	19.997	100.804	19.997	2.296	0.511
489.000	318.713	79.999	19.997	100.800	19.996	2.340	0.488
489.500	318.968	79.999	19.997	100.795	19.995	2.372	0.508
490.000	319.203	79.997	19.997	100.792	19.994	2.472	0.506
490.500	319.466	80.000	19.997	100.796	19.995	2.402	0.494
491.000	319.710	79.998	19.996	100.801	19.995	2.398	0.503
491.501	319.979	79.999	19.997	100.804	19.996	2.315	0.510
492.001	320.222	79.998	19.996	100.808	19.996	2.321	0.513
492.500	320.489	79.999	19.995	100.814	19.996	2.347	0.511
493.000	320.747	79.999	19.996	100.816	19.995	2.427	0.517
493.500	320.987	79.998	19.997	100.815	19.996	2.347	0.511
494.000	321.254	79.999	19.996	100.814	19.993	2.532	0.503
494.500	321.554	79.998	19.996	100.812	19.992	2.581	0.537
495.000	321.766	79.996	19.996	100.813	19.993	2.563	0.539
495.500	322.056	79.998	19.995	100.813	19.990	2.740	0.507
496.000	322.287	79.997	19.994	100.813	19.990	2.748	0.512
496.500	322.537	79.999	19.996	100.813	19.991	2.709	0.501
497.000	322.789	79.999	19.996	100.812	19.989	2.812	0.492
497.500	323.077	79.998	19.996	100.807	19.992	2.632	0.521
498.000	323.294	79.999	19.996	100.801	19.991	2.701	0.522
498.500	323.567	79.999	19.996	100.801	19.988	2.857	0.497
499.000	323.822	79.998	19.995	100.802	19.988	2.906	0.509
499.500	324.086	79.998	19.996	100.806	19.990	2.774	0.524
500.000	324.300	79.996	19.997	100.809	19.988	2.901	0.498
500.500	324.589	79.998	19.996	100.808	19.986	3.006	0.490
501.000	324.802	79.998	19.996	100.809	19.987	2.957	0.503
501.500	325.090	79.997	19.997	100.811	19.984	3.148	0.502
502.000	325.325	79.998	19.997	100.811	19.985	3.095	0.512
502.500	325.590	80.000	19.996	100.813	19.987	2.923	0.512
503.000	325.848	79.999	19.996	100.818	19.984	3.138	0.512
503.500	326.087	79.998	19.996	100.820	19.985	3.121	0.510
504.000	326.360	79.998	19.997	100.818	19.986	2.989	0.504
504.500	326.600	80.000	19.996	100.810	19.985	3.098	0.512
505.000	326.849	79.999	19.997	100.804	19.984	3.129	0.501
505.500	327.131	79.999	19.996	100.799	19.981	3.392	0.510
506.000	327.379	79.998	19.996	100.796	19.982	3.332	0.531
506.500	327.635	79.999	19.996	100.793	19.982	3.270	0.517
507.000	327.896	79.999	19.997	100.799	19.983	3.212	0.510
507.500	328.171	79.999	19.995	100.804	19.983	3.232	0.526
508.000	328.412	79.999	19.996	100.808	19.984	3.134	0.526
508.500	328.685	79.998	19.996	100.809	19.983	3.234	0.515
509.000	328.892	80.000	19.995	100.807	19.980	3.409	0.497
509.500	329.132	80.000	19.996	100.801	19.979	3.500	0.463
510.000	329.404	80.000	19.996	100.798	19.982	3.311	0.479
510.500	329.649	80.000	19.997	100.797	19.981	3.375	0.514
511.000	329.920	79.999	19.995	100.796	19.979	3.530	0.517
511.500	330.157	80.000	19.996	100.803	19.974	3.857	0.512
512.000	330.431	80.001	19.995	100.804	19.977	3.633	0.510
512.500	330.680	80.001	19.994	100.807	19.978	3.545	0.517
513.001	330.950	80.001	19.997	100.803	19.979	3.537	0.521
513.501	331.184	80.000	19.995	100.800	19.976	3.686	0.512
514.000	331.393	80.000	19.995	100.795	19.979	3.537	0.473
514.500	331.690	80.000	19.996	100.797	19.972	3.985	0.474
515.000	331.918	80.000	19.996	100.794	19.975	3.818	0.516
515.500	332.159	80.000	19.996	100.798	19.971	4.049	0.497
516.000	332.421	79.999	19.996	100.800	19.976	3.691	0.486
516.500	332.703	79.999	19.996	100.802	19.972	3.976	0.523
517.001	332.949	79.998	19.996	100.801	19.973	3.916	0.536
517.501	333.205	80.000	19.996	100.802	19.970	4.101	0.515
518.001	333.431	79.999	19.996	100.799	19.971	4.082	0.492
518.501	333.710	79.999	19.996	100.802	19.974	3.880	0.493
519.001	333.945	79.998	19.996	100.802	19.972	3.967	0.510
519.501	334.203	79.998	19.996	100.803	19.968	4.276	0.504
520.000	334.498	79.997	19.994	100.804	19.965	4.477	0.523
520.500	334.699	79.997	19.996	100.804	19.966	4.406	0.524
521.000	334.976	79.997	19.997	100.798	19.963	4.592	0.487
521.500	335.242	79.997	19.996	100.796	19.968	4.300	0.511
522.000	335.510	79.998	19.996	100.792	19.966	4.415	0.538
522.500	335.750	79.997	19.996	100.791	19.966	4.385	0.521
523.000	335.974	79.997	19.997	100.791	19.966	4.405	0.486
523.500	336.202	79.998	19.996	100.792	19.961	4.782	0.458
524.000	336.495	79.997	19.996	100.794	19.964	4.565	0.487
524.500	336.733	79.998	19.996	100.797	19.962	4.678	0.526
525.000	336.950	79.997	19.996	100.795	19.962	4.652	0.493
525.500	337.202	79.997	19.996	100.792	19.961	4.738	0.462
526.000	337.473	79.997	19.996	100.791	19.957	5.045	0.496
526.500	337.726	79.997	19.996	100.789	19.963	4.650	0.523
527.000	338.006	79.996	19.996	100.790	19.958	4.964	0.528
527.500	338.244	79.998	19.996	100.795	19.958	4.978	0.526
528.000	338.484	79.997	19.996	100.801	19.957	5.066	0.498
528.500	338.739	79.997	19.996	100.806	19.956	5.128	0.487
529.000	338.985	79.999	19.996	100.803	19.959	4.914	0.498
529.500	339.207	79.997	19.995	100.800	19.955	5.200	0.484
530.000	339.510	79.998	19.997	100.800	19.956	5.102	0.497
530.500	339.706	79.998	19.996	100.796	19.957	5.008	0.512
531.000	339.982	79.999	19.996	100.794	19.957	5.062	0.486
531.500	340.240	79.998	19.996	100.797	19.956	5.109	0.503
532.000	340.475	80.000	19.997	100.802	19.956	5.076	0.514
532.500	340.703	79.999	19.996	100.796	19.955	5.181	0.478
533.000	340.992	79.999	19.995	100.794	19.954	5.247	0.490
533.500	341.228	79.998	19.997	100.791	19.955	5.200	0.521
534.000	341.472	80.000	19.996	100.788	19.952	5.387	0.503
534.501	341.727	79.997	19.996	100.783	19.949	5.564	0.489
535.001	341.959	79.997	19.997	100.784	19.950	5.526	0.493
535.500	342.239	79.997	19.996	100.784	19.949	5.616	0.499
536.000	342.453	79.997	19.996	100.784	19.945	5.893	0.503
536.500	342.678	79.999	19.996	100.784	19.947	5.718	0.466
537.000	342.979	79.998	19.997	100.784	19.949	5.616	0.483
537.500	343.223	79.998	19.997	100.784	19.947	5.706	0.536
538.000	343.420	79.997	19.996	100.783	19.948	5.680	0.493
538.500	343.697	79.998	19.997	100.783	19.946	5.821	0.457
539.000	343.938	79.999	19.996	100.784	19.945	5.853	0.496
539.500	344.204	79.997	19.997	100.787	19.944	5.900	0.513
540.000	344.444	79.997	19.997	100.787	19.941	6.111	0.506
540.500	344.714	79.998	19.995	100.787	19.941	6.170	0.508
541.000	344.913	79.999	19.997	100.787	19.939	6.286	0.489
541.500	345.192	79.998	19.996	100.788	19.938	6.330	0.473
542.000	345.451	79.998	19.996	100.785	19.941	6.132	0.508
542.500	345.691	79.997	19.997	100.785	19.936	6.520	0.519
543.000	345.930	79.998	19.997	100.785	19.936	6.467	0.489
543.500	346.173	79.998	19.998	100.786	19.934	6.622	0.481
544.000	346.445	79.998	19.996	100.791	19.935	6.582	0.498
544.500	346.682	79.998	19.997	100.793	19.930	6.929	0.512
545.000	346.964	79.998	19.999	100.792	19.930	6.880	0.514
545.500	347.241	79.998	19.996	100.792	19.929	6.980	0.539
546.000	347.518	79.998	19.997	100.791	19.926	7.149	0.556
546.501	347.725	79.998	19.997	100.784	19.925	7.245	0.519
547.000	347.951	79.997	19.997	100.782	19.926	7.196	0.459
547.500	348.222	79.997	19.997	100.782	19.924	7.294	0.466
548.000	348.447	79.997	19.995	100.783	19.925	7.264	0.497
548.500	348.661	79.996	19.996	100.783	19.922	7.435	0.467
549.000	348.958	79.997	19.998	100.783	19.925	7.281	0.475
549.500	349.184	79.998	19.997	100.783	19.923	7.400	0.517
550.000	349.471	79.998	19.998	100.784	19.921	7.535	0.518
550.500	349.717	79.997	19.997	100.783	19.922	7.488	0.523
551.000	349.938	79.997	19.997	100.783	19.918	7.745	0.500
551.500	350.176	79.997	19.997	100.783	19.921	7.506	0.463
552.000	350.423	79.997	19.998	100.784	19.916	7.858	0.472
552.500	350.684	79.996	19.997	100.784	19.913	8.086	0.497
553.000	350.945	79.997	19.996	100.784	19.915	7.964	0.515
553.500	351.184	79.998	19.997	100.783	19.914	8.029	0.511
554.000	351.450	79.998	19.997	100.783	19.910	8.302	0.502
554.500	351.696	79.997	19.997	100.783	19.910	8.285	0.509
555.000	351.948	79.997	19.996	100.784	19.905	8.654	0.505
555.500	352.203	79.998	19.997	100.784	19.907	8.530	0.503
556.000	352.463	79.998	19.996	100.785	19.908	8.398	0.511
556.500	352.662	79.998	19.998	100.786	19.904	8.676	0.487
557.000	352.940	79.998	19.997	100.786	19.902	8.812	0.468
557.500	353.193	79.997	19.996	100.786	19.901	8.931	0.504
558.000	353.462	79.998	19.996	100.786	19.901	8.927	0.527
558.500	353.697	79.997	19.997	100.786	19.899	9.053	0.513
559.000	353.977	79.997	19.998	100.786	19.898	9.142	0.510
559.500	354.196	79.999	19.996	100.786	19.899	9.061	0.507
560.000	354.420	79.997	19.996	100.786	19.895	9.359	0.470
560.500	354.673	79.997	19.998	100.787	19.894	9.396	0.460
561.000	354.905	79.998	19.996	100.787	19.896	9.229	0.481
561.500	355.175	79.997	19.996	100.788	19.893	9.468	0.494
562.000	355.416	79.998	19.997	100.791	19.894	9.373	0.507
562.500	355.659	80.000	19.996	100.796	19.891	9.595	0.498
563.000	355.942	79.998	19.995	100.799	19.890	9.677	0.505
563.500	356.204	79.998	19.996	100.797	19.888	9.777	0.536
564.000	356.460	79.998	19.996	100.796	19.888	9.809	0.532
564.500	356.693	79.999	19.996	100.795	19.884	10.121	0.503
565.000	356.936	79.998	19.997	100.791	19.884	10.074	0.482
565.500	357.197	79.999	19.997	100.788	19.880	10.338	0.490
566.000	357.413	79.998	19.996	100.788	19.882	10.206	0.490
566.500	357.677	79.999	19.996	100.789	19.878	10.481	0.479
567.000	357.908	79.999	19.997	100.786	19.876	10.620	0.487
567.500	358.153	79.999	19.996	100.785	19.874	10.786	0.486
568.000	358.421	80.000	19.996	100.785	19.873	10.839	0.495
568.500	358.692	80.000	19.996	100.784	19.870	11.062	0.526
569.000	358.929	79.999	19.996	100.785	19.872	10.890	0.523
569.500	359.203	79.998	19.996	100.785	19.870	11.077	0.509
570.000	359.436	79.999	19.996	100.787	19.866	11.324	0.509
570.500	359.700	79.999	19.996	100.788	19.868	11.171	0.502
571.000	359.917	79.999	19.997	100.789	19.866	11.324	0.489
571.500	360.163	79.998	19.998	100.787	19.864	11.453	0.472
572.000	360.422	79.999	19.997	100.787	19.863	11.553	0.484
572.500	360.671	79.998	19.998	100.786	19.857	11.926	0.506
573.000	360.928	79.999	19.996	100.783	19.855	12.129	0.507
573.500	361.178	79.998	19.998	100.783	19.853	12.238	0.507
574.000	361.433	79.998	19.998	100.785	19.854	12.182	0.506
574.500	361.684	79.998	19.998	100.787	19.849	12.514	0.506
575.000	361.979	79.997	19.997	100.787	19.846	12.691	0.526
575.500	362.234	79.998	19.998	100.787	19.849	12.533	0.548
576.001	362.490	79.998	19.996	100.788	19.842	12.985	0.530
576.501	362.720	79.999	19.998	100.787	19.843	12.953	0.498
577.001	362.973	79.998	19.998	100.786	19.841	13.099	0.485
577.501	363.216	79.998	19.997	100.787	19.840	13.165	0.489
578.000	363.499	79.997	19.997	100.787	19.836	13.396	0.511
578.500	363.746	79.997	19.997	100.789	19.838	13.307	0.528
579.000	364.001	79.997	19.997	100.791	19.831	13.761	0.516
579.500	364.246	79.998	19.996	100.794	19.834	13.560	0.501
580.000	364.475	79.997	19.996	100.795	19.830	13.854	0.487
580.500	364.728	79.998	19.998	100.794	19.829	13.899	0.478
581.000	365.001	79.998	19.997	100.796	19.826	14.102	0.504
581.500	365.246	79.998	19.998	100.797	19.823	14.345	0.522
582.000	365.499	79.998	19.997	100.794	19.822	14.383	0.508
582.500	365.752	79.998	19.996	100.793	19.818	14.631	0.502
583.000	366.009	79.999	19.997	100.792	19.817	14.718	0.507
583.500	366.269	79.999	19.996	100.788	19.815	14.835	0.513
584.000	366.500	79.998	19.996	100.784	19.815	14.891	0.504
584.500	366.754	80.000	19.997	100.788	19.816	14.831	0.488
585.000	367.064	80.000	19.996	100.790	19.811	15.159	0.525
585.500	367.294	80.000	19.998	100.792	19.808	15.379	0.552
586.000	367.536	80.000	19.996	100.794	19.801	15.808	0.506
586.500	367.804	80.000	19.995	100.798	19.806	15.490	0.491
587.000	368.033	80.000	19.997	100.794	19.799	15.976	0.503
587.500	368.260	80.001	19.996	100.793	19.801	15.868	0.477
588.000	368.528	80.002	19.995	100.791	19.797	16.121	0.476
588.500	368.795	80.002	19.995	100.788	19.796	16.202	0.515
589.000	369.046	80.002	19.996	100.784	19.789	16.656	0.527
589.500	369.293	80.001	19.996	100.783	19.791	16.524	0.508
590.000	369.538	80.000	19.997	100.784	19.789	16.633	0.495
590.500	369.785	80.000	19.996	100.784	19.786	16.878	0.492
591.000	370.025	80.001	19.996	100.784	19.784	17.027	0.489
591.500	370.264	80.000	19.995	100.784	19.783	17.083	0.483
592.000	370.526	80.000	19.997	100.783	19.780	17.302	0.490
592.500	370.799	80.000	19.995	100.782	19.775	17.667	0.518
593.000	371.007	80.000	19.995	100.782	19.773	17.780	0.508
593.500	371.307	80.001	19.995	100.783	19.771	17.891	0.494
594.000	371.518	80.001	19.995	100.783	19.768	18.136	0.509
594.500	371.807	80.001	19.996	100.783	19.763	18.487	0.505
595.000	372.062	80.001	19.997	100.784	19.760	18.645	0.522
595.500	372.319	80.001	19.996	100.784	19.762	18.551	0.529
596.000	372.564	80.001	19.995	100.783	19.755	19.056	0.507
596.500	372.817	80.000	19.995	100.782	19.754	19.118	0.499
597.000	373.087	80.001	19.997	100.782	19.748	19.541	0.511
597.500	373.344	79.999	19.996	100.781	19.748	19.513	0.525
598.000	373.592	79.998	19.996	100.781	19.746	19.676	0.516
598.500	373.871	80.000	19.997	100.781	19.742	19.932	0.517
599.000	374.139	79.998	19.997	100.782	19.738	20.206	0.537
599.500	374.356	80.000	19.997	100.782	19.737	20.275	0.515
600.000	374.649	79.999	19.996	100.782	19.734	20.501	0.497
600.500	374.874	79.998	19.997	100.782	19.731	20.680	0.514
601.000	375.139	79.998	19.996	100.783	19.731	20.691	0.505
601.500	375.393	79.998	19.996	100.783	19.727	20.983	0.505
602.000	375.628	79.998	19.995	100.783	19.728	20.859	0.504
602.500	375.903	79.998	19.996	100.783	19.720	21.432	0.499
603.000	376.166	79.998	19.995	100.783	19.722	21.292	0.524
603.500	376.435	79.999	19.996	100.782	19.714	21.829	0.535
604.000	376.645	79.999	19.996	100.783	19.715	21.773	0.506
604.500	376.931	79.999	19.995	100.783	19.715	21.818	0.487
605.000	377.160	79.999	19.996	100.783	19.710	22.147	0.505
605.500	377.428	80.000	19.996	100.784	19.709	22.213	0.506
606.000	377.689	79.999	19.996	100.784	19.704	22.586	0.513
606.500	377.945	79.998	19.996	100.785	19.700	22.853	0.523
607.000	378.163	79.998	19.996	100.785	19.699	22.911	0.496
607.500	378.458	79.998	19.996	100.784	19.696	23.081	0.493
608.000	378.699	79.998	19.996	100.783	19.695	23.208	0.524
608.500	378.933	79.998	19.997	100.782	19.691	23.452	0.506
609.000	379.182	79.997	19.995	100.780	19.689	23.562	0.479
609.500	379.421	79.997	19.996	100.780	19.684	23.961	0.485
610.000	379.686	79.997	19.996	100.781	19.679	24.287	0.496
610.500	379.932	79.998	19.996	100.782	19.678	24.383	0.507
611.000	380.167	79.998	19.996	100.782	19.677	24.409	0.496
611.500	380.445	79.997	19.996	100.782	19.671	24.854	0.497
612.000	380.698	79.998	19.996	100.781	19.668	25.018	0.522
612.500	380.939	79.997	19.997	100.781	19.664	25.326	0.513
613.000	381.206	79.998	19.997	100.781	19.663	25.405	0.501
613.500	381.466	79.997	19.997	100.783	19.659	25.680	0.517
614.000	381.721	79.998	19.996	100.783	19.655	25.925	0.521
614.500	382.007	79.998	19.997	100.784	19.652	26.121	0.529
615.000	382.240	79.999	19.996	100.784	19.649	26.389	0.530
615.500	382.501	79.999	19.997	100.783	19.649	26.330	0.506
616.000	382.772	79.999	19.996	100.780	19.646	26.589	0.513
616.500	383.000	79.998	19.996	100.780	19.642	26.852	0.516
617.000	383.261	79.999	19.996	100.780	19.638	27.130	0.494
617.500	383.513	79.999	19.996	100.780	19.638	27.119	0.501
618.000	383.807	79.999	19.996	100.779	19.634	27.379	0.529
618.500	384.057	79.999	19.996	100.781	19.633	27.500	0.545
619.000	384.300	79.999	19.996	100.782	19.627	27.918	0.519
619.500	384.552	79.999	19.996	100.782	19.624	28.093	0.494
620.000	384.802	79.999	19.995	100.782	19.622	28.238	0.498
620.500	385.033	79.999	19.995	100.784	19.617	28.577	0.492
621.000	385.309	79.998	19.996	100.784	19.616	28.663	0.494
621.500	385.575	79.999	19.996	100.781	19.613	28.862	0.525
622.000	385.783	79.999	19.996	100.782	19.606	29.311	0.508
622.500	386.083	79.999	19.995	100.782	19.606	29.345	0.491
623.000	386.282	79.999	19.996	100.783	19.603	29.576	0.503
623.500	386.554	79.999	19.996	100.780	19.600	29.783	0.485
624.000	386.801	79.998	19.996	100.782	19.595	30.080	0.495
624.500	387.083	79.998	19.995	100.780	19.592	30.330	0.524
625.000	387.332	79.999	19.996	100.775	19.588	30.563	0.530
625.500	387.529	80.000	19.995	100.775	19.585	30.825	0.489
626.000	387.818	79.999	19.995	100.778	19.580	31.118	0.466
626.500	388.088	79.998	19.997	100.776	19.580	31.135	0.523
627.000	388.281	79.998	19.996	100.777	19.577	31.345	0.511
627.500	388.580	79.997	19.994	100.781	19.570	31.812	0.477
628.000	388.806	79.999	19.995	100.782	19.568	31.980	0.509
628.500	389.062	79.999	19.996	100.782	19.566	32.103	0.504
629.000	389.340	79.998	19.996	100.783	19.561	32.464	0.508
629.501	389.589	79.998	19.996	100.784	19.557	32.693	0.531
630.000	389.854	79.998	19.995	100.783	19.556	32.829	0.521
630.500	390.081	79.997	19.996	100.782	19.552	33.043	0.503
631.000	390.312	79.999	19.996	100.781	19.550	33.185	0.475
631.500	390.589	79.998	19.996	100.782	19.546	33.494	0.483
632.000	390.844	79.997	19.997	100.782	19.543	33.712	0.519
632.500	391.115	79.998	19.997	100.780	19.539	33.964	0.529
633.000	391.339	79.995	19.996	100.774	19.538	34.080	0.510
633.500	391.639	79.996	19.997	100.774	19.529	34.674	0.509
634.000	391.878	79.996	19.995	100.772	19.526	34.844	0.532
634.500	392.126	79.997	19.996	100.772	19.527	34.801	0.513
635.000	392.366	79.997	19.995	100.776	19.522	35.123	0.488
635.500	392.616	79.996	19.996	100.777	19.519	35.375	0.490
636.000	392.864	79.997	19.996	100.775	19.516	35.557	0.494
636.500	393.131	79.998	19.997	100.775	19.515	35.615	0.506
637.000	393.363	79.998	19.996	100.774	19.511	35.885	0.507
637.500	393.636	79.997	19.996	100.772	19.510	36.011	0.502
638.000	393.879	79.997	19.995	100.777	19.504	36.395	0.511
638.500	394.137	79.996	19.997	100.775	19.503	36.471	0.508
639.000	394.399	79.997	19.996	100.771	19.497	36.845	0.511
639.500	394.634	79.996	19.996	100.765	19.492	37.225	0.508
640.000	394.897	79.998	19.996	100.760	19.491	37.265	0.497
640.500	395.183	79.997	19.998	100.756	19.485	37.735	0.524
641.000	395.433	79.998	19.994	100.757	19.484	37.792	0.543
641.500	395.655	79.999	19.997	100.763	19.480	38.067	0.504
642.000	395.932	79.999	19.996	100.769	19.479	38.138	0.486
642.500	396.150	79.998	19.996	100.770	19.473	38.524	0.497
643.000	396.427	79.997	19.997	100.770	19.470	38.758	0.495
643.500	396.705	79.999	19.997	100.769	19.468	38.878	0.525
644.000	396.946	79.999	19.997	100.765	19.462	39.297	0.537
644.500	397.176	80.000	19.996	100.764	19.461	39.339	0.495
645.000	397.451	79.999	19.996	100.766	19.457	39.639	0.488
645.500	397.686	79.999	19.996	100.766	19.453	39.917	0.508
646.000	397.919	79.999	19.996	100.766	19.452	40.028	0.489
646.500	398.179	80.001	19.996	100.769	19.449	40.192	0.481
647.000	398.397	80.000	19.996	100.769	19.441	40.753	0.486
647.500	398.661	79.999	19.996	100.766	19.438	40.967	0.480
648.000	398.956	80.000	19.997	100.763	19.436	41.110	0.520
648.500	399.202	80.000	19.996	100.759	19.431	41.421	0.550
649.000	399.442	80.000	19.996	100.752	19.426	41.825	0.514
649.500	399.692	80.000	19.997	100.749	19.426	41.803	0.488
650.000	399.934	80.000	19.996	100.747	19.422	42.068	0.491
650.500	400.217	80.000	19.996	100.746	19.418	42.360	0.509
651.000	400.455	79.999	19.997	100.747	19.416	42.486	0.523
651.500	400.722	80.000	19.997	100.747	19.410	42.887	0.513
652.000	400.975	79.999	19.996	100.748	19.407	43.109	0.512
652.500	401.201	80.000	19.996	100.748	19.404	43.318	0.500
653.000	401.452	79.998	19.996	100.748	19.399	43.664	0.478
653.500	401.727	80.000	19.996	100.747	19.397	43.823	0.501
654.000	401.964	79.999	19.996	100.747	19.392	44.133	0.519
654.500	402.209	79.997	19.997	100.747	19.389	44.333	0.497
655.000	402.464	79.999	19.997	100.746	19.388	44.410	0.491
655.500	402.703	79.999	19.997	100.747	19.379	45.014	0.497
656.000	402.949	80.000	19.996	100.747	19.379	45.055	0.490
656.500	403.239	79.999	19.996	100.748	19.372	45.506	0.511
657.000	403.524	79.999	19.996	100.747	19.367	45.879	0.555
657.500	403.769	79.999	19.997	100.747	19.367	45.894	0.553
658.000	404.011	79.999	19.997	100.747	19.362	46.210	0.509
658.500	404.202	79.999	19.997	100.746	19.359	46.439	0.460
659.000	404.501	79.999	19.997	100.745	19.352	46.916	0.461
659.500	404.742	79.999	19.997	100.745	19.351	46.987	0.515
660.000	404.997	79.998	19.997	100.745	19.347	47.270	0.518
660.500	405.255	79.998	19.997	100.745	19.340	47.754	0.504
661.000	405.479	79.998	19.997	100.745	19.338	47.890	0.498
661.500	405.775	79.999	19.998	100.745	19.331	48.336	0.501
662.000	406.012	79.999	19.997	100.744	19.327	48.614	0.526
662.500	406.282	79.999	19.997	100.745	19.326	48.702	0.520
663.000	406.520	79.999	19.997	100.745	19.322	48.957	0.508
663.500	406.764	79.998	19.997	100.745	19.319	49.197	0.495
664.000	407.055	80.000	19.997	100.744	19.313	49.591	0.508
664.500	407.270	79.999	19.997	100.745	19.308	49.955	0.520
665.000	407.548	80.000	19.996	100.745	19.304	50.234	0.500
665.500	407.803	80.000	19.997	100.744	19.302	50.350	0.513
666.000	408.002	79.999	19.997	100.744	19.299	50.606	0.493
666.500	408.298	79.999	19.996	100.744	19.294	50.955	0.474
667.000	408.560	80.001	19.997	100.743	19.290	51.208	0.526
667.500	408.809	79.999	19.997	100.742	19.285	51.555	0.534
668.000	409.058	80.000	19.997	100.741	19.280	51.868	0.504
668.500	409.300	80.001	19.997	100.741	19.276	52.161	0.495
669.000	409.555	80.000	19.997	100.740	19.272	52.465	0.495
669.500	409.844	80.000	19.998	100.740	19.265	52.934	0.521
670.000	410.068	79.999	19.997	100.741	19.263	53.074	0.528
670.500	410.289	80.001	19.996	100.739	19.259	53.382	0.479
671.000	410.584	80.001	19.996	100.738	19.255	53.637	0.480
671.500	410.818	80.000	19.996	100.738	19.252	53.815	0.523
672.000	411.085	80.002	19.996	100.738	19.247	54.204	0.515
672.500	411.343	80.002	19.996	100.738	19.240	54.653	0.512
673.000	411.599	80.000	19.996	100.740	19.234	55.063	0.519
673.500	411.830	80.000	19.996	100.740	19.230	55.311	0.501
674.000	412.055	79.999	19.997	100.739	19.226	55.610	0.472
674.500	412.353	80.001	19.996	100.737	19.220	56.058	0.489
675.000	412.615	80.001	19.997	100.734	19.218	56.154	0.542
675.500	412.863	79.999	19.996	100.730	19.212	56.582	0.535
676.000	413.090	80.000	19.997	100.728	19.204	57.123	0.492
676.500	413.352	80.000	19.996	100.723	19.201	57.347	0.482
677.000	413.594	79.999	19.996	100.723	19.196	57.728	0.497
677.501	413.868	79.999	19.995	100.724	19.192	57.951	0.510
678.000	414.077	80.000	19.996	100.726	19.187	58.337	0.500
678.500	414.374	80.000	19.995	100.730	19.182	58.672	0.494
679.000	414.589	79.998	19.996	100.737	19.176	59.050	0.509
679.500	414.838	80.000	19.996	100.738	19.172	59.353	0.488
680.000	415.087	79.999	19.996	100.737	19.168	59.618	0.481
680.500	415.326	79.999	19.996	100.737	19.163	59.970	0.493
681.000	415.610	79.998	19.995	100.735	19.159	60.235	0.505
681.500	415.887	79.998	19.996	100.733	19.151	60.801	0.542
682.000	416.123	79.997	19.996	100.731	19.149	60.983	0.537
682.500	416.383	79.999	19.996	100.726	19.143	61.339	0.504
683.000	416.651	79.999	19.996	100.721	19.139	61.674	0.512
683.500	416.905	79.998	19.995	100.717	19.132	62.141	0.525
684.000	417.135	79.998	19.996	100.712	19.127	62.462	0.503
684.500	417.391	79.999	19.995	100.708	19.125	62.640	0.485
685.000	417.641	79.997	19.996	100.708	19.117	63.177	0.496
685.500	417.901	79.999	19.995	100.709	19.107	63.848	0.508
686.000	418.175	79.998	19.996	100.709	19.105	64.005	0.522
686.500	418.418	79.998	19.996	100.710	19.102	64.234	0.526
687.000	418.662	79.998	19.996	100.711	19.095	64.686	0.502
687.500	418.945	79.997	19.995	100.712	19.090	65.057	0.507
688.000	419.170	79.998	19.996	100.714	19.086	65.293	0.517
688.500	419.466	79.997	19.995	100.714	19.079	65.796	0.515
689.000	419.661	79.997	19.995	100.712	19.072	66.249	0.506
689.500	419.947	79.999	19.995	100.712	19.068	66.576	0.486
690.000	420.135	79.998	19.996	100.712	19.060	67.083	0.477
690.500	420.445	79.998	19.995	100.711	19.056	67.352	0.486
691.000	420.678	79.997	19.996	100.711	19.052	67.685	0.521
691.500	420.947	79.999	19.997	100.711	19.040	68.499	0.523
692.000	421.197	79.998	19.996	100.710	19.034	68.867	0.510
692.500	421.428	79.999	19.997	100.710	19.030	69.153	0.500
693.000	421.721	79.999	19.997	100.709	19.023	69.680	0.503
693.500	421.959	79.999	19.996	100.709	19.016	70.157	0.527
694.000	422.250	79.999	19.995	100.709	19.013	70.373	0.530
694.500	422.460	79.998	19.996	100.709	19.008	70.701	0.515
695.000	422.709	79.998	19.996	100.708	19.003	71.064	0.480
695.500	422.954	79.999	19.996	100.707	18.997	71.452	0.477
696.000	423.187	79.999	19.996	100.708	18.990	71.911	0.486
696.500	423.490	79.997	19.996	100.708	18.984	72.349	0.506
697.000	423.709	79.997	19.995	100.708	18.976	72.879	0.529
697.500	423.979	79.998	19.997	100.707	18.970	73.296	0.506
698.000	424.226	80.000	19.996	100.707	18.969	73.404	0.503
698.500	424.497	80.000	19.996	100.702	18.960	74.041	0.517
699.000	424.761	79.999	19.996	100.700	18.950	74.673	0.526
699.501	424.984	79.999	19.997	100.695	18.949	74.775	0.511
700.001	425.230	79.998	19.995	100.695	18.939	75.480	0.478
700.500	425.495	79.998	19.995	100.692	18.934	75.830	0.490
701.000	425.729	79.998	19.997	100.698	18.926	76.347	0.505
701.500	426.037	79.998	19.996	100.695	18.917	76.988	0.521
702.000	426.255	79.998	19.996	100.697	18.913	77.257	0.534
702.500	426.476	79.997	19.994	100.697	18.901	78.052	0.482
703.000	426.735	79.999	19.996	100.699	18.898	78.274	0.460
703.500	427.012	79.998	19.995	100.698	18.890	78.834	0.508
704.000	427.239	79.998	19.995	100.698	18.881	79.477	0.519
704.500	427.488	79.997	19.996	100.697	18.875	79.877	0.490
705.000	427.763	79.999	19.995	100.694	18.869	80.279	0.501
705.500	428.014	79.998	19.996	100.690	18.861	80.854	0.525
706.000	428.247	79.999	19.997	100.684	18.855	81.258	0.505
706.500	428.517	79.997	19.995	100.682	18.848	81.740	0.493
707.000	428.741	79.999	19.996	100.682	18.841	82.197	0.498
707.500	429.044	79.999	19.995	100.682	18.836	82.565	0.511
708.000	429.281	79.998	19.996	100.683	18.828	83.100	0.534
708.500	429.538	79.998	19.995	100.682	18.820	83.690	0.517
709.000	429.863	79.997	19.996	100.683	18.812	84.252	0.537
709.500	430.064	79.996	19.996	100.680	18.803	84.827	0.554
710.000	430.271	79.997	19.995	100.678	18.798	85.174	0.467
710.500	430.533	79.998	19.995	100.675	18.790	85.748	0.438
711.000	430.789	79.997	19.996	100.674	18.782	86.305	0.494
711.500	431.038	79.997	19.996	100.672	18.777	86.658	0.512
712.000	431.304	79.997	19.995	100.672	18.767	87.340	0.510
712.500	431.558	79.997	19.997	100.671	18.762	87.647	0.518
713.000	431.795	79.996	19.996	100.669	18.754	88.194	0.506
713.500	432.048	79.998	19.996	100.668	18.747	88.735	0.490
714.000	432.339	79.997	19.996	100.667	18.735	89.498	0.517
714.500	432.587	79.997	19.994	100.667	18.730	89.855	0.541
715.000	432.838	79.997	19.996	100.667	18.722	90.449	0.519
715.500	433.073	79.999	19.996	100.668	18.715	90.890	0.492
716.000	433.362	79.998	19.997	100.669	18.705	91.597	0.505
716.500	433.562	79.998	19.996	100.668	18.696	92.220	0.507
717.000	433.860	79.999	19.996	100.663	18.689	92.682	0.494
717.500	434.062	79.998	19.994	100.660	18.682	93.212	0.499
718.000	434.332	79.998	19.996	100.660	18.676	93.608	0.486
718.500	434.618	79.998	19.997	100.658	18.666	94.286	0.514
719.000	434.833	79.998	19.996	100.653	18.659	94.815	0.528
719.500	435.080	79.998	19.996	100.654	18.652	95.275	0.482
720.000	435.375	79.999	19.996	100.653	18.638	96.242	0.502
720.500	435.645	79.999	19.996	100.649	18.635	96.470	0.553
721.000	435.881	79.999	19.996	100.643	18.627	96.999	0.535
721.500	436.106	79.999	19.996	100.642	18.620	97.477	0.484
722.000	436.375	80.000	19.997	100.638	18.611	98.064	0.477
722.500	436.584	79.998	19.996	100.634	18.602	98.736	0.486
723.000	436.842	80.000	19.996	100.631	18.595	99.222	0.473
723.500	437.124	80.000	19.996	100.630	18.583	100.064	0.503
724.000	437.393	79.998	19.996	100.629	18.574	100.658	0.545
724.500	437.588	79.999	19.997	100.629	18.567	101.117	0.508
725.000	437.851	79.999	19.997	100.629	18.560	101.637	0.461
725.500	438.140	79.999	19.997	100.628	18.552	102.144	0.505
726.000	438.380	79.998	19.996	100.628	18.543	102.772	0.541
726.500	438.618	79.999	19.997	100.627	18.535	103.354	0.504
727.000	438.868	79.999	19.996	100.627	18.527	103.857	0.483
727.500	439.163	79.999	19.996	100.626	18.517	104.564	0.517
728.000	439.374	80.000	19.996	100.626	18.511	104.993	0.526
728.500	439.638	79.999	19.996	100.624	18.503	105.531	0.490
729.000	439.859	79.997	19.996	100.624	18.491	106.386	0.480
729.500	440.141	79.998	19.996	100.623	18.486	106.685	0.494
730.000	440.355	80.000	19.996	100.623	18.477	107.336	0.500
730.500	440.615	79.998	19.997	100.623	18.467	108.019	0.485
731.000	440.847	79.998	19.996	100.624	18.460	108.541	0.483
731.500	441.124	79.999	19.996	100.620	18.448	109.319	0.500
732.001	441.373	79.998	19.995	100.619	18.443	109.683	0.518
732.500	441.606	79.998	19.995	100.615	18.431	110.518	0.504
733.000	441.858	80.012	19.999	100.614	18.425	110.885	0.483
733.500	442.102	80.017	20.000	100.615	18.415	111.601	0.491
734.000	442.368	80.009	20.000	100.619	18.406	112.208	0.504
734.500	442.619	80.005	19.999	100.621	18.392	113.192	0.514
735.000	442.864	79.998	19.998	100.623	18.388	113.441	0.506
735.500	443.113	79.998	19.997	100.619	18.380	113.992	0.494
736.000	443.368	79.998	19.998	100.613	18.370	114.699	0.499
736.500	443.630	79.999	19.998	100.608	18.366	114.969	0.511
737.000	443.856	79.997	19.997	100.601	18.354	115.816	0.503
737.500	444.095	79.999	19.997	100.599	18.349	116.127	0.476
738.000	444.375	80.000	19.997	100.600	18.340	116.738	0.492
738.500	444.592	80.000	19.997	100.598	18.332	117.340	0.508
739.000	444.824	79.998	19.996	100.595	18.329	117.496	0.473
739.500	445.132	79.998	19.996	100.595	18.312	118.708	0.494
740.000	445.394	79.999	19.997	100.593	18.308	118.989	0.555
740.500	445.588	79.998	19.997	100.590	18.300	119.506	0.513
741.000	445.850	79.998	19.997	100.590	18.288	120.330	0.456
741.500	446.118	79.999	19.997	100.591	18.282	120.785	0.493
742.000	446.364	79.999	19.997	100.590	18.276	121.189	0.522
742.500	446.616	79.998	19.998	100.590	18.266	121.871	0.506
743.000	446.853	80.000	19.996	100.590	18.260	122.293	0.494
743.500	447.102	79.999	19.997	100.588	18.250	122.984	0.487
744.000	447.379	80.000	19.997	100.584	18.240	123.655	0.505
744.500	447.606	80.000	19.996	100.578	18.236	123.940	0.515
745.000	447.859	79.999	19.996	100.572	18.226	124.634	0.492
745.500	448.126	79.999	19.997	100.564	18.220	125.061	0.500
746.000	448.376	80.000	19.997	100.558	18.210	125.734	0.518
746.500	448.619	80.000	19.997	100.559	18.204	126.163	0.505
747.000	448.875	79.999	19.996	100.558	18.195	126.778	0.496
747.500	449.108	80.000	19.996	100.560	18.189	127.156	0.494
748.000	449.358	80.001	19.997	100.564	18.179	127.900	0.486
748.500	449.612	80.000	19.995	100.567	18.174	128.212	0.493
749.000	449.846	80.000	19.997	100.563	18.164	128.842	0.496
749.500	450.110	80.001	19.997	100.563	18.156	129.406	0.493
750.000	450.322	80.000	19.996	100.563	18.148	129.947	0.487
750.500	450.570	80.000	19.998	100.559	18.142	130.354	0.468
751.000	450.817	80.000	19.996	100.557	18.134	130.911	0.477
751.500	451.052	80.000	19.997	100.557	18.129	131.295	0.488
752.000	451.354	79.999	19.997	100.555	18.120	131.890	0.510
752.500	451.603	79.999	19.996	100.553	18.115	132.253	0.544
753.000	451.847	79.999	19.997	100.552	18.111	132.568	0.522
753.500	452.109	80.000	19.996	100.551	18.103	133.123	0.499
754.000	452.338	79.998	19.998	100.550	18.098	133.404	0.499
754.500	452.598	79.998	19.996	100.550	18.091	133.909	0.491
755.000	452.823	79.998	19.997	100.550	18.085	134.363	0.487
755.500	453.102	79.999	19.996	100.549	18.077	134.856	0.494
756.000	453.336	79.999	19.997	100.548	18.070	135.335	0.509
756.500	453.567	79.999	19.997	100.547	18.068	135.507	0.489
757.000	453.831	79.997	19.997	100.547	18.062	135.921	0.480
757.500	454.059	79.997	19.998	100.546	18.058	136.225	0.494
758.000	454.304	79.997	19.997	100.546	18.050	136.750	0.482
758.500	454.595	79.997	19.997	100.546	18.048	136.878	0.504
759.000	454.804	79.997	19.997	100.548	18.038	137.558	0.518
759.500	455.047	79.998	19.997	100.539	18.037	137.609	0.476
760.000	455.300	79.997	19.997	100.516	18.031	138.079	0.474
760.500	455.540	79.997	19.997	100.502	18.027	138.358	0.494
761.000	455.816	79.998	19.997	100.494	18.021	138.712	0.505
761.500	456.052	79.998	19.996	100.487	18.014	139.210	0.514
762.000	456.314	79.996	19.997	100.492	18.012	139.382	0.505
762.500	456.571	79.998	19.997	100.510	18.008	139.626	0.509
763.000	456.778	79.996	19.996	100.520	18.002	140.009	0.491
763.500	457.046	79.998	19.996	100.520	18.002	140.063	0.469
764.000	457.288	79.997	19.996	100.521	17.997	140.399	0.493
764.500	457.538	79.999	19.996	100.520	17.994	140.584	0.501
765.000	457.773	79.997	19.996	100.518	17.992	140.690	0.488
765.501	458.051	79.998	19.996	100.515	17.989	140.905	0.499
766.000	458.279	79.998	19.996	100.516	17.984	141.286	0.510
766.500	458.547	79.997	19.996	100.516	17.988	140.970	0.501
767.000	458.812	79.997	19.996	100.517	17.982	141.387	0.515
767.500	459.057	79.997	19.996	100.518	17.980	141.513	0.521
768.000	459.342	79.997	19.996	100.518	17.975	141.863	0.520
768.500	459.554	79.998	19.996	100.518	17.974	141.937	0.513
769.000	459.802	79.997	19.996	100.517	17.974	141.929	0.478
769.500	460.080	79.998	19.996	100.515	17.972	142.097	0.493
770.000	460.286	79.998	19.995	100.515	17.970	142.195	0.505
770.501	460.551	79.996	19.996	100.514	17.972	142.094	0.478
771.001	460.792	79.998	19.996	100.512	17.968	142.376	0.488
771.500	461.068	79.998	19.995	100.512	17.968	142.355	0.512
772.000	461.348	79.997	19.996	100.512	17.969	142.280	0.537
772.500	461.556	79.998	19.996	100.506	17.966	142.480	0.522
773.000	461.785	79.998	19.995	100.502	17.968	142.323	0.463
773.500	462.074	79.998	19.996	100.503	17.969	142.278	0.478
774.000	462.303	79.997	19.996	100.501	17.970	142.188	0.518
774.500	462.582	79.998	19.996	100.495	17.971	142.130	0.513
775.000	462.823	79.996	19.996	100.495	17.970	142.220	0.514
775.500	463.062	79.998	19.996	100.497	17.972	142.062	0.500
776.000	463.332	79.998	19.996	100.494	17.974	141.940	0.495
776.500	463.579	79.997	19.997	100.490	17.978	141.642	0.513
777.000	463.831	79.998	19.996	100.489	17.980	141.521	0.508
777.500	464.076	79.998	19.996	100.489	17.983	141.303	0.498
778.000	464.362	79.998	19.996	100.485	17.986	141.092	0.514
778.500	464.581	79.996	19.995	100.481	17.987	141.058	0.518
779.000	464.853	79.999	19.997	100.482	17.990	140.799	0.498
779.500	465.093	79.997	19.997	100.484	17.994	140.522	0.501
780.000	465.334	79.999	19.996	100.484	18.000	140.115	0.497
780.500	465.597	79.998	19.997	100.481	18.004	139.860	0.492
781.000	465.859	79.997	19.996	100.481	18.009	139.525	0.514
781.500	466.088	79.997	19.996	100.479	18.014	139.187	0.508
782.000	466.313	79.998	19.996	100.476	18.020	138.774	0.473
782.500	466.583	79.997	19.996	100.474	18.027	138.300	0.475
783.000	466.847	79.997	19.996	100.474	18.035	137.716	0.514
783.500	467.090	79.997	19.996	100.473	18.040	137.396	0.521
784.000	467.316	79.997	19.996	100.473	18.046	136.992	0.488
784.500	467.572	79.997	19.996	100.472	18.051	136.603	0.475
785.000	467.836	79.996	19.996	100.472	18.059	136.068	0.501
785.500	468.108	79.997	19.997	100.474	18.067	135.497	0.528
786.000	468.354	79.997	19.995	100.474	18.080	134.608	0.527
786.500	468.611	79.998	19.997	100.474	18.086	134.198	0.511
787.000	468.871	79.998	19.996	100.474	18.100	133.278	0.510
787.500	469.097	79.998	19.996	100.474	18.106	132.849	0.501
788.000	469.357	79.999	19.996	100.472	18.119	131.980	0.486
788.500	469.614	79.998	19.997	100.472	18.131	131.132	0.502
789.000	469.858	79.997	19.997	100.471	18.142	130.386	0.509
789.500	470.096	79.998	19.997	100.471	18.149	129.856	0.491
790.000	470.364	79.996	19.996	100.471	18.163	128.903	0.494
790.500	470.623	79.998	19.997	100.473	18.175	128.074	0.517
791.000	470.882	79.998	19.997	100.474	18.188	127.177	0.523
791.500	471.122	79.999	19.997	100.474	18.203	126.154	0.509
792.000	471.347	79.998	19.996	100.474	18.219	125.028	0.482
792.500	471.658	79.998	19.997	100.474	18.233	124.121	0.501
793.000	471.848	79.997	19.997	100.472	18.244	123.369	0.518
793.500	472.121	79.997	19.996	100.471	18.263	122.011	0.482
794.000	472.370	79.998	19.997	100.471	18.279	120.895	0.493
794.501	472.643	79.999	19.998	100.472	18.294	119.897	0.522
795.001	472.881	79.997	19.997	100.472	18.312	118.614	0.516
795.500	473.171	80.000	19.996	100.472	18.327	117.633	0.520
796.000	473.432	79.999	19.996	100.472	18.346	116.316	0.540
796.500	473.707	80.000	19.996	100.474	18.363	115.155	0.543
797.000	473.940	79.998	19.997	100.477	18.383	113.761	0.522
797.500	474.225	79.999	19.996	100.481	18.400	112.599	0.513
798.000	474.435	80.000	19.996	100.484	18.418	111.307	0.506
798.500	474.713	80.000	19.995	100.489	18.437	110.036	0.492
799.000	474.948	79.999	19.997	100.493	18.460	108.449	0.501
799.500	475.222	79.999	19.996	100.493	18.479	107.086	0.511
800.000	475.500	80.000	19.995	100.492	18.499	105.741	0.530
800.500	475.737	79.999	19.996	100.494	18.523	104.106	0.534
801.000	476.014	79.998	19.995	100.492	18.543	102.686	0.514
801.500	476.269	79.999	19.996	100.492	18.563	101.339	0.523
802.000	476.507	80.000	19.996	100.498	18.586	99.764	0.513
802.500	476.776	79.999	19.996	100.502	18.605	98.434	0.500
803.000	477.022	80.000	19.996	100.505	18.629	96.786	0.511
803.500	477.266	80.001	19.996	100.507	18.651	95.243	0.502
804.000	477.524	80.000	19.996	100.508	18.677	93.476	0.496
804.500	477.817	79.999	19.996	100.508	18.698	92.051	0.526
805.000	478.037	79.999	19.996	100.508	18.722	90.344	0.532
805.500	478.342	79.999	19.997	100.509	18.749	88.521	0.520
806.000	478.576	80.000	19.996	100.510	18.771	87.009	0.532
806.500	478.861	79.999	19.996	100.510	18.795	85.350	0.529
807.000	479.121	79.998	19.996	100.511	18.822	83.441	0.531
807.500	479.371	80.000	19.996	100.511	18.848	81.656	0.527
808.000	479.635	79.999	19.997	100.514	18.872	79.997	0.512
808.500	479.889	79.998	19.996	100.514	18.900	78.090	0.517
809.001	480.137	80.000	19.995	100.515	18.924	76.436	0.510
809.500	480.419	79.998	19.996	100.514	18.950	74.649	0.516
810.001	480.677	79.999	19.996	100.514	18.980	72.567	0.535
810.501	480.933	79.998	19.996	100.511	19.005	70.877	0.527
811.000	481.178	79.996	19.996	100.512	19.034	68.880	0.507
811.500	481.446	79.999	19.996	100.517	19.065	66.691	0.507
812.000	481.705	79.998	19.995	100.521	19.094	64.734	0.520
812.500	481.963	79.999	19.996	100.528	19.121	62.865	0.522
813.000	482.216	79.999	19.997	100.537	19.150	60.867	0.514
813.500	482.489	79.998	19.997	100.543	19.180	58.765	0.519
814.000	482.723	79.998	19.996	100.546	19.211	56.617	0.517
814.500	483.020	79.998	19.997	100.549	19.240	54.638	0.519
815.000	483.252	79.998	19.997	100.551	19.269	52.648	0.530
815.500	483.517	79.999	19.998	100.550	19.300	50.478	0.513
816.000	483.775	79.999	19.997	100.551	19.327	48.643	0.510
816.500	484.065	79.999	19.997	100.552	19.361	46.252	0.536
817.000	484.272	79.998	19.998	100.556	19.387	44.502	0.523
817.500	484.509	79.998	19.996	100.558	19.417	42.391	0.470
818.000	484.828	79.998	19.997	100.563	19.444	40.513	0.500
818.500	485.084	79.998	19.997	100.570	19.474	38.433	0.565
819.000	485.353	79.999	19.997	100.577	19.506	36.234	0.550
819.500	485.601	79.997	19.997	100.583	19.531	34.491	0.521
820.000	485.878	79.999	19.996	100.593	19.562	32.381	0.521
820.500	486.104	79.998	19.997	100.601	19.587	30.657	0.514
821.000	486.379	79.998	19.996	100.608	19.615	28.718	0.502
821.500	486.661	80.000	19.997	100.616	19.637	27.154	0.529
822.000	486.935	79.998	19.996	100.623	19.663	25.350	0.557
822.500	487.160	79.998	19.996	100.632	19.685	23.879	0.528
823.000	487.434	79.999	19.996	100.642	19.707	22.357	0.499
823.500	487.707	80.000	19.996	100.651	19.724	21.158	0.523
824.000	487.949	80.000	19.996	100.659	19.748	19.533	0.531
824.500	488.222	79.999	19.995	100.667	19.767	18.212	0.515
825.000	488.472	80.001	19.996	100.672	19.787	16.834	0.519
825.500	488.761	80.000	19.996	100.676	19.803	15.697	0.531
826.000	489.011	79.999	19.995	100.683	19.821	14.460	0.539
826.500	489.271	80.000	19.995	100.689	19.836	13.421	0.524
827.000	489.512	80.002	19.996	100.696	19.853	12.238	0.505
827.500	489.829	80.000	19.995	100.701	19.865	11.395	0.529
828.000	490.058	80.000	19.996	100.706	19.880	10.371	0.552
828.500	490.340	79.999	19.995	100.706	19.892	9.533	0.528
829.000	490.584	79.998	19.997	100.706	19.906	8.552	0.519
829.501	490.833	79.999	19.996	100.707	19.915	7.946	0.510
830.000	491.054	79.999	19.995	100.707	19.925	7.220	0.481
830.500	491.339	79.999	19.995	100.708	19.935	6.559	0.488
831.000	491.586	80.000	19.995	100.712	19.945	5.838	0.519
831.500	491.875	80.000	19.997	100.718	19.953	5.335	0.534
832.000	492.120	79.998	19.996	100.723	19.963	4.595	0.535
832.500	492.402	79.999	19.996	100.729	19.970	4.144	0.531
833.000	492.649	79.999	19.996	100.735	19.974	3.840	0.528
833.500	492.920	79.999	19.997	100.740	19.984	3.166	0.524
834.000	493.214	79.998	19.996	100.741	19.990	2.730	0.542
834.500	493.515	79.998	19.996	100.742	19.995	2.423	0.580
835.000	493.752	79.998	19.997	100.742	19.999	2.150	0.566
835.500	494.011	79.997	19.996	100.743	20.002	1.883	0.517
836.000	494.289	79.997	19.996	100.743	20.010	1.374	0.517
836.500	494.545	79.995	19.997	100.743	20.012	1.209	0.536
837.000	494.778	79.996	19.997	100.744	20.012	1.190	0.512
837.500	495.057	79.996	19.997	100.745	20.020	0.665	0.501
838.000	495.322	79.998	19.996	100.744	20.024	0.395	0.528
838.500	495.581	79.997	19.997	100.743	20.026	0.224	0.534
839.000	495.842	79.994	19.997	100.743	20.030	0.008	0.522
839.500	496.120	79.998	19.996	100.743	20.031	-0.068	0.529
840.000	496.405	79.997	19.996	100.743	20.033	-0.254	0.550
840.500	496.625	79.998	19.997	100.743	20.039	-0.631	0.534
841.000	496.887	79.996	19.999	100.743	20.039	-0.655	0.494
841.500	497.152	79.996	19.996	100.743	20.038	-0.561	0.505
842.000	497.409	79.994	19.996	100.743	20.039	-0.627	0.525
842.500	497.651	79.997	19.998	100.743	20.041	-0.761	0.510
843.000	497.951	79.998	19.997	100.743	20.047	-1.177	0.520
843.500	498.183	79.996	19.997	100.744	20.046	-1.131	0.537
844.000	498.457	79.997	19.998	100.744	20.050	-1.414	0.520
844.500	498.712	79.997	19.998	100.744	20.046	-1.105	0.518
845.000	498.964	79.997	19.998	100.743	20.050	-1.418	0.518
845.500	499.253	79.998	19.998	100.743	20.049	-1.320	0.524
846.000	499.500	79.997	19.997	100.743	20.049	-1.320	0.538
846.500	499.748	79.997	19.997	100.743	20.051	-1.482	0.516
847.000	500.012	79.998	19.997	100.743	20.049	-1.350	0.504
847.500	500.299	79.996	19.997	100.744	20.050	-1.442	0.531
848.000	500.557	79.998	19.997	100.744	20.053	-1.583	0.547
848.500	500.799	79.997	19.997	100.744	20.054	-1.706	0.522
849.000	501.060	79.997	19.997	100.745	20.052	-1.542	0.502
849.500	501.358	79.999	19.997	100.744	20.051	-1.497	0.531
850.000	501.601	79.998	19.996	100.744	20.051	-1.487	0.550
850.500	501.872	79.999	19.997	100.743	20.056	-1.830	0.527
851.000	502.120	79.998	19.997	100.743	20.054	-1.696	0.517
851.500	502.376	79.999	19.997	100.743	20.057	-1.909	0.512
852.000	502.634	79.998	19.996	100.743	20.059	-2.016	0.509
852.500	502.879	79.999	19.997	100.744	20.056	-1.798	0.508
853.000	503.128	79.997	19.996	100.744	20.059	-2.045	0.498
853.500	503.416	79.998	19.996	100.745	20.056	-1.845	0.516
854.000	503.678	79.997	19.997	100.747	20.060	-2.067	0.543
854.500	503.932	79.998	19.995	100.746	20.058	-1.984	0.533
855.001	504.212	79.999	19.997	100.746	20.061	-2.141	0.525
855.501	504.453	79.999	19.996	100.747	20.060	-2.118	0.528
856.000	504.731	80.000	19.997	100.747	20.057	-1.918	0.520
856.500	504.974	79.997	19.996	100.745	20.062	-2.270	0.520
857.000	505.264	79.998	19.996	100.746	20.061	-2.174	0.527
857.501	505.498	80.000	19.996	100.746	20.062	-2.212	0.529
858.000	505.760	79.998	19.996	100.746	20.065	-2.472	0.510
858.500	506.047	79.998	19.996	100.746	20.061	-2.163	0.522
859.000	506.273	79.998	19.995	100.745	20.061	-2.188	0.531
859.500	506.555	79.999	19.995	100.745	20.061	-2.180	0.511
860.000	506.803	79.999	19.996	100.745	20.061	-2.205	0.519
860.501	507.053	79.998	19.997	100.745	20.062	-2.233	0.514
861.001	507.314	79.998	19.996	100.744	20.064	-2.387	0.504
861.500	507.563	79.999	19.997	100.744	20.060	-2.097	0.510
862.000	507.805	79.997	19.996	100.746	20.062	-2.240	0.501
862.500	508.093	79.999	19.997	100.750	20.061	-2.186	0.510
863.000	508.344	79.998	19.996	100.751	20.061	-2.199	0.535
863.500	508.612	79.995	19.997	100.752	20.061	-2.190	0.530
864.000	508.851	79.997	19.996	100.753	20.063	-2.310	0.513
864.500	509.121	79.997	19.996	100.751	20.062	-2.254	0.508
865.000	509.386	79.998	19.997	100.748	20.061	-2.159	0.522
865.500	509.671	79.998	19.996	100.748	20.061	-2.186	0.543
866.000	509.943	79.998	19.998	100.747	20.065	-2.425	0.554
866.500	510.166	79.998	19.997	100.746	20.064	-2.406	0.526
867.000	510.473	79.998	19.996	100.746	20.064	-2.399	0.512
867.500	510.683	79.996	19.996	100.746	20.064	-2.385	0.523
868.000	510.986	79.998	19.996	100.746	20.067	-2.606	0.515
868.500	511.236	79.997	19.996	100.747	20.065	-2.444	0.534
869.000	511.489	79.999	19.995	100.748	20.066	-2.512	0.528
869.500	511.755	79.998	19.996	100.749	20.068	-2.623	0.510
870.000	511.992	79.996	19.997	100.749	20.064	-2.408	0.511
870.500	512.243	79.999	19.996	100.749	20.066	-2.542	0.496
871.000	512.541	79.996	19.997	100.750	20.067	-2.579	0.519
871.500	512.791	79.998	19.997	100.752	20.066	-2.498	0.548
872.000	513.049	79.997	19.997	100.751	20.065	-2.472	0.528
872.500	513.263	79.998	19.996	100.752	20.064	-2.393	0.490
873.000	513.539	79.998	19.996	100.751	20.064	-2.397	0.481
873.501	513.774	79.998	19.996	100.750	20.068	-2.683	0.501
874.001	514.064	79.999	19.997	100.748	20.065	-2.429	0.518
874.500	514.321	79.998	19.997	100.748	20.066	-2.508	0.535
875.000	514.594	79.999	19.996	100.749	20.068	-2.624	0.538
875.500	514.875	79.995	19.995	100.749	20.068	-2.687	0.542
876.000	515.141	79.997	19.996	100.749	20.066	-2.504	0.551
876.500	515.395	79.998	19.996	100.750	20.065	-2.455	0.534
877.000	515.661	79.997	19.996	100.750	20.063	-2.308	0.520
877.500	515.931	79.997	19.996	100.753	20.062	-2.265	0.528
878.000	516.202	79.999	19.997	100.756	20.062	-2.255	0.538
878.500	516.447	79.998	19.995	100.756	20.066	-2.495	0.528
879.000	516.706	79.998	19.996	100.756	20.066	-2.517	0.510
879.500	516.940	79.997	19.996	100.759	20.065	-2.423	0.499
880.000	517.263	79.998	19.996	100.756	20.065	-2.431	0.525
880.500	517.514	79.998	19.997	100.755	20.065	-2.451	0.565
881.000	517.751	79.997	19.997	100.755	20.068	-2.658	0.531
881.500	518.044	79.999	19.997	100.755	20.067	-2.619	0.509
882.000	518.315	79.998	19.995	100.752	20.066	-2.504	0.547
882.500	518.515	79.999	19.997	100.752	20.068	-2.624	0.518
883.000	518.778	79.999	19.997	100.751	20.070	-2.815	0.467
883.500	519.088	79.999	19.996	100.756	20.067	-2.589	0.518
884.000	519.326	79.999	19.996	100.756	20.066	-2.525	0.560
884.500	519.581	80.000	19.997	100.755	20.065	-2.461	0.520
885.000	519.840	80.000	19.995	100.756	20.064	-2.402	0.504
885.500	520.048	80.000	19.995	100.755	20.065	-2.440	0.491
886.000	520.354	79.998	19.996	100.751	20.065	-2.468	0.491
886.500	520.599	79.999	19.995	100.751	20.068	-2.675	0.533
887.000	520.862	79.999	19.996	100.751	20.068	-2.641	0.530
887.500	521.103	79.999	19.996	100.752	20.068	-2.687	0.506
888.000	521.416	79.998	19.996	100.752	20.066	-2.543	0.529
888.500	521.685	79.999	19.995	100.753	20.072	-2.911	0.568
889.000	521.931	79.999	19.995	100.752	20.069	-2.735	0.549
889.500	522.162	79.999	19.996	100.752	20.072	-2.943	0.496
890.000	522.407	79.996	19.995	100.753	20.069	-2.758	0.476
890.500	522.692	80.000	19.996	100.752	20.065	-2.417	0.503
891.000	522.946	79.997	19.996	100.752	20.067	-2.604	0.535
891.500	523.181	79.999	19.996	100.752	20.069	-2.758	0.514
892.000	523.456	80.000	19.995	100.754	20.070	-2.786	0.499
892.500	523.720	79.998	19.996	100.752	20.070	-2.800	0.525
893.000	523.965	80.001	19.996	100.752	20.071	-2.841	0.524
893.500	524.277	79.999	19.996	100.752	20.073	-2.975	0.533
894.000	524.496	79.997	19.996	100.751	20.071	-2.890	0.544
894.500	524.789	79.994	19.996	100.752	20.068	-2.630	0.521
895.000	525.024	80.000	19.997	100.752	20.073	-2.982	0.520
895.500	525.280	79.997	19.995	100.753	20.071	-2.858	0.510
896.000	525.566	79.997	19.995	100.754	20.070	-2.779	0.516
896.500	525.833	79.998	19.996	100.754	20.069	-2.728	0.547
897.000	526.090	80.001	19.996	100.752	20.070	-2.775	0.539
897.501	526.353	80.000	19.996	100.752	20.072	-2.956	0.522
898.000	526.609	79.998	19.996	100.750	20.071	-2.835	0.519
898.500	526.848	79.998	19.996	100.750	20.070	-2.788	0.507
899.000	527.096	79.999	19.996	100.749	20.067	-2.619	0.491
899.500	527.347	79.999	19.996	100.749	20.067	-2.553	0.493
900.000	527.663	79.998	19.997	100.749	20.068	-2.653	0.533
900.500	527.872	80.000	19.996	100.748	20.070	-2.762	0.546
901.000	528.130	80.000	19.996	100.747	20.069	-2.692	0.497
901.500	528.417	79.999	19.996	100.749	20.069	-2.749	0.506
902.000	528.681	80.000	19.996	100.751	20.069	-2.713	0.547
902.500	528.969	80.000	19.996	100.753	20.066	-2.532	0.552
903.000	529.182	80.002	19.996	100.752	20.069	-2.691	0.527
903.500	529.462	80.000	19.996	100.751	20.069	-2.696	0.497
904.000	529.692	80.001	19.997	100.749	20.069	-2.719	0.501
904.500	529.959	80.000	19.995	100.746	20.064	-2.390	0.503
905.000	530.266	80.000	19.997	100.744	20.068	-2.651	0.535
905.500	530.490	80.000	19.997	100.744	20.068	-2.689	0.553
906.000	530.737	80.000	19.996	100.746	20.069	-2.700	0.501
906.500	531.014	80.000	19.995	100.746	20.066	-2.487	0.498
907.000	531.268	80.003	19.996	100.747	20.067	-2.579	0.527
907.500	531.516	80.001	19.996	100.747	20.066	-2.523	0.516
908.000	531.811	80.000	19.996	100.747	20.068	-2.632	0.523
908.500	532.027	80.000	19.996	100.745	20.068	-2.630	0.527
909.000	532.307	79.999	19.997	100.745	20.066	-2.545	0.504
909.500	532.574	80.000	19.995	100.745	20.066	-2.551	0.522
910.000	532.848	79.999	19.996	100.745	20.066	-2.498	0.544
910.500	533.068	80.000	19.996	100.744	20.066	-2.519	0.517
911.000	533.362	80.000	19.995	100.744	20.068	-2.626	0.504
911.500	533.612	80.000	19.997	100.744	20.066	-2.543	0.529
912.000	533.834	79.998	19.997	100.743	20.065	-2.446	0.508
912.500	534.117	79.998	19.996	100.744	20.065	-2.464	0.489
913.000	534.365	79.997	19.997	100.748	20.068	-2.679	0.519
913.500	534.660	79.998	19.995	100.753	20.069	-2.747	0.537
914.000	534.894	79.996	19.997	100.759	20.068	-2.658	0.536
914.500	535.183	79.998	19.996	100.765	20.069	-2.722	0.525
915.000	535.441	79.998	19.997	100.769	20.067	-2.598	0.535
915.500	535.719	79.998	19.995	100.767	20.070	-2.781	0.542
916.000	535.952	79.996	19.996	100.762	20.067	-2.572	0.523
916.500	536.212	79.997	19.997	100.758	20.069	-2.732	0.502
917.000	536.494	79.997	19.996	100.751	20.068	-2.637	0.517
917.500	536.712	79.997	19.996	100.747	20.067	-2.560	0.522
918.000	536.989	79.997	19.997	100.746	20.069	-2.726	0.498
918.500	537.233	79.997	19.996	100.748	20.069	-2.696	0.508
919.000	537.502	80.000	19.997	100.747	20.072	-2.952	0.517
919.500	537.770	79.997	19.995	100.747	20.069	-2.705	0.525
920.000	538.030	79.997	19.998	100.747	20.070	-2.767	0.533
920.500	538.270	79.999	19.997	100.748	20.073	-3.033	0.514
921.000	538.509	79.997	19.997	100.748	20.072	-2.933	0.489
921.500	538.817	79.997	19.996	100.748	20.066	-2.530	0.513
922.000	539.039	79.996	19.997	100.749	20.073	-2.986	0.538
922.500	539.351	79.998	19.998	100.749	20.070	-2.794	0.532
923.000	539.565	79.997	19.996	100.747	20.071	-2.882	0.530
923.500	539.835	79.996	19.997	100.748	20.072	-2.941	0.505
924.000	540.090	79.998	19.998	100.748	20.073	-3.018	0.505
924.500	540.380	79.998	19.997	100.745	20.073	-2.986	0.535
925.000	540.601	79.996	19.999	100.745	20.076	-3.215	0.528
925.500	540.868	79.997	19.997	100.744	20.072	-2.903	0.500
926.000	541.107	79.997	19.997	100.743	20.073	-3.033	0.497
926.500	541.384	79.998	19.996	100.744	20.070	-2.803	0.511
927.000	541.647	79.996	19.998	100.744	20.072	-2.924	0.527
927.500	541.901	79.996	19.998	100.744	20.071	-2.880	0.528
928.000	542.203	79.997	19.997	100.744	20.070	-2.828	0.537
928.500	542.457	79.998	19.997	100.745	20.071	-2.830	0.557
929.000	542.699	79.997	19.997	100.746	20.070	-2.820	0.526
929.500	542.951	79.999	19.998	100.747	20.072	-2.943	0.495
930.000	543.183	79.998	19.997	100.747	20.071	-2.854	0.489
930.500	543.422	79.998	19.998	100.747	20.071	-2.871	0.478
931.000	543.699	79.997	19.997	100.746	20.074	-3.080	0.494
931.500	543.955	79.997	19.997	100.744	20.070	-2.762	0.524
932.000	544.200	79.997	19.997	100.744	20.071	-2.834	0.516
932.500	544.505	79.998	19.997	100.746	20.072	-2.922	0.526
933.000	544.787	79.997	19.997	100.746	20.072	-2.943	0.569
933.500	545.023	79.997	19.997	100.747	20.073	-2.986	0.552
934.000	545.243	79.999	19.997	100.748	20.071	-2.854	0.487
934.500	545.513	79.999	19.996	100.749	20.071	-2.894	0.473
935.000	545.776	79.998	19.997	100.748	20.072	-2.916	0.512
935.500	546.027	79.998	19.996	100.747	20.073	-2.977	0.524
936.000	546.303	79.999	19.996	100.747	20.070	-2.775	0.521
936.500	546.517	79.997	19.996	100.746	20.071	-2.852	0.508
937.000	546.800	79.998	19.997	100.744	20.070	-2.826	0.493
937.500	547.033	79.998	19.996	100.745	20.070	-2.811	0.507
938.000	547.294	79.998	19.996	100.746	20.069	-2.734	0.505
938.500	547.539	79.998	19.997	100.746	20.070	-2.826	0.500
939.000	547.822	79.998	19.996	100.746	20.069	-2.751	0.517
939.500	548.073	79.996	19.996	100.748	20.070	-2.788	0.531
940.000	548.324	79.997	19.996	100.748	20.068	-2.664	0.518
940.500	548.585	79.998	19.996	100.748	20.071	-2.847	0.507
941.000	548.831	79.998	19.996	100.750	20.069	-2.719	0.509
941.500	549.081	79.996	19.996	100.752	20.071	-2.834	0.501
942.000	549.336	79.998	19.997	100.751	20.072	-2.902	0.500
942.500	549.586	79.996	19.996	100.753	20.071	-2.851	0.505
943.000	549.845	79.996	19.997	100.755	20.073	-2.967	0.507
943.500	550.105	79.996	19.997	100.755	20.070	-2.811	0.514
944.000	550.341	79.997	19.996	100.756	20.069	-2.751	0.507
944.500	550.633	79.996	19.997	100.758	20.069	-2.734	0.512
945.000	550.884	79.997	19.996	100.758	20.069	-2.692	0.536
945.501	551.107	79.998	19.996	100.756	20.070	-2.762	0.509
946.001	551.398	79.999	19.995	100.758	20.074	-3.058	0.494
946.500	551.616	79.996	19.996	100.756	20.071	-2.835	0.512
947.000	551.868	79.998	19.996	100.755	20.073	-3.014	0.490
947.500	552.080	79.998	19.997	100.755	20.076	-3.212	0.467
948.000	552.385	79.997	19.996	100.761	20.069	-2.724	0.491
948.500	552.637	79.996	19.995	100.762	20.072	-2.958	0.537
949.000	552.864	79.996	19.996	100.762	20.070	-2.769	0.518
949.500	553.115	79.995	19.995	100.763	20.069	-2.732	0.478
950.000	553.389	79.997	19.995	100.762	20.068	-2.675	0.502
950.500	553.638	79.998	19.997	100.757	20.072	-2.928	0.524
951.000	553.884	79.996	19.996	100.756	20.073	-2.995	0.509
951.500	554.123	79.998	19.996	100.761	20.071	-2.854	0.490
952.000	554.407	79.998	19.996	100.764	20.073	-2.995	0.504
952.500	554.639	79.996	19.996	100.765	20.068	-2.624	0.519
953.000	554.868	79.998	19.995	100.764	20.073	-2.973	0.488
953.500	555.116	79.997	19.996	100.761	20.071	-2.837	0.469
954.000	555.397	79.999	19.996	100.755	20.070	-2.803	0.503
954.500	555.666	79.998	19.996	100.751	20.070	-2.800	0.540
955.000	555.902	79.998	19.996	100.751	20.071	-2.831	0.527
955.500	556.164	79.998	19.997	100.751	20.073	-2.973	0.501
956.000	556.413	79.999	19.996	100.752	20.070	-2.805	0.504
956.500	556.658	80.000	19.997	100.753	20.070	-2.820	0.503
957.000	556.956	79.999	19.996	100.752	20.072	-2.924	0.519
957.500	557.158	79.999	19.996	100.751	20.071	-2.841	0.521
958.000	557.395	79.998	19.996	100.751	20.069	-2.747	0.470
958.500	557.659	79.998	19.995	100.751	20.069	-2.721	0.470
959.000	557.908	80.001	19.996	100.750	20.070	-2.785	0.507
959.500	558.187	79.998	19.997	100.750	20.074	-3.048	0.520
960.000	558.412	80.000	19.995	100.749	20.074	-3.086	0.516
960.500	558.695	79.999	19.995	100.749	20.073	-3.012	0.506
961.000	558.934	79.997	19.995	100.749	20.073	-3.003	0.515
961.500	559.160	79.999	19.995	100.748	20.074	-3.039	0.494
962.000	559.454	79.997	19.996	100.748	20.070	-2.819	0.493
962.500	559.666	80.000	19.995	100.748	20.071	-2.845	0.513
963.000	559.914	79.999	19.996	100.749	20.072	-2.913	0.484
963.500	560.160	80.000	19.996	100.750	20.074	-3.080	0.477
964.000	560.427	79.998	19.996	100.750	20.073	-3.001	0.503
964.500	560.664	79.998	19.996	100.750	20.071	-2.886	0.509
965.000	560.885	79.998	19.995	100.750	20.070	-2.805	0.481
965.500	561.193	79.998	19.996	100.749	20.073	-2.986	0.493
966.000	561.416	79.998	19.995	100.748	20.071	-2.879	0.530
966.500	561.630	79.999	19.996	100.747	20.072	-2.943	0.485
967.000	561.928	79.999	19.995	100.748	20.074	-3.056	0.475
967.500	562.152	79.998	19.996	100.752	20.074	-3.050	0.517
968.000	562.404	79.997	19.995	100.756	20.076	-3.182	0.498
968.500	562.669	79.998	19.996	100.759	20.079	-3.436	0.496
969.000	562.888	79.999	19.996	100.761	20.073	-3.003	0.501
969.500	563.149	79.998	19.995	100.763	20.074	-3.082	0.482
970.000	563.391	80.000	19.995	100.758	20.074	-3.101	0.491
970.500	563.663	79.999	19.997	100.756	20.073	-3.020	0.508
971.000	563.903	79.998	19.996	100.756	20.075	-3.165	0.513
971.500	564.171	79.999	19.996	100.755	20.079	-3.402	0.510
972.000	564.404	79.998	19.996	100.753	20.075	-3.142	0.505
972.500	564.639	79.997	19.997	100.754	20.073	-3.018	0.484
973.000	564.887	80.000	19.995	100.757	20.075	-3.170	0.475
973.500	565.151	79.996	19.996	100.757	20.076	-3.216	0.497
974.000	565.381	79.997	19.995	100.757	20.077	-3.270	0.503
974.500	565.664	80.000	19.995	100.756	20.075	-3.146	0.503
975.000	565.914	79.997	19.995	100.755	20.076	-3.183	0.523
975.500	566.124	79.996	19.995	100.749	20.075	-3.110	0.497
976.000	566.372	79.999	19.996	100.748	20.075	-3.127	0.459
976.500	566.643	79.998	19.996	100.748	20.074	-3.101	0.489
977.000	566.863	80.000	19.996	100.749	20.075	-3.118	0.505
977.500	567.121	79.999	19.997	100.749	20.074	-3.063	0.484
978.000	567.368	80.001	19.996	100.749	20.073	-3.031	0.491
978.500	567.625	79.997	19.996	100.746	20.072	-2.948	0.505
979.000	567.904	79.998	19.996	100.746	20.074	-3.089	0.520
979.500	568.124	79.999	19.995	100.748	20.071	-2.882	0.518
980.000	568.350	80.002	19.995	100.750	20.076	-3.193	0.473
980.500	568.618	79.999	19.995	100.750	20.073	-3.022	0.470
981.000	568.865	79.997	19.995	100.753	20.077	-3.276	0.504
981.500	569.094	80.000	19.996	100.754	20.075	-3.118	0.495
982.000	569.372	80.002	19.996	100.752	20.076	-3.184	0.492
982.500	569.614	80.000	19.996	100.750	20.075	-3.135	0.514
983.000	569.837	80.002	19.995	100.752	20.075	-3.118	0.492
983.500	570.090	80.001	19.996	100.750	20.075	-3.122	0.470
984.000	570.339	79.999	19.996	100.749	20.075	-3.144	0.489
984.500	570.562	80.001	19.996	100.749	20.074	-3.073	0.487
985.000	570.827	80.000	19.996	100.748	20.072	-2.899	0.480
985.500	571.089	80.001	19.996	100.748	20.074	-3.078	0.508
986.000	571.333	80.001	19.995	100.747	20.073	-2.976	0.516
986.500	571.577	79.999	19.996	100.746	20.073	-3.020	0.496
987.000	571.825	80.001	19.996	100.746	20.076	-3.186	0.490
987.500	572.061	80.000	19.996	100.746	20.075	-3.161	0.488
988.000	572.285	79.999	19.997	100.745	20.075	-3.159	0.473
988.500	572.553	79.998	19.996	100.747	20.077	-3.267	0.476
989.000	572.797	80.001	19.997	100.748	20.077	-3.274	0.502
989.500	573.028	79.998	19.997	100.748	20.080	-3.493	0.493
990.000	573.280	79.999	19.996	100.748	20.078	-3.335	0.479
990.500	573.545	79.999	19.996	100.747	20.075	-3.175	0.500
991.000	573.814	79.998	19.996	100.746	20.078	-3.316	0.525
991.500	574.031	79.997	19.996	100.744	20.075	-3.158	0.510
992.000	574.322	79.997	19.997	100.746	20.078	-3.331	0.497
992.500	574.573	79.997	19.996	100.747	20.077	-3.308	0.525
993.000	574.827	79.997	19.996	100.749	20.076	-3.182	0.523
993.500	575.047	79.996	19.996	100.750	20.079	-3.427	0.489
994.000	575.312	79.997	19.996	100.752	20.075	-3.107	0.479
994.500	575.530	79.996	19.997	100.753	20.077	-3.256	0.484
995.000	575.794	79.996	19.997	100.753	20.079	-3.410	0.483
995.500	576.049	79.996	19.997	100.752	20.078	-3.326	0.501
996.000	576.334	79.997	19.997	100.751	20.077	-3.305	0.529
996.500	576.558	79.998	19.997	100.750	20.077	-3.247	0.524
997.000	576.771	79.997	19.996	100.748	20.075	-3.154	0.473
997.500	577.050	79.995	19.996	100.749	20.074	-3.094	0.465
998.000	577.283	79.996	19.997	100.752	20.080	-3.491	0.502
998.500	577.539	79.997	19.996	100.757	20.077	-3.273	0.500
999.000	577.771	79.996	19.996	100.757	20.076	-3.188	0.488
999.500	578.018	79.997	19.997	100.762	20.074	-3.075	0.484
1000.000	578.251	79.999	19.996	100.765	20.075	-3.132	0.479
1000.500	578.488	79.995	19.996	100.768	20.075	-3.107	0.475
1001.000	578.798	79.996	19.997	100.765	20.074	-3.092	0.509
1001.500	579.019	79.999	19.997	100.768	20.075	-3.109	0.539
1002.000	579.273	79.997	19.997	100.765	20.075	-3.132	0.503
1002.500	579.533	79.997	19.996	100.760	20.074	-3.079	0.495
1003.000	579.745	79.995	19.996	100.757	20.073	-3.023	0.493
1003.500	580.011	79.996	19.996	100.759	20.075	-3.149	0.475
1004.000	580.267	79.997	19.997	100.759	20.074	-3.083	0.500
1004.500	580.526	79.997	19.997	100.762	20.076	-3.235	0.518
1005.000	580.737	79.997	19.996	100.767	20.074	-3.068	0.493
1005.501	580.991	79.997	19.996	100.771	20.076	-3.218	0.468
1006.001	581.235	79.998	19.997	100.771	20.074	-3.083	0.482
1006.500	581.520	79.998	19.996	100.776	20.074	-3.070	0.513
1007.000	581.738	79.998	19.996	100.777	20.072	-2.942	0.516
1007.500	582.005	79.996	19.996	100.778	20.075	-3.173	0.494
1008.000	582.242	79.996	19.996	100.778	20.075	-3.128	0.495
1008.500	582.498	79.998	19.996	100.780	20.075	-3.132	0.498
1009.001	582.739	79.996	19.997	100.777	20.072	-2.959	0.495
1009.500	582.979	79.997	19.995	100.778	20.076	-3.183	0.489
1010.000	583.241	79.998	19.998	100.778	20.077	-3.247	0.491
1010.500	583.441	79.997	19.997	100.780	20.077	-3.265	0.482
1011.000	583.681	79.998	19.996	100.781	20.076	-3.203	0.451
1011.500	583.974	79.997	19.996	100.782	20.077	-3.249	0.487
1012.000	584.219	79.996	19.997	100.782	20.077	-3.247	0.535
1012.500	584.461	79.996	19.998	100.783	20.075	-3.141	0.512
1013.000	584.704	79.997	19.996	100.782	20.076	-3.236	0.486
1013.500	584.977	79.997	19.997	100.780	20.075	-3.155	0.501
1014.000	585.196	79.996	19.997	100.780	20.075	-3.173	0.504
1014.500	585.444	79.998	19.996	100.780	20.074	-3.049	0.479
1015.000	585.710	79.996	19.997	100.779	20.078	-3.337	0.491
1015.500	585.937	79.997	19.996	100.778	20.075	-3.153	0.504
1016.000	586.218	79.998	19.997	100.778	20.073	-3.015	0.500
1016.500	586.473	79.996	19.997	100.780	20.073	-2.992	0.522
1017.000	586.737	79.997	19.995	100.779	20.078	-3.354	0.527
1017.500	586.988	79.997	19.998	100.780	20.075	-3.130	0.517
1018.000	587.228	79.995	19.998	100.780	20.075	-3.121	0.503
1018.500	587.463	79.996	19.998	100.782	20.078	-3.333	0.483
1019.000	587.743	79.995	19.997	100.782	20.074	-3.077	0.495
1019.500	587.970	79.996	19.997	100.782	20.077	-3.269	0.512
1020.000	588.230	79.997	19.997	100.779	20.072	-2.940	0.497
1020.500	588.463	79.996	19.996	100.778	20.076	-3.228	0.490
1021.000	588.752	79.996	19.997	100.775	20.074	-3.077	0.507
1021.500	588.998	79.996	19.998	100.774	20.078	-3.335	0.528
1022.000	589.268	79.996	19.997	100.774	20.077	-3.301	0.525
1022.500	589.518	79.996	19.997	100.778	20.076	-3.213	0.518
1023.000	589.767	79.996	19.998	100.781	20.074	-3.042	0.510
1023.500	590.010	79.996	19.997	100.785	20.076	-3.209	0.496
1024.000	590.280	79.995	19.997	100.785	20.073	-2.989	0.502
1024.500	590.545	79.996	19.997	100.785	20.075	-3.117	0.524
1025.000	590.780	79.994	19.997	100.784	20.075	-3.175	0.518
1025.500	591.033	79.997	19.997	100.782	20.074	-3.066	0.494
1026.000	591.301	79.994	19.997	100.780	20.076	-3.181	0.505
1026.500	591.585	79.996	19.997	100.781	20.073	-3.023	0.537
1027.000	591.808	79.996	19.998	100.781	20.074	-3.081	0.529
1027.500	592.048	79.995	19.998	100.780	20.072	-2.911	0.485
1028.000	592.327	79.995	19.996	100.782	20.074	-3.055	0.491
1028.500	592.586	79.996	19.996	100.783	20.072	-2.964	0.529
1029.000	592.833	79.997	19.996	100.782	20.073	-2.994	0.522
1029.500	593.095	79.995	19.997	100.781	20.073	-2.985	0.507
1030.000	593.365	79.996	19.996	100.781	20.073	-2.979	0.520
1030.500	593.598	79.997	19.996	100.782	20.071	-2.880	0.517
1031.000	593.880	79.999	19.997	100.783	20.072	-2.908	0.509
1031.500	594.137	79.998	19.996	100.784	20.075	-3.113	0.527
1032.000	594.422	79.998	19.997	100.785	20.072	-2.902	0.541
1032.500	594.673	79.998	19.996	100.785	20.070	-2.770	0.539
1033.000	594.927	79.998	19.996	100.784	20.070	-2.784	0.520
1033.501	595.182	79.998	19.996	100.783	20.072	-2.919	0.507
1034.001	595.422	79.998	19.996	100.783	20.070	-2.829	0.502
1034.500	595.697	80.000	19.995	100.782	20.071	-2.889	0.505
1035.000	595.978	80.000	19.997	100.782	20.073	-3.004	0.536
1035.500	596.223	79.999	19.996	100.781	20.072	-2.923	0.541
1036.000	596.506	79.999	19.995	100.781	20.072	-2.902	0.527
1036.500	596.762	79.998	19.996	100.782	20.071	-2.895	0.534
1037.001	596.995	80.000	19.995	100.782	20.071	-2.874	0.514
1037.501	597.225	79.998	19.996	100.781	20.073	-2.981	0.476
1038.000	597.501	79.999	19.995	100.780	20.069	-2.735	0.485
1038.501	597.780	79.999	19.995	100.780	20.074	-3.066	0.530
1039.001	598.037	79.999	19.997	100.781	20.072	-2.904	0.545
1039.501	598.286	79.998	19.996	100.780	20.071	-2.846	0.521
1040.000	598.566	79.998	19.996	100.781	20.072	-2.910	0.517
1040.500	598.853	80.000	19.997	100.782	20.073	-2.987	0.548
1041.000	599.081	79.999	19.995	100.783	20.075	-3.123	0.541
1041.500	599.301	80.000	19.997	100.782	20.074	-3.074	0.481
1042.000	599.576	80.000	19.996	100.783	20.073	-3.031	0.471
1042.500	599.842	80.000	19.997	100.784	20.074	-3.081	0.518
1043.000	600.098	79.999	19.997	100.783	20.075	-3.110	0.532
1043.500	600.377	79.999	19.995	100.784	20.074	-3.077	0.529
1044.000	600.660	79.998	19.996	100.783	20.072	-2.949	0.548
1044.500	600.945	79.999	19.996	100.783	20.073	-2.982	0.565
1045.000	601.230	79.998	19.996	100.783	20.074	-3.104	0.569
1045.500	601.451	79.997	19.997	100.783	20.075	-3.153	0.537
1046.000	601.725	79.999	19.996	100.783	20.073	-2.989	0.500
1046.500	601.992	79.998	19.996	100.785	20.073	-2.987	0.518
1047.000	602.248	79.998	19.996	100.785	20.074	-3.042	0.532
1047.500	602.534	79.998	19.996	100.786	20.070	-2.797	0.532
1048.000	602.810	79.998	19.996	100.788	20.072	-2.936	0.552
1048.500	603.086	79.998	19.996	100.790	20.072	-2.953	0.557
1049.000	603.372	79.999	19.996	100.793	20.073	-2.998	0.557
1049.500	603.642	79.997	19.996	100.797	20.076	-3.185	0.559
1050.000	603.937	79.996	19.996	100.796	20.072	-2.948	0.560
1050.500	604.200	79.997	19.996	100.795	20.072	-2.929	0.562
1051.000	604.485	79.998	19.996	100.796	20.075	-3.113	0.553
1051.500	604.724	79.998	19.997	100.797	20.079	-3.434	0.536
1052.000	605.015	79.998	19.996	100.796	20.072	-2.908	0.527
1052.500	605.302	79.997	19.997	100.798	20.075	-3.119	0.554
1053.000	605.565	79.999	19.997	100.798	20.075	-3.162	0.564
1053.501	605.848	79.998	19.995	100.797	20.075	-3.155	0.548
1054.001	606.107	79.999	19.996	100.791	20.072	-2.936	0.544
1054.500	606.413	79.999	19.997	100.789	20.074	-3.104	0.553
1055.000	606.658	79.997	19.996	100.791	20.077	-3.309	0.558
1055.500	606.923	79.997	19.996	100.794	20.075	-3.153	0.531
1056.000	607.249	79.997	19.996	100.793	20.077	-3.294	0.550
1056.500	607.484	80.001	19.997	100.794	20.073	-3.025	0.576
1057.000	607.776	79.997	19.997	100.793	20.075	-3.170	0.544
1057.500	608.031	79.999	19.996	100.789	20.074	-3.059	0.536
1058.000	608.319	79.999	19.997	100.786	20.076	-3.195	0.545
1058.500	608.618	79.999	19.995	100.787	20.073	-2.995	0.565
1059.000	608.889	79.999	19.995	100.789	20.074	-3.093	0.578
1059.501	609.165	79.999	19.996	100.789	20.073	-2.997	0.559
1060.001	609.419	79.999	19.996	100.793	20.072	-2.918	0.539
1060.500	609.745	80.001	19.995	100.795	20.071	-2.850	0.555
1061.000	609.993	79.999	19.995	100.794	20.074	-3.050	0.577
1061.500	610.262	80.000	19.997	100.793	20.073	-2.969	0.546
1062.000	610.551	79.999	19.996	100.795	20.073	-3.012	0.538
1062.500	610.785	80.000	19.995	100.791	20.075	-3.108	0.541
1063.001	611.104	80.000	19.996	100.789	20.074	-3.061	0.538
1063.501	611.376	79.999	19.995	100.792	20.073	-2.994	0.572
1064.000	611.637	80.000	19.997	100.793	20.072	-2.937	0.562
1064.500	611.893	79.999	19.996	100.791	20.075	-3.152	0.526
1065.000	612.192	79.999	19.995	100.791	20.074	-3.080	0.536
1065.500	612.464	80.000	19.995	100.791	20.073	-3.012	0.563
1066.000	612.743	79.999	19.995	100.792	20.073	-3.033	0.561
1066.500	612.998	80.000	19.996	100.792	20.072	-2.924	0.542
1067.000	613.275	79.999	19.996	100.794	20.075	-3.137	0.533
1067.500	613.576	79.999	19.996	100.797	20.072	-2.954	0.555
1068.000	613.835	79.999	19.996	100.799	20.070	-2.822	0.569
1068.500	614.126	79.999	19.997	100.798	20.075	-3.137	0.555
1069.000	614.384	79.998	19.996	100.800	20.072	-2.905	0.549
1069.500	614.691	79.997	19.996	100.805	20.072	-2.935	0.557
1070.000	614.957	79.998	19.996	100.809	20.072	-2.947	0.569
1070.500	615.223	79.997	19.997	100.814	20.072	-2.928	0.553
1071.000	615.479	79.997	19.996	100.815	20.071	-2.849	0.526
1071.500	615.770	79.998	19.994	100.813	20.072	-2.928	0.534
1072.000	616.019	79.998	19.998	100.810	20.072	-2.903	0.544
1072.500	616.319	79.997	19.996	100.810	20.070	-2.794	0.545
1073.000	616.587	79.998	19.996	100.810	20.071	-2.858	0.559
1073.500	616.855	79.998	19.996	100.812	20.071	-2.883	0.552
1074.000	617.128	79.999	19.997	100.817	20.072	-2.954	0.538
1074.500	617.356	79.996	19.996	100.820	20.073	-3.035	0.521
1075.000	617.642	79.996	19.997	100.821	20.069	-2.700	0.508
1075.500	617.909	79.996	19.998	100.821	20.070	-2.817	0.534
1076.000	618.205	79.997	19.996	100.820	20.070	-2.786	0.558
1076.500	618.473	79.996	19.997	100.819	20.070	-2.766	0.563
1077.000	618.781	79.998	19.997	100.820	20.073	-3.003	0.570
1077.500	619.030	79.997	19.997	100.820	20.068	-2.636	0.567
1078.000	619.257	79.995	19.996	100.820	20.071	-2.854	0.517
1078.500	619.542	79.997	19.996	100.822	20.068	-2.651	0.494
1079.000	619.824	79.996	19.996	100.825	20.071	-2.890	0.539
1079.500	620.085	79.997	19.998	100.826	20.069	-2.760	0.555
1080.000	620.353	79.996	19.997	100.827	20.067	-2.611	0.536
1080.500	620.623	79.997	19.997	100.826	20.072	-2.941	0.533
1081.000	620.890	79.995	19.997	100.826	20.066	-2.511	0.537
1081.501	621.163	79.996	19.997	100.826	20.069	-2.732	0.539
1082.001	621.446	79.995	19.996	100.825	20.066	-2.549	0.548
1082.500	621.712	79.998	19.997	100.824	20.067	-2.613	0.553
1083.000	621.998	79.997	19.996	100.824	20.067	-2.611	0.550
1083.500	622.248	79.996	19.997	100.824	20.070	-2.771	0.544
1084.000	622.511	79.996	19.997	100.824	20.071	-2.879	0.524
1084.500	622.759	79.996	19.997	100.824	20.067	-2.589	0.512
1085.000	623.032	79.997	19.995	100.824	20.068	-2.645	0.516
1085.500	623.352	79.996	19.997	100.825	20.069	-2.758	0.557
1086.000	623.606	79.997	19.998	100.824	20.066	-2.515	0.584
1086.500	623.837	79.996	19.996	100.822	20.069	-2.721	0.529
1087.000	624.142	79.997	19.997	100.822	20.070	-2.820	0.511
1087.500	624.394	79.997	19.997	100.822	20.069	-2.756	0.546
1088.000	624.666	79.997	19.997	100.823	20.069	-2.728	0.540
1088.500	624.931	79.997	19.997	100.823	20.071	-2.862	0.531
1089.000	625.213	79.998	19.997	100.826	20.070	-2.805	0.542
1089.500	625.478	79.997	19.997	100.826	20.070	-2.787	0.547
1090.000	625.724	79.998	19.998	100.826	20.071	-2.856	0.529
1090.501	626.007	79.996	19.996	100.826	20.068	-2.681	0.520
1091.001	626.276	79.999	19.997	100.826	20.069	-2.738	0.540
1091.500	626.535	79.997	19.997	100.826	20.069	-2.696	0.540
1092.000	626.781	79.996	19.996	100.826	20.072	-2.954	0.517
1092.500	627.039	79.996	19.996	100.825	20.069	-2.706	0.505
1093.000	627.344	79.997	19.997	100.825	20.068	-2.649	0.534
1093.500	627.552	79.997	19.997	100.824	20.070	-2.802	0.538
1094.000	627.875	79.998	19.996	100.824	20.070	-2.815	0.521
1094.500	628.157	79.997	19.996	100.824	20.069	-2.726	0.568
1095.001	628.413	79.997	19.997	100.823	20.066	-2.511	0.572
1095.501	628.653	79.996	19.997	100.823	20.069	-2.734	0.517
1096.001	628.910	79.998	19.996	100.823	20.067	-2.587	0.497
1096.501	629.188	79.997	19.997	100.823	20.069	-2.705	0.516
1097.000	629.448	79.996	19.997	100.823	20.068	-2.689	0.536
1097.501	629.720	79.996	19.996	100.823	20.067	-2.581	0.534
1098.001	629.979	79.996	19.996	100.823	20.069	-2.704	0.532
1098.500	630.240	79.997	19.998	100.824	20.069	-2.709	0.526
1099.000	630.509	79.996	19.996	100.824	20.068	-2.628	0.525
1099.500	630.811	79.995	19.996	100.824	20.066	-2.545	0.550
1100.000	631.065	79.996	19.997	100.823	20.070	-2.777	0.564
1100.501	631.330	79.997	19.997	100.824	20.071	-2.888	0.538
1101.001	631.624	79.994	19.996	100.825	20.073	-2.988	0.539
1101.501	631.877	79.998	19.996	100.827	20.067	-2.589	0.553
1102.001	632.120	79.996	19.997	100.828	20.068	-2.638	0.522
1102.500	632.386	79.996	19.997	100.828	20.067	-2.570	0.503
1103.000	632.644	79.998	19.998	100.828	20.069	-2.722	0.516
1103.500	632.898	79.997	19.997	100.828	20.067	-2.575	0.518
1104.000	633.158	79.995	19.997	100.826	20.068	-2.668	0.513
1104.501	633.430	79.995	19.996	100.825	20.067	-2.568	0.523
1105.001	633.733	79.997	19.999	100.824	20.071	-2.834	0.553
1105.500	633.979	79.997	19.998	100.824	20.070	-2.762	0.562
1106.000	634.272	79.995	19.997	100.823	20.072	-2.926	0.544
1106.500	634.522	79.996	19.998	100.823	20.070	-2.768	0.541
1107.000	634.754	79.996	19.997	100.823	20.072	-2.915	0.513
1107.500	635.041	79.997	19.998	100.823	20.073	-3.022	0.501
1108.000	635.292	79.996	19.997	100.823	20.070	-2.770	0.529
1108.500	635.558	79.997	19.997	100.823	20.074	-3.039	0.528
1109.000	635.802	79.996	19.996	100.822	20.071	-2.892	0.514
1109.500	636.079	79.996	19.998	100.821	20.069	-2.757	0.516
1110.000	636.354	79.996	19.998	100.821	20.071	-2.849	0.537
1110.500	636.631	79.995	19.996	100.822	20.069	-2.721	0.552
1111.000	636.866	79.997	19.998	100.823	20.070	-2.770	0.532
1111.500	637.111	79.997	19.997	100.823	20.070	-2.804	0.496
1112.000	637.395	79.997	19.998	100.823	20.066	-2.553	0.504
1112.500	637.626	79.998	19.997	100.823	20.069	-2.726	0.522
1113.000	637.914	79.996	19.998	100.823	20.068	-2.643	0.517
1113.500	638.158	79.997	19.997	100.822	20.069	-2.757	0.525
1114.000	638.394	79.998	19.996	100.822	20.067	-2.585	0.506
1114.500	638.704	80.000	19.997	100.822	20.069	-2.760	0.513
1115.000	638.965	80.000	19.998	100.822	20.067	-2.564	0.558
1115.500	639.215	79.997	19.996	100.822	20.065	-2.483	0.541
1116.000	639.454	79.999	19.997	100.822	20.066	-2.517	0.500
1116.500	639.718	79.998	19.997	100.821	20.067	-2.574	0.496
1117.000	639.974	79.998	19.996	100.821	20.066	-2.536	0.511
1117.500	640.215	80.000	19.996	100.821	20.066	-2.515	0.508
1118.000	640.495	79.998	19.997	100.821	20.066	-2.487	0.509
1118.500	640.708	79.999	19.997	100.825	20.068	-2.676	0.508
1119.001	641.027	79.998	19.997	100.829	20.066	-2.553	0.513
1119.501	641.251	79.999	19.997	100.834	20.064	-2.378	0.537
1120.000	641.530	79.999	19.997	100.838	20.064	-2.401	0.523
1120.500	641.775	79.999	19.997	100.840	20.064	-2.408	0.514
1121.000	642.020	79.995	19.996	100.841	20.066	-2.497	0.507
1121.500	642.304	80.003	19.996	100.838	20.065	-2.448	0.510
1122.000	642.569	79.999	19.996	100.834	20.066	-2.527	0.540
1122.501	642.820	80.001	19.996	100.831	20.065	-2.475	0.533
1123.001	643.046	79.999	19.996	100.833	20.067	-2.586	0.496
1123.501	643.333	79.998	19.996	100.829	20.073	-2.980	0.495
1124.000	643.564	79.998	19.996	100.829	20.064	-2.390	0.515
1124.500	643.838	79.999	19.997	100.831	20.066	-2.501	0.511
1125.000	644.039	79.999	19.996	100.830	20.065	-2.465	0.491
1125.500	644.312	79.999	19.996	100.827	20.062	-2.230	0.475
1126.000	644.560	79.998	19.995	100.828	20.063	-2.286	0.498
1126.500	644.840	80.000	19.996	100.828	20.065	-2.484	0.524
1127.000	645.093	79.998	19.996	100.825	20.065	-2.426	0.530
1127.500	645.303	79.997	19.996	100.825	20.066	-2.520	0.498
1128.000	645.574	80.000	19.995	100.826	20.067	-2.584	0.472
1128.500	645.836	80.000	19.996	100.827	20.066	-2.520	0.507
1129.000	646.090	79.997	19.996	100.827	20.063	-2.311	0.524
1129.500	646.330	80.000	19.995	100.832	20.068	-2.637	0.505
1130.000	646.638	79.997	19.996	100.835	20.066	-2.505	0.521
1130.501	646.839	79.997	19.996	100.838	20.067	-2.575	0.529
1131.001	647.114	79.996	19.996	100.844	20.065	-2.446	0.493
1131.500	647.363	79.998	19.996	100.850	20.067	-2.563	0.500
1132.001	647.599	79.999	19.996	100.852	20.068	-2.648	0.504
1132.501	647.895	79.998	19.996	100.855	20.064	-2.380	0.508
1133.000	648.158	79.997	19.996	100.859	20.065	-2.467	0.546
1133.500	648.391	79.999	19.996	100.859	20.065	-2.420	0.528
1134.000	648.594	79.999	19.997	100.860	20.065	-2.433	0.466
1134.500	648.877	80.000	19.997	100.858	20.066	-2.554	0.461
1135.000	649.118	79.998	19.996	100.856	20.064	-2.409	0.505
1135.500	649.402	80.000	19.996	100.856	20.064	-2.394	0.525
1136.000	649.661	79.996	19.996	100.856	20.063	-2.290	0.534
1136.500	649.902	79.996	19.996	100.857	20.065	-2.429	0.522
1137.000	650.194	80.000	19.996	100.857	20.064	-2.390	0.516
1137.500	650.454	79.999	19.997	100.859	20.062	-2.275	0.542
1138.000	650.711	79.999	19.995	100.857	20.063	-2.341	0.534
1138.500	650.940	79.999	19.996	100.857	20.060	-2.128	0.502
1139.000	651.219	79.999	19.995	100.856	20.063	-2.322	0.498
1139.500	651.458	80.001	19.997	100.857	20.061	-2.179	0.513
1140.000	651.721	80.000	19.996	100.858	20.063	-2.330	0.510
1140.500	651.956	79.999	19.996	100.861	20.061	-2.175	0.500
1141.001	652.253	79.999	19.996	100.862	20.060	-2.107	0.515
1141.501	652.483	80.000	19.996	100.860	20.061	-2.162	0.529
1142.001	652.747	80.000	19.995	100.860	20.062	-2.241	0.510
1142.501	653.017	80.001	19.995	100.860	20.064	-2.352	0.514
1143.000	653.281	79.999	19.996	100.861	20.063	-2.305	0.534
1143.500	653.565	79.998	19.996	100.861	20.061	-2.188	0.541
1144.000	653.805	79.999	19.996	100.863	20.060	-2.126	0.536
1144.500	654.054	79.999	19.996	100.862	20.062	-2.213	0.507
1145.000	654.276	80.000	19.996	100.858	20.061	-2.186	0.479
1145.500	654.557	79.998	19.995	100.858	20.061	-2.154	0.487
1146.000	654.773	79.998	19.995	100.856	20.062	-2.230	0.500
1146.500	655.073	79.998	19.997	100.856	20.061	-2.166	0.506
1147.000	655.346	79.998	19.995	100.858	20.061	-2.175	0.545
1147.500	655.570	79.998	19.996	100.863	20.061	-2.207	0.536
1148.000	655.849	79.999	19.995	100.863	20.059	-2.022	0.500
1148.500	656.086	79.999	19.995	100.864	20.061	-2.179	0.509
1149.000	656.335	79.997	19.996	100.863	20.061	-2.156	0.501
1149.500	656.598	79.997	19.996	100.864	20.063	-2.330	0.498
1150.000	656.830	79.997	19.996	100.864	20.063	-2.299	0.503
1150.500	657.108	79.997	19.995	100.864	20.064	-2.365	0.503
1151.000	657.345	79.998	19.995	100.865	20.065	-2.435	0.513
1151.501	657.615	79.997	19.996	100.866	20.064	-2.384	0.511
1152.001	657.848	79.997	19.995	100.865	20.062	-2.247	0.505
1152.500	658.102	79.999	19.995	100.865	20.064	-2.347	0.495
1153.000	658.369	79.999	19.996	100.867	20.063	-2.294	0.504
1153.500	658.631	79.999	19.997	100.867	20.062	-2.222	0.525
1154.000	658.897	79.998	19.995	100.866	20.060	-2.124	0.529
1154.500	659.137	79.998	19.996	100.866	20.062	-2.271	0.517
1155.000	659.403	79.998	19.996	100.866	20.060	-2.136	0.505
1155.500	659.619	79.998	19.995	100.865	20.062	-2.228	0.494
1156.000	659.903	79.998	19.995	100.864	20.059	-2.022	0.491
1156.500	660.156	79.998	19.996	100.864	20.060	-2.122	0.519
1157.000	660.413	79.998	19.995	100.864	20.063	-2.313	0.524
1157.500	660.668	79.998	19.996	100.865	20.060	-2.111	0.511
1158.001	660.899	79.996	19.996	100.865	20.061	-2.204	0.499
1158.501	661.170	79.998	19.996	100.865	20.063	-2.294	0.494
1159.000	661.412	79.998	19.995	100.866	20.060	-2.111	0.508
1159.500	661.686	79.998	19.996	100.866	20.060	-2.081	0.515
1160.000	661.910	79.998	19.995	100.865	20.060	-2.089	0.507
1160.500	662.161	79.998	19.996	100.864	20.058	-1.983	0.486
1161.000	662.450	79.997	19.996	100.864	20.060	-2.138	0.508
1161.501	662.707	79.997	19.997	100.863	20.062	-2.245	0.543
1162.001	662.924	79.998	19.996	100.865	20.057	-1.863	0.510
1162.500	663.175	79.998	19.997	100.865	20.058	-1.991	0.471
1163.001	663.435	79.999	19.996	100.865	20.059	-2.027	0.490
1163.501	663.711	79.999	19.997	100.866	20.058	-1.997	0.523
1164.000	663.904	79.999	19.996	100.868	20.061	-2.196	0.502
1164.500	664.182	79.997	19.996	100.868	20.061	-2.181	0.470
1165.000	664.459	79.997	19.996	100.870	20.061	-2.197	0.513
1165.500	664.717	79.998	19.997	100.871	20.061	-2.140	0.545
1166.000	664.954	79.998	19.996	100.871	20.058	-1.934	0.515
1166.500	665.179	79.996	19.996	100.869	20.059	-2.000	0.479
1167.000	665.460	79.995	19.996	100.868	20.059	-2.027	0.484
1167.500	665.694	79.995	19.996	100.870	20.059	-2.019	0.511
1168.001	665.941	79.997	19.996	100.874	20.060	-2.076	0.498
1168.501	666.189	79.998	19.997	100.879	20.058	-1.968	0.488
1169.000	666.468	79.997	19.997	100.881	20.056	-1.799	0.511
1169.500	666.719	79.998	19.997	100.885	20.058	-1.940	0.529
1170.000	666.975	79.999	19.998	100.887	20.058	-1.976	0.519
1170.500	667.219	79.998	19.998	100.887	20.055	-1.774	0.504
1171.000	667.470	79.997	19.997	100.888	20.057	-1.870	0.498
1171.500	667.730	79.997	19.998	100.888	20.055	-1.744	0.503
1172.000	667.947	79.997	19.996	100.886	20.055	-1.761	0.494
1172.500	668.216	79.998	19.997	100.886	20.056	-1.861	0.481
1173.001	668.471	79.996	19.997	100.885	20.056	-1.816	0.505
1173.501	668.677	79.998	19.996	100.885	20.058	-1.997	0.492
1174.000	668.917	79.997	19.996	100.889	20.059	-2.059	0.454
1174.501	669.207	79.997	19.996	100.890	20.057	-1.876	0.488
1175.001	669.468	79.998	19.996	100.892	20.058	-1.959	0.540
1175.501	669.687	79.996	19.996	100.894	20.059	-2.023	0.515
1176.000	669.959	79.995	19.995	100.896	20.060	-2.080	0.485
1176.500	670.208	79.997	19.997	100.896	20.058	-1.965	0.506
1177.000	670.449	79.998	19.998	100.894	20.056	-1.848	0.506
1177.500	670.687	80.000	19.996	100.893	20.057	-1.903	0.485
1178.001	670.979	79.995	19.997	100.893	20.060	-2.070	0.505
1178.501	671.252	79.997	19.997	100.893	20.056	-1.859	0.547
1179.000	671.495	79.999	19.997	100.895	20.060	-2.070	0.540
1179.500	671.724	79.995	19.996	100.899	20.057	-1.901	0.494
1180.000	671.983	79.997	19.996	100.901	20.055	-1.740	0.480
1180.501	672.248	79.998	19.998	100.901	20.058	-1.972	0.506
1181.001	672.484	79.996	19.997	100.899	20.056	-1.842	0.513
1181.500	672.755	79.997	19.996	100.899	20.055	-1.784	0.504
1182.000	673.006	79.997	19.998	100.899	20.056	-1.808	0.514
1182.500	673.245	79.999	19.996	100.899	20.056	-1.814	0.506
1183.000	673.473	79.996	19.996	100.900	20.056	-1.844	0.479
1183.500	673.757	79.994	19.997	100.901	20.060	-2.084	0.490
1184.000	674.009	79.996	19.998	100.897	20.060	-2.086	0.524
1184.500	674.265	79.994	19.997	100.895	20.057	-1.895	0.522
1185.000	674.535	79.998	19.998	100.895	20.055	-1.786	0.517
1185.500	674.781	79.997	19.997	100.895	20.055	-1.788	0.521
1186.000	675.028	79.996	19.996	100.897	20.055	-1.729	0.504
1186.500	675.294	79.996	19.998	100.902	20.055	-1.724	0.502
1187.000	675.548	79.996	19.997	100.907	20.054	-1.722	0.517
1187.500	675.817	80.000	19.997	100.907	20.056	-1.810	0.522
1188.000	676.092	79.999	19.997	100.906	20.053	-1.614	0.533
1188.500	676.326	79.997	19.997	100.906	20.051	-1.473	0.526
1189.000	676.600	79.996	19.998	100.905	20.051	-1.478	0.509
1189.500	676.870	79.998	19.996	100.902	20.051	-1.492	0.526
1190.000	677.112	79.996	19.997	100.902	20.052	-1.535	0.528
1190.501	677.366	79.998	19.996	100.902	20.052	-1.554	0.504
1191.001	677.620	79.999	19.997	100.902	20.055	-1.727	0.502
1191.500	677.877	80.000	19.997	100.902	20.055	-1.746	0.510
1192.000	678.144	79.999	19.996	100.903	20.057	-1.876	0.517
1192.500	678.378	80.000	19.996	100.905	20.053	-1.603	0.512
1193.000	678.663	79.998	19.997	100.907	20.055	-1.790	0.510
1193.500	678.881	79.997	19.997	100.909	20.054	-1.707	0.511
1194.000	679.137	79.998	19.997	100.911	20.052	-1.533	0.489
1194.500	679.410	79.996	19.997	100.912	20.057	-1.897	0.501
1195.001	679.650	79.998	19.997	100.912	20.054	-1.709	0.521
1195.501	679.959	79.997	19.997	100.916	20.056	-1.824	0.531
1196.000	680.174	79.997	19.997	100.919	20.053	-1.641	0.537
1196.500	680.389	79.998	19.997	100.919	20.051	-1.490	0.477
1197.000	680.686	79.998	19.997	100.920	20.054	-1.696	0.471
1197.500	680.959	79.995	19.997	100.922	20.055	-1.739	0.541
1198.000	681.176	79.999	19.998	100.923	20.053	-1.654	0.530
1198.500	681.446	79.999	19.996	100.921	20.054	-1.677	0.489
1199.000	681.702	79.996	19.997	100.921	20.051	-1.513	0.507
1199.500	681.951	79.998	19.996	100.917	20.052	-1.537	0.515
1200.000	682.202	79.996	19.998	100.913	20.051	-1.481	0.502
1200.500	682.456	79.996	19.997	100.910	20.052	-1.556	0.502
1201.000	682.702	79.999	19.996	100.912	20.053	-1.598	0.502
1201.500	682.950	79.996	19.997	100.915	20.049	-1.313	0.497
1202.000	683.217	79.999	19.996	100.916	20.052	-1.537	0.505
1202.500	683.479	80.000	19.997	100.916	20.047	-1.219	0.522
1203.000	683.713	79.996	19.997	100.915	20.051	-1.503	0.512
1203.500	683.935	79.998	19.997	100.913	20.049	-1.347	0.476
1204.000	684.246	79.999	19.996	100.910	20.045	-1.088	0.494
1204.501	684.483	79.998	19.997	100.914	20.047	-1.232	0.541
1205.001	684.702	79.997	19.996	100.917	20.049	-1.332	0.502
1205.500	685.023	79.998	19.996	100.923	20.044	-0.990	0.498
1206.001	685.252	79.999	19.996	100.926	20.049	-1.313	0.545
1206.501	685.503	79.997	19.996	100.931	20.052	-1.564	0.515
1207.001	685.781	79.996	19.995	100.935	20.048	-1.262	0.505
1207.500	686.019	79.997	19.996	100.938	20.048	-1.279	0.522
1208.000	686.294	79.999	19.997	100.940	20.049	-1.334	0.514
1208.500	686.553	79.997	19.995	100.940	20.048	-1.292	0.523
1209.000	686.791	79.999	19.996	100.939	20.049	-1.356	0.516
1209.500	687.048	80.000	19.996	100.940	20.047	-1.230	0.496
1210.001	687.289	79.999	19.995	100.941	20.049	-1.356	0.496
1210.501	687.532	79.997	19.995	100.941	20.044	-1.028	0.491
1211.000	687.797	79.998	19.995	100.942	20.046	-1.149	0.496
1211.501	688.080	79.996	19.995	100.944	20.046	-1.145	0.528
1212.001	688.344	80.001	19.996	100.943	20.049	-1.315	0.547
1212.501	688.616	79.998	19.996	100.941	20.048	-1.304	0.542
1213.001	688.819	79.998	19.996	100.942	20.046	-1.100	0.506
1213.500	689.110	79.996	19.996	100.941	20.046	-1.162	0.484
1214.000	689.313	79.999	19.995	100.941	20.045	-1.081	0.494
1214.500	689.595	79.997	19.995	100.941	20.048	-1.277	0.490
1215.000	689.857	79.998	19.996	100.943	20.044	-1.019	0.515
1215.500	690.095	80.001	19.995	100.943	20.046	-1.122	0.522
1216.000	690.328	79.998	19.996	100.947	20.045	-1.034	0.485
1216.500	690.568	80.000	19.996	100.949	20.042	-0.864	0.472
1217.000	690.859	80.000	19.996	100.949	20.045	-1.036	0.502
1217.500	691.109	80.003	19.996	100.948	20.044	-0.992	0.536
1218.000	691.377	79.998	19.996	100.949	20.045	-1.051	0.529
1218.500	691.609	80.000	19.995	100.946	20.043	-0.896	0.509
1219.000	691.858	80.000	19.995	100.947	20.043	-0.909	0.491
1219.500	692.096	79.999	19.995	100.947	20.043	-0.904	0.484
1220.000	692.381	80.001	19.996	100.947	20.043	-0.934	0.504
1220.500	692.636	80.000	19.996	100.947	20.042	-0.858	0.531
1221.000	692.901	79.999	19.994	100.948	20.043	-0.934	0.530
1221.500	693.167	79.999	19.997	100.947	20.045	-1.058	0.526
1222.000	693.413	80.000	19.996	100.946	20.044	-1.030	0.522
1222.500	693.655	79.999	19.995	100.950	20.043	-0.896	0.500
1223.000	693.896	79.999	19.998	100.956	20.042	-0.834	0.486
1223.500	694.187	79.999	19.996	100.959	20.046	-1.157	0.508
1224.000	694.445	80.000	19.996	100.963	20.044	-0.970	0.540
1224.500	694.704	79.999	19.997	100.968	20.046	-1.159	0.533
1225.000	694.924	80.000	19.997	100.966	20.043	-0.951	0.499
1225.500	695.206	79.998	19.997	100.960	20.042	-0.847	0.491
1226.000	695.450	80.000	19.998	100.954	20.042	-0.887	0.514
1226.500	695.693	79.996	19.997	100.956	20.041	-0.821	0.506
1227.000	695.955	79.998	19.996	100.953	20.042	-0.828	0.496
1227.500	696.193	79.998	19.996	100.954	20.044	-0.991	0.503
1228.000	696.461	79.997	19.995	100.956	20.043	-0.951	0.503
1228.500	696.718	79.995	19.996	100.955	20.042	-0.855	0.515
1229.000	696.978	79.998	19.997	100.950	20.039	-0.619	0.520
1229.500	697.251	79.994	19.997	100.954	20.041	-0.783	0.525
1230.000	697.514	79.997	19.997	100.954	20.040	-0.726	0.535
1230.500	697.733	79.998	19.996	100.954	20.041	-0.755	0.509
1231.000	697.992	79.998	19.996	100.958	20.041	-0.787	0.480
1231.500	698.277	79.997	19.995	100.962	20.040	-0.723	0.511
1232.000	698.554	79.997	19.997	100.964	20.039	-0.676	0.552
1232.500	698.769	79.999	19.997	100.967	20.038	-0.589	0.527
1233.000	698.989	79.999	19.996	100.974	20.041	-0.810	0.464
1233.500	699.258	79.996	19.996	100.977	20.042	-0.832	0.462
1234.000	699.525	79.996	19.996	100.978	20.044	-0.998	0.512
1234.500	699.782	79.996	19.995	100.977	20.041	-0.806	0.530
1235.000	700.032	79.998	19.996	100.978	20.041	-0.764	0.515
1235.501	700.274	79.999	19.996	100.978	20.040	-0.696	0.499
1236.001	700.538	79.998	19.997	100.978	20.040	-0.696	0.499
1236.500	700.813	79.998	19.997	100.979	20.039	-0.668	0.522
1237.000	701.056	79.995	19.998	100.978	20.041	-0.761	0.529
1237.500	701.317	79.999	19.996	100.978	20.042	-0.885	0.512
1238.000	701.589	79.998	19.996	100.977	20.039	-0.659	0.519
1238.500	701.853	79.998	19.996	100.977	20.041	-0.793	0.534
1239.000	702.069	79.997	19.996	100.977	20.041	-0.791	0.508
1239.500	702.336	79.997	19.997	100.977	20.041	-0.810	0.482
1240.000	702.596	79.996	19.995	100.978	20.039	-0.659	0.505
1240.500	702.829	79.998	19.996	100.979	20.041	-0.779	0.510
1241.000	703.121	80.000	19.995	100.979	20.042	-0.855	0.509
1241.500	703.349	79.995	19.996	100.979	20.042	-0.825	0.523
1242.000	703.622	79.999	19.995	100.980	20.039	-0.636	0.511
1242.500	703.848	79.999	19.996	100.979	20.042	-0.825	0.500
1243.001	704.149	79.997	19.996	100.979	20.042	-0.827	0.513
1243.501	704.386	79.996	19.996	100.979	20.040	-0.734	0.532
1244.000	704.661	80.000	19.997	100.979	20.041	-0.789	0.525
1244.501	704.906	79.998	19.996	100.978	20.040	-0.702	0.516
1245.001	705.130	79.996	19.997	100.979	20.038	-0.547	0.494
1245.501	705.377	79.999	19.997	100.979	20.038	-0.608	0.470
1246.001	705.684	79.998	19.996	100.981	20.037	-0.491	0.513
1246.500	705.882	79.996	19.997	100.984	20.037	-0.544	0.530
1247.001	706.147	79.997	19.997	100.986	20.040	-0.738	0.484
1247.501	706.426	79.996	19.995	100.987	20.038	-0.585	0.504
1248.000	706.665	79.997	19.996	100.988	20.040	-0.698	0.531
1248.501	706.948	79.997	19.996	100.991	20.039	-0.615	0.520
1249.001	707.196	79.995	19.996	100.990	20.038	-0.612	0.527
1249.500	707.404	79.999	19.996	100.988	20.042	-0.863	0.494
1250.000	707.691	80.000	19.997	100.990	20.039	-0.651	0.475
1250.500	707.950	79.998	19.996	100.993	20.038	-0.576	0.521
1251.000	708.208	80.001	19.996	100.995	20.040	-0.715	0.531
1251.501	708.454	79.998	19.996	101.000	20.040	-0.730	0.511
1252.001	708.712	79.999	19.997	101.005	20.039	-0.664	0.504
1252.501	708.972	79.999	19.996	101.008	20.040	-0.704	0.511
1253.001	709.205	79.999	19.997	101.009	20.039	-0.670	0.505
1253.500	709.512	79.998	19.996	101.008	20.040	-0.725	0.516
1254.000	709.772	79.993	19.996	101.001	20.036	-0.468	0.553
1254.500	709.984	79.995	19.996	100.997	20.034	-0.308	0.519
1255.000	710.225	79.998	19.997	100.993	20.038	-0.562	0.462
1255.501	710.508	79.997	19.997	100.990	20.036	-0.457	0.489
1256.001	710.747	79.999	19.995	100.991	20.037	-0.521	0.524
1256.501	711.011	79.997	19.997	100.997	20.039	-0.627	0.513
1257.000	711.228	79.996	19.997	101.000	20.039	-0.659	0.492
1257.500	711.554	79.998	19.997	100.999	20.044	-0.963	0.512
1258.000	711.758	80.000	19.997	101.004	20.036	-0.466	0.536
1258.500	712.010	79.999	19.996	101.004	20.039	-0.629	0.493
1259.000	712.266	79.995	19.997	101.004	20.041	-0.763	0.482
1259.500	712.514	79.996	19.997	101.007	20.043	-0.914	0.506
1260.000	712.768	79.997	19.996	101.012	20.043	-0.910	0.503
1260.500	713.032	79.995	19.996	101.009	20.042	-0.880	0.510
1261.000	713.268	79.995	19.998	101.010	20.038	-0.589	0.509
1261.500	713.545	79.998	19.997	101.009	20.045	-1.063	0.507
1262.000	713.798	79.997	19.997	101.009	20.042	-0.838	0.522
1262.500	714.058	79.999	19.998	101.010	20.042	-0.844	0.522
1263.000	714.356	79.998	19.996	101.012	20.039	-0.653	0.535
1263.500	714.608	79.996	19.998	101.013	20.040	-0.721	0.554
1264.000	714.833	79.997	19.996	101.013	20.040	-0.712	0.513
1264.500	715.065	79.996	19.996	101.012	20.039	-0.683	0.467
1265.000	715.371	79.997	19.997	101.011	20.036	-0.419	0.497
1265.500	715.614	79.993	19.996	101.011	20.037	-0.515	0.543
1266.000	715.895	79.999	19.996	101.012	20.039	-0.644	0.537
1266.500	716.134	79.997	19.997	101.012	20.040	-0.749	0.522
1267.000	716.390	79.996	19.997	101.013	20.038	-0.549	0.507
1267.501	716.641	79.996	19.997	101.015	20.040	-0.685	0.501
1268.001	716.883	79.998	19.996	101.017	20.039	-0.645	0.500
1268.500	717.148	79.997	19.996	101.017	20.037	-0.494	0.500
1269.000	717.411	79.997	19.996	101.018	20.038	-0.579	0.518
1269.500	717.641	79.996	19.996	101.017	20.037	-0.494	0.511
1270.000	717.901	79.996	19.996	101.017	20.040	-0.695	0.491
1270.500	718.184	79.997	19.996	101.016	20.039	-0.659	0.516
1271.000	718.433	79.998	19.997	101.016	20.038	-0.610	0.538
1271.500	718.758	80.000	19.995	101.015	20.039	-0.617	0.553
1272.000	718.909	79.998	19.997	101.018	20.037	-0.527	0.525
1272.500	719.183	79.997	19.997	101.018	20.038	-0.583	0.451
1273.000	719.427	80.000	19.996	101.018	20.039	-0.649	0.472
1273.500	719.713	79.996	19.996	101.019	20.038	-0.579	0.524
1274.000	719.957	79.999	19.996	101.020	20.039	-0.632	0.530
1274.500	720.202	79.999	19.997	101.019	20.039	-0.617	0.509
1275.000	720.445	79.998	19.996	101.018	20.039	-0.676	0.488
1275.500	720.711	79.999	19.997	101.016	20.037	-0.542	0.498
1276.001	720.966	79.999	19.996	101.010	20.038	-0.610	0.515
1276.501	721.188	80.000	19.996	101.004	20.041	-0.779	0.499
1277.000	721.442	79.998	19.997	100.998	20.039	-0.660	0.476
1277.500	721.715	79.999	19.996	100.993	20.043	-0.894	0.501
1278.000	721.993	79.997	19.996	100.992	20.040	-0.734	0.539
1278.501	722.207	79.997	19.997	100.994	20.040	-0.725	0.522
1279.001	722.446	79.999	19.996	100.994	20.039	-0.642	0.472
1279.500	722.689	79.995	19.997	100.995	20.039	-0.651	0.467
1280.000	722.978	79.997	19.997	101.000	20.042	-0.826	0.507
1280.500	723.240	79.996	19.997	101.001	20.042	-0.834	0.542
1281.000	723.490	79.997	19.997	101.003	20.042	-0.832	0.532
1281.500	723.706	79.996	19.998	101.002	20.043	-0.904	0.489
1282.000	723.972	79.994	19.997	101.002	20.043	-0.902	0.474
1282.500	724.217	79.996	19.997	101.003	20.039	-0.643	0.496
1283.001	724.433	79.996	19.997	101.005	20.040	-0.740	0.486
1283.501	724.724	79.996	19.997	101.005	20.041	-0.790	0.484
1284.001	725.022	79.996	19.998	101.009	20.042	-0.845	0.548
1284.501	725.238	79.997	19.998	101.010	20.041	-0.783	0.552
1285.000	725.458	79.997	19.997	101.007	20.042	-0.836	0.475
1285.500	725.746	79.996	19.997	101.001	20.043	-0.917	0.471
1286.000	725.991	79.997	19.997	100.999	20.041	-0.760	0.520
1286.500	726.240	79.994	19.997	100.994	20.043	-0.951	0.514
1287.000	726.482	79.996	19.997	100.989	20.041	-0.811	0.493
1287.500	726.712	79.999	19.997	100.984	20.044	-0.984	0.481
1288.000	726.990	79.997	19.997	100.983	20.047	-1.173	0.490
1288.500	727.245	79.993	19.997	100.978	20.044	-0.965	0.520
1289.000	727.492	80.000	19.997	100.977	20.042	-0.879	0.517
1289.500	727.763	79.998	19.997	100.977	20.045	-1.061	0.510
1290.000	728.021	79.996	19.998	100.977	20.043	-0.939	0.524
1290.500	728.264	79.997	19.998	100.975	20.045	-1.037	0.515
1291.000	728.505	79.998	19.996	100.974	20.046	-1.152	0.492
1291.500	728.780	79.999	19.998	100.973	20.045	-1.061	0.500
1292.000	729.042	80.000	19.997	100.972	20.046	-1.099	0.526
1292.500	729.262	79.998	19.997	100.970	20.048	-1.277	0.509
1293.000	729.540	79.998	19.997	100.968	20.052	-1.569	0.490
1293.500	729.787	79.997	19.997	100.965	20.051	-1.460	0.512
1294.000	730.085	79.997	19.997	100.961	20.052	-1.524	0.535
1294.500	730.334	79.998	19.996	100.957	20.051	-1.507	0.546
1295.000	730.541	79.999	19.996	100.951	20.055	-1.771	0.502
1295.500	730.833	79.998	19.997	100.947	20.050	-1.424	0.477
1296.000	731.089	80.001	19.997	100.942	20.058	-1.933	0.523
1296.500	731.331	79.998	19.996	100.939	20.055	-1.758	0.523
1297.000	731.625	79.999	19.996	100.934	20.056	-1.829	0.518
1297.500	731.852	80.000	19.996	100.927	20.056	-1.837	0.529
1298.000	732.107	80.000	19.996	100.920	20.056	-1.850	0.501
1298.500	732.377	80.003	19.996	100.913	20.057	-1.869	0.503
1299.000	732.616	80.000	19.996	100.904	20.060	-2.078	0.517
1299.500	732.895	80.001	19.996	100.894	20.058	-1.982	0.513
1300.000	733.158	80.002	19.995	100.887	20.059	-2.023	0.530
1300.500	733.384	80.001	19.996	100.878	20.062	-2.240	0.516
1301.000	733.667	79.999	19.995	100.870	20.063	-2.294	0.499
1301.500	733.935	80.001	19.997	100.863	20.062	-2.209	0.530
1302.000	734.213	79.998	19.996	100.856	20.067	-2.599	0.548
1302.500	734.409	79.999	19.995	100.846	20.067	-2.556	0.510
1303.001	734.719	79.998	19.996	100.839	20.067	-2.606	0.490
1303.501	734.938	79.998	19.996	100.831	20.071	-2.887	0.518
1304.000	735.157	80.000	19.995	100.825	20.070	-2.780	0.484
1304.500	735.457	79.999	19.996	100.820	20.065	-2.439	0.478
1305.000	735.736	79.997	19.997	100.819	20.068	-2.627	0.549
1305.500	735.942	79.998	19.996	100.819	20.071	-2.832	0.532
1306.000	736.198	79.999	19.996	100.819	20.070	-2.793	0.473
1306.500	736.502	79.996	19.996	100.818	20.072	-2.964	0.511
1307.000	736.733	79.994	19.997	100.818	20.072	-2.942	0.548
1307.500	737.020	79.998	19.996	100.816	20.075	-3.171	0.526
1308.000	737.246	79.996	19.997	100.815	20.073	-3.015	0.515
1308.501	737.523	79.997	19.996	100.813	20.076	-3.209	0.508
1309.001	737.754	79.997	19.997	100.812	20.073	-2.970	0.506
1309.500	738.051	79.996	19.995	100.811	20.074	-3.045	0.518
1310.000	738.306	79.996	19.996	100.813	20.076	-3.220	0.540
1310.500	738.582	79.997	19.996	100.811	20.074	-3.049	0.542
1311.000	738.826	79.999	19.996	100.808	20.077	-3.284	0.526
1311.500	739.054	79.997	19.995	100.803	20.075	-3.120	0.496
1312.000	739.298	79.998	19.996	100.798	20.075	-3.162	0.473
1312.500	739.572	79.997	19.996	100.791	20.073	-2.998	0.495
1313.000	739.810	79.997	19.997	100.786	20.073	-2.996	0.515
1313.500	740.059	79.998	19.996	100.785	20.074	-3.045	0.499
1314.001	740.332	79.998	19.996	100.784	20.078	-3.326	0.504
1314.501	740.601	79.997	19.997	100.783	20.078	-3.324	0.532
1315.000	740.851	79.997	19.996	100.782	20.076	-3.188	0.531
1315.500	741.083	79.993	19.996	100.783	20.077	-3.278	0.501
1316.000	741.361	79.996	19.997	100.783	20.074	-3.078	0.496
1316.500	741.626	79.997	19.996	100.783	20.076	-3.237	0.526
1317.000	741.890	79.996	19.995	100.782	20.075	-3.161	0.535
1317.500	742.140	79.996	19.997	100.782	20.075	-3.116	0.521
1318.000	742.394	79.995	19.996	100.782	20.077	-3.248	0.510
1318.500	742.643	79.997	19.996	100.781	20.076	-3.188	0.504
1319.000	742.896	79.996	19.995	100.781	20.079	-3.410	0.502
1319.500	743.167	79.996	19.996	100.779	20.076	-3.237	0.513
1320.000	743.397	79.997	19.997	100.777	20.079	-3.384	0.512
1320.500	743.693	79.997	19.998	100.775	20.080	-3.478	0.514
