Sample ID:	C:\MCC\MCC Cal\Test\Bamboo_RugA_MCC_30K_min_211124_R3.txt
Sample Weight (mg):	4.83
Heating Rate (C/s):	0.5
Combustor Temp (C):	900
N2 Flow Rate (cc/min):	80
O2 Flow Rate (cc/min):	20
Calibration File:	C:\MCC\MCC Cal\Coeff1 JN10440_30_210304.txt.txt
T Correction Coefficients:	0	1.024463	0
Time Shift (s):	14
*
Time (s)	Temperature (C)	N2 flow rate (cc/min)	O2 flow rate (cc/min)	Flow Rate (cc/min)	Oxygen (%)	HRR (W/g)	Heating rate (C/s)
-0.001	110.532	80.009	19.994	103.127	19.971	-0.207	0.033
0.499	110.540	80.009	19.994	103.127	19.972	-0.254	0.022
0.999	110.548	80.009	19.994	103.127	19.972	-0.230	0.009
1.499	110.531	80.009	19.994	103.128	19.971	-0.201	0.004
1.999	110.544	80.009	19.995	103.128	19.970	-0.146	-0.006
2.499	110.543	80.010	19.994	103.128	19.971	-0.182	0.004
2.999	110.550	80.009	19.995	103.128	19.973	-0.315	0.009
3.499	110.516	80.009	19.996	103.129	19.969	-0.032	-0.011
4.000	110.544	80.009	19.995	103.130	19.971	-0.203	-0.016
4.500	110.522	80.009	19.994	103.130	19.969	-0.072	-0.000
5.000	110.510	80.010	19.995	103.136	19.969	-0.077	-0.014
5.499	110.539	80.010	19.995	103.144	19.967	0.085	-0.008
5.999	110.540	80.009	19.994	103.150	19.966	0.162	0.023
6.499	110.575	80.009	19.995	103.157	19.967	0.088	0.033
6.999	110.530	80.009	19.995	103.164	19.964	0.268	0.013
7.499	110.546	80.009	19.995	103.167	19.963	0.322	-0.020
8.000	110.554	80.009	19.996	103.167	19.965	0.198	-0.003
8.500	110.577	80.009	19.995	103.166	19.964	0.273	0.028
9.000	110.535	80.009	19.994	103.167	19.960	0.549	0.006
9.499	110.576	80.009	19.993	103.171	19.961	0.495	-0.011
9.999	110.573	80.008	19.995	103.176	19.959	0.590	0.018
10.499	110.565	80.009	19.995	103.183	19.959	0.615	0.014
10.999	110.575	80.010	19.996	103.191	19.957	0.750	-0.004
11.500	110.606	80.010	19.995	103.198	19.963	0.367	0.022
12.000	110.628	80.009	19.996	103.200	19.962	0.432	0.047
12.500	110.640	80.009	19.994	103.203	19.960	0.515	0.043
13.000	110.585	80.010	19.996	103.203	19.960	0.515	-0.004
13.499	110.612	80.009	19.995	103.205	19.957	0.718	-0.035
13.999	110.654	80.010	19.995	103.205	19.958	0.689	0.021
14.499	110.628	80.010	19.994	103.205	19.955	0.853	0.043
14.999	110.661	80.009	19.994	103.206	19.960	0.574	0.011
15.500	110.684	80.009	19.995	103.213	19.957	0.725	0.032
16.000	110.683	80.010	19.994	103.217	19.956	0.806	0.039
16.500	110.696	80.009	19.995	103.222	19.954	0.943	0.017
17.000	110.718	80.009	19.994	103.230	19.957	0.727	0.023
17.500	110.748	80.010	19.994	103.235	19.957	0.713	0.044
17.999	110.783	80.010	19.993	103.235	19.956	0.837	0.059
18.499	110.800	80.011	19.994	103.236	19.958	0.702	0.058
18.999	110.823	80.009	19.994	103.239	19.956	0.790	0.046
19.499	110.864	80.010	19.994	103.239	19.957	0.765	0.052
20.000	110.838	80.010	19.995	103.238	19.954	0.956	0.040
20.500	110.863	80.011	19.994	103.233	19.953	0.981	0.007
21.000	110.931	80.010	19.994	103.231	19.951	1.138	0.046
21.500	110.938	80.010	19.994	103.230	19.950	1.188	0.084
21.999	110.974	80.011	19.995	103.229	19.952	1.094	0.059
22.500	111.014	80.011	19.994	103.234	19.946	1.479	0.059
23.000	111.034	80.010	19.994	103.247	19.947	1.445	0.068
23.499	111.067	80.010	19.994	103.256	19.949	1.253	0.057
23.999	111.133	80.011	19.994	103.265	19.946	1.509	0.076
24.499	111.140	80.010	19.994	103.273	19.944	1.598	0.086
24.999	111.205	80.010	19.995	103.278	19.945	1.539	0.073
25.499	111.239	80.011	19.994	103.279	19.944	1.622	0.085
25.999	111.261	80.010	19.994	103.283	19.942	1.726	0.078
26.499	111.296	80.010	19.994	103.284	19.945	1.551	0.056
26.999	111.379	80.011	19.995	103.288	19.942	1.732	0.087
27.499	111.433	80.012	19.996	103.288	19.940	1.851	0.128
27.999	111.477	80.011	19.995	103.290	19.941	1.831	0.118
28.499	111.509	80.012	19.995	103.295	19.939	1.923	0.086
28.999	111.548	80.011	19.994	103.301	19.939	1.961	0.073
29.500	111.598	80.010	19.995	103.306	19.937	2.089	0.080
30.000	111.648	80.011	19.995	103.313	19.938	1.994	0.094
30.499	111.737	80.010	19.994	103.317	19.933	2.361	0.119
30.999	111.782	80.009	19.995	103.322	19.934	2.253	0.136
31.499	111.865	80.008	19.994	103.321	19.934	2.253	0.131
32.000	111.890	80.009	19.995	103.305	19.933	2.375	0.118
32.499	111.984	80.010	19.994	103.289	19.936	2.152	0.114
32.999	112.062	80.010	19.996	103.276	19.934	2.305	0.146
33.499	112.121	80.010	19.996	103.264	19.936	2.177	0.154
33.999	112.176	80.009	19.995	103.260	19.933	2.380	0.125
34.499	112.257	80.008	19.996	103.286	19.935	2.213	0.125
34.999	112.335	80.008	19.997	103.335	19.933	2.336	0.147
35.499	112.429	80.007	19.995	103.364	19.934	2.275	0.165
35.999	112.453	80.008	19.995	103.379	19.932	2.442	0.145
36.499	112.543	80.008	19.995	103.389	19.932	2.395	0.116
36.999	112.607	80.008	19.996	103.385	19.933	2.341	0.134
37.500	112.678	80.008	19.996	103.354	19.934	2.304	0.145
37.999	112.775	80.008	19.996	103.339	19.930	2.559	0.152
38.499	112.833	80.007	19.994	103.337	19.932	2.397	0.161
38.999	112.936	80.009	19.996	103.338	19.930	2.558	0.158
39.499	113.019	80.009	19.995	103.340	19.931	2.457	0.174
40.000	113.121	80.008	19.997	103.341	19.931	2.507	0.186
40.500	113.256	80.008	19.994	103.342	19.928	2.714	0.211
40.999	113.312	80.006	19.995	103.343	19.929	2.599	0.214
41.499	113.418	80.007	19.994	103.344	19.928	2.664	0.176
41.999	113.522	80.008	19.994	103.345	19.928	2.653	0.186
42.499	113.639	80.009	19.994	103.344	19.929	2.590	0.216
42.999	113.717	80.008	19.995	103.345	19.930	2.577	0.209
43.499	113.824	80.009	19.995	103.342	19.929	2.604	0.190
43.999	113.951	80.008	19.994	103.335	19.927	2.719	0.209
44.499	114.006	80.008	19.994	103.330	19.929	2.638	0.208
44.999	114.109	80.009	19.995	103.330	19.929	2.586	0.170
45.499	114.250	80.009	19.993	103.333	19.930	2.566	0.201
45.999	114.345	80.009	19.995	103.339	19.930	2.563	0.240
46.499	114.405	80.010	19.993	103.345	19.931	2.478	0.196
46.999	114.587	80.007	19.995	103.349	19.926	2.797	0.199
47.499	114.660	80.009	19.995	103.353	19.928	2.693	0.248
47.999	114.763	80.008	19.993	103.351	19.930	2.556	0.215
48.499	114.867	80.009	19.995	103.353	19.930	2.550	0.191
48.999	114.990	80.008	19.994	103.352	19.929	2.588	0.217
49.499	115.113	80.008	19.994	103.351	19.928	2.660	0.237
49.999	115.222	80.008	19.995	103.354	19.929	2.594	0.239
50.499	115.368	80.009	19.994	103.356	19.927	2.729	0.243
50.999	115.443	80.008	19.995	103.356	19.928	2.714	0.238
51.499	115.589	80.009	19.994	103.355	19.927	2.732	0.221
51.999	115.699	80.008	19.994	103.353	19.928	2.662	0.238
52.500	115.835	80.008	19.995	103.352	19.928	2.668	0.251
52.999	115.973	80.009	19.994	103.348	19.923	2.997	0.260
53.499	116.091	80.009	19.994	103.347	19.927	2.774	0.265
53.999	116.211	80.010	19.994	103.348	19.925	2.911	0.247
54.499	116.358	80.009	19.994	103.347	19.925	2.911	0.253
54.999	116.456	80.009	19.994	103.343	19.925	2.853	0.256
55.499	116.590	80.008	19.995	103.345	19.926	2.788	0.238
55.999	116.713	80.009	19.995	103.342	19.929	2.615	0.245
56.499	116.875	80.008	19.995	103.345	19.924	2.932	0.271
56.999	116.987	80.009	19.995	103.349	19.929	2.623	0.279
57.499	117.133	80.007	19.995	103.354	19.927	2.761	0.266
57.999	117.257	80.009	19.995	103.356	19.928	2.661	0.264
58.499	117.438	80.008	19.994	103.359	19.928	2.668	0.288
58.999	117.572	80.007	19.994	103.358	19.924	2.951	0.310
59.499	117.663	80.007	19.993	103.359	19.927	2.738	0.270
59.999	117.837	80.007	19.994	103.361	19.925	2.850	0.245
60.499	118.008	80.008	19.995	103.362	19.925	2.890	0.305
60.999	118.102	80.009	19.994	103.363	19.928	2.711	0.305
61.499	118.292	80.008	19.994	103.363	19.926	2.816	0.274
62.000	118.420	80.008	19.994	103.362	19.922	3.052	0.301
62.499	118.530	80.008	19.995	103.361	19.925	2.857	0.278
62.999	118.704	80.008	19.995	103.363	19.927	2.778	0.261
63.499	118.872	80.009	19.994	103.365	19.923	2.988	0.313
63.999	118.979	80.008	19.994	103.365	19.924	2.954	0.308
64.499	119.142	80.007	19.994	103.366	19.925	2.907	0.273
64.999	119.279	80.008	19.994	103.369	19.925	2.866	0.285
65.499	119.424	80.007	19.994	103.368	19.926	2.833	0.291
66.000	119.576	80.008	19.994	103.366	19.926	2.835	0.290
66.500	119.716	80.007	19.995	103.367	19.928	2.711	0.295
67.001	119.879	80.008	19.994	103.366	19.926	2.832	0.298
67.500	120.059	80.007	19.994	103.363	19.924	2.927	0.323
67.999	120.184	80.008	19.993	103.363	19.926	2.805	0.324
68.499	120.343	80.008	19.994	103.364	19.925	2.884	0.294
68.999	120.506	80.008	19.994	103.367	19.925	2.893	0.303
69.499	120.689	80.008	19.995	103.371	19.924	2.967	0.334
69.999	120.835	80.007	19.994	103.374	19.927	2.756	0.338
70.499	121.005	80.007	19.994	103.376	19.924	2.958	0.323
70.999	121.163	80.007	19.995	103.376	19.923	3.007	0.322
71.499	121.335	80.008	19.995	103.378	19.923	2.985	0.329
71.999	121.513	80.008	19.995	103.375	19.923	3.012	0.340
72.499	121.703	80.008	19.995	103.372	19.922	3.095	0.359
72.999	121.814	80.008	19.994	103.370	19.921	3.155	0.335
73.499	121.988	80.008	19.995	103.368	19.923	3.020	0.293
73.999	122.183	80.010	19.994	103.364	19.922	3.076	0.327
74.499	122.386	80.008	19.994	103.364	19.923	3.043	0.384
74.999	122.516	80.008	19.994	103.363	19.920	3.193	0.365
75.499	122.720	80.008	19.995	103.362	19.921	3.151	0.334
75.999	122.867	80.010	19.994	103.365	19.920	3.198	0.342
76.499	123.024	80.010	19.994	103.367	19.919	3.269	0.327
76.999	123.213	80.010	19.994	103.365	19.920	3.249	0.325
77.499	123.406	80.010	19.995	103.366	19.921	3.132	0.365
77.999	123.565	80.009	19.995	103.370	19.922	3.090	0.367
78.499	123.769	80.011	19.994	103.370	19.920	3.193	0.357
78.999	123.940	80.009	19.994	103.370	19.918	3.355	0.369
79.499	124.125	80.011	19.994	103.373	19.921	3.157	0.366
79.999	124.317	80.010	19.995	103.377	19.921	3.166	0.366
80.499	124.434	80.010	19.994	103.378	19.920	3.238	0.343
80.999	124.692	80.011	19.994	103.380	19.919	3.256	0.342
81.499	124.868	80.011	19.994	103.381	19.920	3.184	0.404
81.999	125.024	80.011	19.993	103.380	19.922	3.078	0.383
82.499	125.219	80.011	19.994	103.379	19.924	2.941	0.342
82.999	125.425	80.011	19.993	103.382	19.920	3.207	0.376
83.499	125.571	80.012	19.995	103.385	19.920	3.227	0.376
83.999	125.761	80.013	19.993	103.387	19.924	2.976	0.344
84.499	125.929	80.010	19.994	103.391	19.920	3.191	0.348
84.999	126.118	80.011	19.994	103.394	19.921	3.137	0.358
85.499	126.323	80.011	19.994	103.395	19.919	3.270	0.375
85.999	126.507	80.011	19.994	103.395	19.918	3.358	0.391
86.499	126.704	80.011	19.994	103.397	19.918	3.323	0.386
86.999	126.872	80.012	19.993	103.397	19.919	3.317	0.373
87.499	127.086	80.012	19.994	103.396	19.920	3.204	0.373
87.999	127.239	80.010	19.994	103.396	19.918	3.369	0.374
88.499	127.452	80.010	19.994	103.395	19.919	3.276	0.366
88.999	127.642	80.010	19.994	103.394	19.916	3.452	0.385
89.500	127.852	80.010	19.994	103.394	19.921	3.160	0.402
89.999	128.069	80.010	19.994	103.396	19.921	3.157	0.414
90.499	128.248	80.010	19.994	103.395	19.921	3.175	0.412
90.999	128.464	80.011	19.994	103.395	19.922	3.052	0.396
91.500	128.633	80.009	19.995	103.397	19.919	3.268	0.390
92.000	128.905	80.010	19.995	103.396	19.922	3.070	0.413
92.499	129.077	80.010	19.995	103.395	19.918	3.337	0.443
92.999	129.257	80.009	19.996	103.396	19.920	3.220	0.398
93.499	129.489	80.009	19.995	103.396	19.916	3.501	0.382
93.999	129.680	80.008	19.995	103.395	19.917	3.450	0.417
94.499	129.857	80.010	19.995	103.395	19.918	3.350	0.395
94.999	130.074	80.009	19.994	103.391	19.917	3.436	0.381
95.499	130.291	80.008	19.995	103.388	19.918	3.350	0.414
95.999	130.540	80.009	19.995	103.388	19.917	3.442	0.451
96.499	130.726	80.008	19.995	103.389	19.919	3.290	0.451
96.999	130.920	80.009	19.995	103.389	19.917	3.429	0.407
97.499	131.139	80.009	19.995	103.394	19.917	3.438	0.396
97.999	131.343	80.010	19.995	103.397	19.920	3.205	0.418
98.499	131.541	80.009	19.995	103.395	19.920	3.222	0.413
98.999	131.748	80.009	19.996	103.395	19.918	3.350	0.404
99.499	131.953	80.010	19.995	103.395	19.922	3.108	0.409
99.999	132.162	80.009	19.995	103.395	19.918	3.339	0.413
100.499	132.369	80.009	19.995	103.393	19.917	3.441	0.415
100.999	132.613	80.009	19.995	103.393	19.919	3.313	0.434
101.499	132.826	80.010	19.995	103.392	19.918	3.340	0.454
101.999	133.021	80.010	19.994	103.392	19.915	3.526	0.432
102.499	133.264	80.011	19.995	103.392	19.918	3.344	0.422
102.999	133.501	80.011	19.994	103.395	19.916	3.512	0.459
103.499	133.709	80.010	19.995	103.393	19.916	3.486	0.463
103.999	133.912	80.010	19.996	103.393	19.914	3.641	0.428
104.499	134.147	80.009	19.994	103.393	19.917	3.418	0.424
104.999	134.340	80.010	19.994	103.393	19.918	3.359	0.433
105.499	134.561	80.010	19.994	103.393	19.915	3.578	0.421
105.999	134.809	80.010	19.995	103.395	19.914	3.602	0.441
106.499	135.008	80.011	19.994	103.396	19.917	3.434	0.458
106.999	135.207	80.011	19.994	103.396	19.915	3.530	0.423
107.499	135.447	80.010	19.994	103.396	19.915	3.577	0.419
107.999	135.654	80.012	19.994	103.396	19.915	3.560	0.443
108.499	135.889	80.010	19.995	103.396	19.913	3.663	0.444
108.999	136.116	80.010	19.993	103.395	19.915	3.524	0.452
109.499	136.313	80.011	19.993	103.395	19.915	3.522	0.443
109.999	136.539	80.010	19.995	103.395	19.913	3.668	0.423
110.499	136.774	80.011	19.995	103.395	19.914	3.612	0.442
111.000	137.029	80.010	19.994	103.393	19.914	3.641	0.476
111.499	137.230	80.011	19.994	103.389	19.918	3.346	0.474
111.999	137.514	80.010	19.994	103.389	19.916	3.475	0.470
112.499	137.712	80.011	19.993	103.389	19.917	3.439	0.483
112.999	137.943	80.010	19.992	103.389	19.915	3.522	0.455
113.499	138.183	80.010	19.993	103.389	19.916	3.497	0.450
113.999	138.401	80.009	19.993	103.393	19.916	3.481	0.464
114.500	138.622	80.011	19.994	103.393	19.917	3.425	0.448
115.000	138.870	80.009	19.993	103.393	19.917	3.429	0.454
115.499	139.106	80.010	19.994	103.391	19.918	3.319	0.477
115.999	139.299	80.009	19.995	103.394	19.917	3.393	0.456
116.499	139.509	80.008	19.994	103.394	19.919	3.317	0.416
116.999	139.778	80.008	19.995	103.395	19.918	3.326	0.441
117.499	140.001	80.008	19.995	103.396	19.918	3.360	0.485
117.999	140.241	80.009	19.994	103.394	19.919	3.279	0.478
118.500	140.471	80.007	19.995	103.393	19.917	3.396	0.466
119.000	140.713	80.008	19.994	103.389	19.920	3.189	0.471
119.499	140.912	80.008	19.994	103.386	19.918	3.357	0.457
119.999	141.161	80.007	19.996	103.383	19.919	3.299	0.445
120.500	141.407	80.008	19.995	103.385	19.918	3.344	0.472
120.999	141.645	80.008	19.996	103.386	19.921	3.182	0.490
121.499	141.893	80.007	19.995	103.386	19.917	3.398	0.485
121.999	142.092	80.006	19.995	103.388	19.917	3.392	0.466
122.499	142.348	80.008	19.995	103.390	19.918	3.329	0.451
122.999	142.593	80.008	19.995	103.388	19.918	3.369	0.478
123.499	142.805	80.007	19.995	103.387	19.917	3.399	0.479
123.999	143.071	80.007	19.996	103.389	19.918	3.329	0.468
124.499	143.290	80.007	19.995	103.390	19.914	3.596	0.481
124.999	143.522	80.008	19.995	103.391	19.917	3.438	0.468
125.499	143.767	80.007	19.995	103.391	19.915	3.530	0.464
125.999	144.031	80.007	19.996	103.392	19.918	3.337	0.493
126.499	144.279	80.006	19.994	103.392	19.917	3.443	0.510
126.999	144.531	80.007	19.995	103.392	19.918	3.371	0.507
127.499	144.784	80.007	19.994	103.389	19.916	3.468	0.503
127.999	145.031	80.007	19.995	103.391	19.919	3.272	0.502
128.499	145.236	80.007	19.995	103.389	19.919	3.317	0.476
128.999	145.476	80.008	19.997	103.386	19.920	3.232	0.449
129.499	145.754	80.008	19.996	103.386	19.917	3.398	0.481
130.000	145.980	80.006	19.996	103.387	19.917	3.437	0.511
130.499	146.259	80.007	19.995	103.387	19.917	3.428	0.504
130.999	146.466	80.008	19.995	103.387	19.917	3.401	0.496
131.499	146.721	80.007	19.995	103.388	19.918	3.342	0.474
132.000	146.947	80.007	19.995	103.386	19.918	3.338	0.471
132.499	147.187	80.008	19.996	103.384	19.919	3.287	0.474
132.999	147.420	80.007	19.994	103.382	19.916	3.509	0.470
133.499	147.658	80.007	19.995	103.381	19.913	3.697	0.472
133.999	147.919	80.009	19.995	103.380	19.917	3.444	0.485
134.499	148.139	80.008	19.995	103.379	19.917	3.425	0.490
134.999	148.436	80.008	19.995	103.382	19.916	3.461	0.499
135.499	148.668	80.008	19.995	103.386	19.916	3.504	0.524
135.999	148.898	80.007	19.996	103.390	19.914	3.594	0.496
136.499	149.147	80.008	19.995	103.390	19.916	3.509	0.471
136.999	149.376	80.009	19.995	103.389	19.914	3.623	0.478
137.499	149.615	80.008	19.996	103.383	19.913	3.669	0.473
137.999	149.888	80.009	19.995	103.379	19.917	3.399	0.490
138.499	150.156	80.008	19.995	103.378	19.915	3.565	0.526
138.999	150.360	80.008	19.994	103.379	19.916	3.484	0.507
139.499	150.610	80.008	19.994	103.380	19.917	3.410	0.463
139.999	150.883	80.008	19.994	103.385	19.918	3.329	0.488
140.499	151.133	80.009	19.995	103.385	19.915	3.551	0.523
140.999	151.369	80.007	19.994	103.381	19.916	3.473	0.505
141.499	151.636	80.009	19.995	103.375	19.916	3.484	0.495
141.999	151.892	80.007	19.995	103.375	19.916	3.459	0.514
142.499	152.116	80.008	19.994	103.371	19.918	3.365	0.502
142.999	152.377	80.009	19.994	103.367	19.919	3.264	0.482
143.499	152.592	80.010	19.995	103.368	19.918	3.343	0.480
143.999	152.862	80.009	19.994	103.370	19.918	3.343	0.481
144.499	153.090	80.009	19.995	103.373	19.918	3.365	0.492
144.999	153.334	80.008	19.995	103.373	19.916	3.475	0.485
145.499	153.596	80.009	19.994	103.373	19.916	3.462	0.489
145.999	153.846	80.009	19.995	103.373	19.918	3.332	0.509
146.500	154.073	80.009	19.994	103.372	19.917	3.449	0.494
146.999	154.275	80.009	19.995	103.366	19.916	3.460	0.453
147.499	154.562	80.008	19.995	103.366	19.916	3.507	0.459
147.999	154.826	80.009	19.995	103.369	19.916	3.478	0.520
148.499	155.051	80.009	19.993	103.369	19.916	3.471	0.520
148.999	155.282	80.009	19.995	103.373	19.917	3.434	0.473
149.499	155.571	80.010	19.995	103.380	19.918	3.356	0.488
149.999	155.799	80.007	19.994	103.383	19.916	3.489	0.519
150.499	156.060	80.009	19.995	103.382	19.913	3.686	0.503
150.999	156.300	80.006	19.995	103.381	19.915	3.568	0.495
151.499	156.545	80.010	19.994	103.377	19.916	3.467	0.493
151.999	156.784	80.008	19.994	103.371	19.914	3.599	0.484
152.499	157.048	80.009	19.995	103.368	19.916	3.471	0.493
152.999	157.300	80.008	19.994	103.370	19.918	3.372	0.509
153.499	157.537	80.009	19.995	103.369	19.918	3.349	0.502
153.999	157.788	80.009	19.995	103.368	19.916	3.467	0.489
154.499	158.067	80.008	19.995	103.366	19.919	3.296	0.510
154.999	158.290	80.009	19.996	103.365	19.915	3.532	0.516
155.499	158.571	80.010	19.995	103.362	19.916	3.498	0.503
155.999	158.852	80.009	19.995	103.361	19.918	3.334	0.533
156.499	159.063	80.008	19.995	103.360	19.915	3.525	0.527
156.999	159.304	80.008	19.995	103.360	19.920	3.213	0.472
157.499	159.568	80.009	19.995	103.360	19.917	3.426	0.479
157.999	159.809	80.009	19.995	103.359	19.916	3.487	0.505
158.499	160.081	80.008	19.994	103.363	19.918	3.334	0.509
158.999	160.301	80.010	19.995	103.369	19.916	3.500	0.502
159.499	160.557	80.008	19.994	103.373	19.919	3.316	0.484
159.999	160.778	80.009	19.995	103.378	19.916	3.467	0.477
160.499	161.061	80.009	19.994	103.378	19.920	3.242	0.491
160.999	161.236	80.010	19.993	103.376	19.921	3.125	0.481
161.499	161.543	80.011	19.993	103.369	19.918	3.348	0.470
161.999	161.811	80.009	19.994	103.365	19.914	3.593	0.528
162.499	162.040	80.009	19.994	103.360	19.916	3.467	0.536
162.999	162.272	80.009	19.994	103.363	19.916	3.455	0.479
163.499	162.545	80.009	19.994	103.363	19.919	3.271	0.483
163.999	162.822	80.010	19.994	103.363	19.916	3.457	0.528
164.499	163.021	80.010	19.994	103.363	19.916	3.475	0.513
164.999	163.281	80.011	19.994	103.363	19.915	3.579	0.468
165.500	163.534	80.011	19.995	103.362	19.915	3.550	0.486
165.999	163.777	80.011	19.995	103.360	19.919	3.285	0.504
166.499	164.073	80.012	19.994	103.361	19.919	3.285	0.518
166.999	164.314	80.012	19.995	103.362	19.913	3.682	0.538
167.499	164.550	80.010	19.994	103.363	19.916	3.503	0.507
167.999	164.847	80.012	19.994	103.361	19.917	3.446	0.505
168.499	165.117	80.011	19.995	103.361	19.918	3.357	0.550
168.999	165.345	80.011	19.994	103.361	19.919	3.269	0.533
169.499	165.598	80.011	19.995	103.359	19.918	3.354	0.490
169.999	165.876	80.010	19.995	103.359	19.916	3.494	0.507
170.499	166.098	80.010	19.995	103.358	19.915	3.568	0.516
170.999	166.352	80.010	19.994	103.357	19.919	3.305	0.487
171.499	166.590	80.010	19.994	103.357	19.918	3.383	0.484
171.999	166.877	80.009	19.994	103.357	19.915	3.548	0.509
172.499	167.100	80.011	19.994	103.357	19.917	3.444	0.518
172.999	167.337	80.011	19.993	103.357	19.917	3.442	0.485
173.499	167.617	80.011	19.994	103.358	19.918	3.341	0.488
173.999	167.892	80.011	19.994	103.359	19.915	3.525	0.536
174.499	168.104	80.008	19.994	103.360	19.917	3.417	0.521
174.999	168.373	80.009	19.995	103.360	19.915	3.518	0.485
175.499	168.621	80.010	19.995	103.360	19.917	3.395	0.499
175.999	168.897	80.008	19.994	103.360	19.916	3.484	0.520
176.499	169.137	80.010	19.994	103.360	19.916	3.485	0.520
177.000	169.378	80.009	19.993	103.359	19.918	3.370	0.498
177.499	169.651	80.011	19.994	103.359	19.915	3.575	0.498
177.999	169.884	80.010	19.994	103.359	19.916	3.492	0.510
178.499	170.122	80.010	19.994	103.359	19.916	3.491	0.489
178.999	170.404	80.009	19.994	103.361	19.917	3.420	0.495
179.499	170.637	80.009	19.993	103.361	19.916	3.494	0.517
179.999	170.872	80.009	19.996	103.361	19.916	3.471	0.492
180.499	171.141	80.010	19.996	103.361	19.914	3.591	0.486
180.999	171.382	80.011	19.994	103.363	19.914	3.620	0.506
181.499	171.647	80.009	19.994	103.362	19.913	3.696	0.508
181.999	171.879	80.008	19.995	103.362	19.917	3.449	0.502
182.499	172.122	80.008	19.995	103.362	19.916	3.494	0.486
182.999	172.387	80.010	19.994	103.362	19.915	3.563	0.492
183.499	172.646	80.009	19.994	103.361	19.918	3.318	0.516
183.999	172.899	80.010	19.993	103.361	19.913	3.656	0.518
184.499	173.135	80.009	19.994	103.361	19.915	3.563	0.500
184.999	173.405	80.009	19.993	103.361	19.914	3.644	0.497
185.499	173.661	80.010	19.995	103.361	19.914	3.619	0.516
185.999	173.890	80.009	19.994	103.361	19.915	3.555	0.506
186.499	174.143	80.010	19.994	103.361	19.914	3.601	0.484
186.999	174.391	80.013	19.994	103.360	19.912	3.754	0.491
187.499	174.667	80.012	19.993	103.361	19.911	3.824	0.512
187.999	174.871	80.010	19.995	103.359	19.911	3.826	0.502
188.499	175.136	80.011	19.993	103.358	19.913	3.658	0.474
188.999	175.361	80.011	19.995	103.357	19.917	3.445	0.480
189.499	175.629	80.010	19.994	103.356	19.915	3.521	0.492
189.999	175.880	80.011	19.995	103.356	19.914	3.589	0.506
190.499	176.165	80.013	19.995	103.356	19.913	3.685	0.528
190.999	176.394	80.011	19.995	103.357	19.915	3.555	0.525
191.499	176.641	80.010	19.995	103.357	19.912	3.719	0.495
192.000	176.867	80.009	19.995	103.357	19.913	3.680	0.475
192.500	177.139	80.008	19.995	103.356	19.913	3.690	0.485
192.999	177.379	80.011	19.994	103.355	19.915	3.523	0.505
193.499	177.623	80.008	19.994	103.355	19.910	3.856	0.498
193.999	177.884	80.010	19.994	103.354	19.914	3.622	0.495
194.499	178.135	80.011	19.995	103.355	19.914	3.615	0.508
194.999	178.370	80.008	19.994	103.356	19.915	3.517	0.499
195.499	178.602	80.010	19.994	103.358	19.911	3.816	0.477
195.999	178.876	80.008	19.995	103.357	19.912	3.730	0.486
196.499	179.103	80.009	19.995	103.358	19.910	3.878	0.503
196.999	179.381	80.010	19.995	103.357	19.907	4.054	0.503
197.499	179.633	80.013	19.994	103.357	19.912	3.777	0.518
197.999	179.879	80.009	19.994	103.357	19.913	3.710	0.514
198.499	180.111	80.011	19.994	103.357	19.911	3.838	0.488
198.999	180.358	80.009	19.994	103.356	19.908	3.998	0.479
199.499	180.658	80.008	19.993	103.352	19.911	3.822	0.513
199.999	180.837	80.005	19.995	103.349	19.911	3.823	0.512
200.499	181.098	80.007	19.996	103.348	19.911	3.843	0.459
200.999	181.382	80.008	19.994	103.348	19.911	3.811	0.493
201.499	181.612	80.007	19.995	103.350	19.911	3.797	0.530
201.999	181.867	80.007	19.994	103.355	19.910	3.865	0.500
202.499	182.102	80.009	19.995	103.360	19.910	3.887	0.487
202.999	182.355	80.009	19.995	103.356	19.911	3.784	0.489
203.499	182.562	80.008	19.994	103.353	19.910	3.868	0.474
203.999	182.873	80.010	19.995	103.351	19.909	3.974	0.489
204.499	183.087	80.007	19.995	103.349	19.908	3.989	0.521
205.000	183.345	80.007	19.994	103.347	19.906	4.145	0.499
205.499	183.592	80.009	19.995	103.351	19.908	3.994	0.488
205.999	183.806	80.007	19.995	103.351	19.906	4.133	0.483
206.499	184.102	80.010	19.995	103.352	19.906	4.183	0.486
206.999	184.345	80.009	19.996	103.349	19.905	4.199	0.525
207.499	184.607	80.011	19.997	103.348	19.905	4.192	0.522
207.999	184.826	80.008	19.995	103.348	19.908	4.012	0.493
208.499	185.093	80.010	19.995	103.347	19.907	4.073	0.483
208.999	185.344	80.008	19.995	103.346	19.909	3.956	0.502
209.499	185.612	80.009	19.996	103.347	19.908	3.999	0.518
209.999	185.832	80.010	19.995	103.347	19.907	4.100	0.503
210.499	186.091	80.008	19.993	103.345	19.912	3.756	0.484
210.999	186.336	80.008	19.995	103.347	19.909	3.962	0.491
211.499	186.557	80.009	19.995	103.350	19.909	3.969	0.485
211.999	186.872	80.009	19.996	103.350	19.908	4.017	0.501
212.499	187.161	80.009	19.996	103.351	19.909	3.924	0.570
212.999	187.348	80.009	19.994	103.353	19.908	4.021	0.540
213.499	187.620	80.008	19.995	103.352	19.908	4.019	0.467
213.999	187.852	80.007	19.995	103.348	19.906	4.163	0.481
214.499	188.108	80.010	19.995	103.343	19.908	3.983	0.496
214.999	188.327	80.006	19.995	103.340	19.907	4.096	0.481
215.499	188.587	80.008	19.995	103.340	19.909	3.978	0.477
215.999	188.827	80.007	19.996	103.336	19.905	4.219	0.489
216.499	189.073	80.008	19.995	103.335	19.904	4.309	0.493
216.999	189.319	80.009	19.995	103.338	19.902	4.384	0.489
217.499	189.583	80.009	19.996	103.336	19.904	4.307	0.501
217.999	189.787	80.009	19.995	103.335	19.903	4.381	0.489
218.499	190.051	80.010	19.996	103.337	19.901	4.516	0.468
218.999	190.306	80.009	19.995	103.335	19.903	4.378	0.493
219.499	190.547	80.008	19.996	103.331	19.903	4.331	0.508
219.999	190.818	80.009	19.996	103.331	19.905	4.246	0.504
220.499	191.051	80.007	19.995	103.329	19.906	4.116	0.508
220.999	191.279	80.008	19.995	103.325	19.904	4.268	0.482
221.499	191.550	80.008	19.995	103.328	19.904	4.273	0.480
221.999	191.784	80.009	19.994	103.331	19.903	4.369	0.502
222.499	192.042	80.008	19.995	103.329	19.905	4.250	0.499
222.999	192.270	80.009	19.995	103.328	19.901	4.452	0.489
223.499	192.549	80.009	19.995	103.328	19.904	4.255	0.497
223.999	192.802	80.009	19.996	103.328	19.902	4.390	0.519
224.499	193.014	80.007	19.995	103.326	19.901	4.481	0.499
224.999	193.301	80.009	19.995	103.327	19.904	4.284	0.482
225.499	193.499	80.009	19.996	103.326	19.900	4.536	0.492
225.999	193.776	80.009	19.996	103.327	19.900	4.556	0.480
226.499	194.028	80.010	19.996	103.327	19.901	4.452	0.502
226.999	194.288	80.008	19.996	103.327	19.905	4.219	0.520
227.499	194.507	80.008	19.996	103.325	19.898	4.669	0.496
227.999	194.768	80.007	19.996	103.325	19.899	4.632	0.480
228.499	195.024	80.011	19.996	103.325	19.903	4.351	0.499
228.999	195.259	80.006	19.995	103.327	19.901	4.471	0.505
229.499	195.455	80.007	19.996	103.331	19.899	4.614	0.461
229.999	195.711	80.010	19.996	103.333	19.898	4.686	0.441
230.499	195.950	80.007	19.995	103.335	19.898	4.700	0.474
230.999	196.228	80.008	19.995	103.334	19.898	4.691	0.506
231.499	196.442	80.008	19.995	103.330	19.900	4.569	0.504
231.999	196.684	80.009	19.996	103.330	19.897	4.719	0.474
232.499	196.929	80.010	19.996	103.329	19.898	4.693	0.472
232.999	197.182	80.008	19.995	103.331	19.896	4.812	0.492
233.499	197.434	80.006	19.995	103.335	19.897	4.743	0.501
233.999	197.707	80.008	19.995	103.339	19.899	4.647	0.515
234.499	197.917	80.007	19.994	103.339	19.900	4.534	0.504
234.999	198.193	80.007	19.995	103.340	19.898	4.678	0.484
235.499	198.407	80.008	19.995	103.340	19.899	4.608	0.487
235.999	198.698	80.009	19.995	103.341	19.897	4.763	0.497
236.499	198.929	80.007	19.995	103.338	19.898	4.691	0.514
236.999	199.178	80.007	19.995	103.338	19.898	4.678	0.501
237.499	199.406	80.007	19.994	103.338	19.897	4.750	0.478
237.999	199.659	80.007	19.994	103.335	19.896	4.841	0.479
238.499	199.891	80.007	19.995	103.332	19.895	4.854	0.483
238.999	200.178	80.009	19.994	103.336	19.897	4.764	0.502
239.499	200.382	80.007	19.994	103.334	19.896	4.801	0.505
239.999	200.618	80.009	19.994	103.333	19.897	4.745	0.466
240.499	200.876	80.009	19.995	103.336	19.898	4.655	0.467
240.999	201.149	80.008	19.994	103.340	19.896	4.797	0.513
241.499	201.381	80.008	19.994	103.340	19.896	4.815	0.518
241.999	201.654	80.009	19.994	103.346	19.896	4.805	0.505
242.499	201.904	80.009	19.995	103.351	19.895	4.911	0.514
242.999	202.160	80.009	19.994	103.348	19.897	4.727	0.515
243.499	202.369	80.008	19.994	103.342	19.895	4.909	0.486
243.999	202.667	80.010	19.994	103.337	19.893	5.050	0.486
244.500	202.884	80.008	19.995	103.330	19.894	4.983	0.511
245.000	203.151	80.010	19.994	103.324	19.893	5.021	0.500
245.500	203.386	80.009	19.994	103.324	19.892	5.099	0.493
245.999	203.615	80.009	19.994	103.325	19.892	5.117	0.483
246.499	203.894	80.009	19.994	103.326	19.893	5.029	0.486
246.999	204.115	80.010	19.994	103.327	19.894	4.949	0.504
247.499	204.358	80.009	19.994	103.328	19.890	5.194	0.482
248.000	204.675	80.011	19.994	103.331	19.890	5.230	0.513
248.499	204.870	80.010	19.994	103.335	19.887	5.390	0.536
248.999	205.124	80.010	19.994	103.340	19.889	5.309	0.480
249.499	205.388	80.010	19.995	103.344	19.888	5.372	0.483
249.999	205.609	80.011	19.994	103.346	19.890	5.221	0.502
250.499	205.879	80.011	19.994	103.343	19.890	5.244	0.488
250.999	206.129	80.011	19.995	103.339	19.887	5.386	0.505
251.499	206.371	80.011	19.995	103.334	19.887	5.427	0.506
251.999	206.602	80.010	19.994	103.333	19.886	5.503	0.483
252.499	206.863	80.011	19.995	103.335	19.884	5.636	0.483
252.999	207.104	80.009	19.994	103.340	19.886	5.510	0.497
253.500	207.372	80.010	19.994	103.344	19.885	5.563	0.505
254.000	207.634	80.010	19.994	103.343	19.887	5.419	0.520
254.500	207.861	80.009	19.996	103.342	19.886	5.509	0.510
255.000	208.108	80.010	19.995	103.345	19.885	5.540	0.482
255.500	208.326	80.009	19.994	103.347	19.883	5.682	0.469
255.999	208.598	80.010	19.994	103.346	19.885	5.527	0.478
256.499	208.843	80.008	19.994	103.351	19.886	5.515	0.504
256.999	209.125	80.011	19.995	103.355	19.884	5.587	0.522
257.499	209.366	80.010	19.994	103.352	19.884	5.632	0.525
257.999	209.593	80.010	19.994	103.345	19.884	5.621	0.496
258.499	209.837	80.008	19.994	103.340	19.883	5.716	0.469
258.999	210.082	80.010	19.995	103.339	19.883	5.690	0.480
259.499	210.320	80.009	19.994	103.338	19.880	5.858	0.486
259.999	210.570	80.008	19.994	103.338	19.880	5.908	0.486
260.499	210.844	80.009	19.995	103.340	19.881	5.841	0.506
260.999	211.082	80.008	19.994	103.342	19.882	5.769	0.517
261.499	211.321	80.008	19.994	103.338	19.881	5.800	0.494
261.999	211.565	80.009	19.994	103.333	19.881	5.819	0.480
262.499	211.785	80.009	19.993	103.328	19.876	6.129	0.474
262.999	212.031	80.009	19.995	103.327	19.877	6.090	0.465
263.499	212.283	80.009	19.994	103.328	19.877	6.063	0.482
263.999	212.549	80.009	19.994	103.333	19.878	6.018	0.508
264.499	212.775	80.008	19.994	103.336	19.876	6.172	0.505
264.999	213.047	80.010	19.994	103.339	19.874	6.301	0.495
265.499	213.306	80.007	19.995	103.341	19.877	6.089	0.515
265.999	213.502	80.009	19.995	103.346	19.879	5.950	0.493
266.500	213.781	80.010	19.994	103.345	19.875	6.189	0.465
267.000	214.049	80.009	19.993	103.346	19.876	6.146	0.511
267.499	214.300	80.009	19.996	103.351	19.875	6.216	0.533
267.999	214.532	80.009	19.995	103.355	19.875	6.205	0.501
268.499	214.763	80.011	19.993	103.353	19.879	5.968	0.473
268.999	214.976	80.009	19.995	103.349	19.877	6.117	0.453
269.499	215.273	80.011	19.995	103.343	19.872	6.387	0.477
269.999	215.497	80.011	19.995	103.336	19.874	6.290	0.516
270.499	215.767	80.012	19.994	103.330	19.875	6.223	0.507
270.999	216.033	80.011	19.993	103.325	19.873	6.331	0.515
271.499	216.253	80.010	19.994	103.325	19.875	6.187	0.511
272.000	216.535	80.011	19.994	103.326	19.869	6.593	0.494
272.500	216.733	80.011	19.994	103.325	19.871	6.510	0.491
273.000	216.992	80.011	19.994	103.324	19.871	6.470	0.469
273.500	217.223	80.012	19.995	103.329	19.869	6.643	0.474
274.000	217.490	80.012	19.994	103.331	19.870	6.553	0.494
274.499	217.749	80.011	19.993	103.334	19.868	6.679	0.511
274.999	217.990	80.011	19.994	103.340	19.872	6.409	0.513
275.499	218.231	80.012	19.994	103.340	19.867	6.755	0.491
275.999	218.482	80.011	19.994	103.341	19.871	6.488	0.488
276.499	218.720	80.012	19.994	103.341	19.868	6.675	0.491
276.999	218.959	80.010	19.993	103.340	19.869	6.604	0.483
277.499	219.215	80.012	19.993	103.339	19.866	6.791	0.486
277.999	219.469	80.009	19.995	103.338	19.869	6.631	0.503
278.500	219.690	80.014	19.994	103.334	19.868	6.659	0.493
278.999	219.964	80.011	19.994	103.334	19.867	6.737	0.485
279.499	220.204	80.012	19.994	103.331	19.867	6.744	0.504
279.999	220.445	80.008	19.996	103.330	19.866	6.798	0.497
280.499	220.730	80.011	19.995	103.330	19.863	7.049	0.503
280.999	220.910	80.009	19.995	103.335	19.866	6.831	0.495
281.499	221.192	80.011	19.996	103.333	19.867	6.776	0.464
281.999	221.457	80.010	19.995	103.333	19.865	6.904	0.505
282.499	221.696	80.009	19.994	103.335	19.868	6.688	0.526
282.999	221.958	80.007	19.996	103.334	19.862	7.097	0.503
283.499	222.220	80.007	19.995	103.332	19.865	6.898	0.512
283.999	222.450	80.007	19.996	103.333	19.863	7.028	0.508
284.499	222.708	80.011	19.995	103.336	19.865	6.891	0.490
284.999	222.925	80.010	19.994	103.335	19.866	6.809	0.482
285.499	223.160	80.009	19.996	103.334	19.860	7.189	0.463
285.999	223.403	80.007	19.994	103.336	19.862	7.116	0.464
286.499	223.665	80.007	19.995	103.338	19.861	7.149	0.491
286.999	223.921	80.008	19.996	103.337	19.863	7.027	0.512
287.499	224.182	80.008	19.995	103.335	19.861	7.155	0.518
287.999	224.399	80.007	19.995	103.338	19.859	7.310	0.498
288.499	224.670	80.008	19.995	103.336	19.860	7.229	0.483
288.999	224.946	80.007	19.995	103.336	19.857	7.403	0.518
289.499	225.161	80.006	19.996	103.337	19.859	7.267	0.519
289.999	225.415	80.007	19.996	103.341	19.860	7.225	0.480
290.499	225.694	80.007	19.996	103.340	19.860	7.247	0.501
290.999	225.883	80.010	19.995	103.339	19.858	7.366	0.500
291.499	226.138	80.009	19.995	103.339	19.858	7.361	0.456
291.999	226.407	80.007	19.996	103.342	19.859	7.304	0.483
292.499	226.640	80.007	19.995	103.337	19.858	7.364	0.513
292.999	226.894	80.009	19.995	103.335	19.859	7.266	0.495
293.499	227.169	80.006	19.994	103.333	19.858	7.376	0.508
293.999	227.388	80.007	19.995	103.332	19.860	7.224	0.512
294.499	227.657	80.008	19.994	103.329	19.859	7.265	0.491
294.999	227.891	80.010	19.995	103.330	19.856	7.469	0.495
295.499	228.170	80.007	19.995	103.330	19.855	7.573	0.508
295.999	228.407	80.008	19.996	103.335	19.853	7.710	0.515
296.499	228.679	80.009	19.995	103.333	19.853	7.713	0.512
296.999	228.914	80.010	19.994	103.332	19.852	7.739	0.508
297.499	229.183	80.010	19.995	103.333	19.852	7.736	0.505
297.999	229.455	80.008	19.995	103.337	19.852	7.769	0.523
298.499	229.692	80.008	19.994	103.339	19.853	7.721	0.525
298.999	229.890	80.008	19.995	103.341	19.852	7.781	0.472
299.499	230.164	80.007	19.993	103.341	19.847	8.121	0.453
299.999	230.442	80.007	19.994	103.341	19.849	7.966	0.512
300.499	230.699	80.008	19.995	103.344	19.849	7.958	0.543
300.999	230.934	80.008	19.996	103.342	19.848	8.012	0.513
301.499	231.145	80.007	19.996	103.344	19.849	7.977	0.469
301.999	231.459	80.008	19.993	103.346	19.849	7.965	0.485
302.499	231.643	80.011	19.995	103.347	19.848	8.030	0.511
303.000	231.913	80.006	19.995	103.341	19.849	7.924	0.476
303.499	232.180	80.004	19.994	103.339	19.847	8.102	0.496
303.999	232.425	80.007	19.995	103.338	19.847	8.096	0.525
304.499	232.657	80.009	19.996	103.340	19.847	8.087	0.494
304.999	232.913	80.008	19.995	103.345	19.844	8.301	0.482
305.499	233.173	80.007	19.995	103.351	19.845	8.251	0.502
305.999	233.439	80.008	19.995	103.353	19.844	8.303	0.521
306.499	233.694	80.008	19.995	103.347	19.841	8.493	0.523
306.999	233.901	80.007	19.996	103.342	19.840	8.571	0.491
307.499	234.219	80.008	19.995	103.335	19.838	8.690	0.494
307.999	234.427	80.009	19.995	103.330	19.841	8.510	0.526
308.499	234.683	80.008	19.994	103.333	19.842	8.449	0.495
308.999	234.914	80.007	19.995	103.339	19.836	8.809	0.475
309.500	235.157	80.006	19.994	103.347	19.839	8.617	0.481
310.000	235.415	80.005	19.995	103.353	19.836	8.822	0.488
310.499	235.665	80.008	19.994	103.355	19.835	8.864	0.504
310.999	235.912	80.007	19.994	103.350	19.833	9.046	0.503
311.499	236.160	80.008	19.994	103.346	19.835	8.874	0.496
311.999	236.372	80.009	19.995	103.341	19.833	9.011	0.477
312.499	236.655	80.008	19.995	103.335	19.834	8.939	0.477
312.999	236.888	80.007	19.996	103.334	19.832	9.069	0.506
313.499	237.092	80.006	19.995	103.337	19.833	9.057	0.477
313.999	237.412	80.006	19.995	103.340	19.832	9.123	0.480
314.499	237.624	80.007	19.996	103.343	19.831	9.138	0.528
314.999	237.916	80.009	19.995	103.348	19.828	9.366	0.518
315.499	238.117	80.007	19.995	103.353	19.826	9.518	0.499
315.999	238.383	80.006	19.995	103.353	19.830	9.247	0.480
316.500	238.631	80.007	19.995	103.351	19.825	9.541	0.490
317.000	238.892	80.007	19.995	103.351	19.830	9.213	0.511
317.500	239.158	80.007	19.995	103.347	19.826	9.492	0.518
318.000	239.357	80.008	19.995	103.347	19.824	9.622	0.496
318.499	239.603	80.005	19.996	103.346	19.825	9.588	0.455
318.999	239.846	80.008	19.996	103.349	19.826	9.507	0.467
319.499	240.084	80.009	19.996	103.351	19.822	9.739	0.485
319.999	240.337	80.007	19.996	103.355	19.824	9.642	0.486
320.499	240.576	80.006	19.995	103.355	19.821	9.793	0.492
320.999	240.843	80.006	19.996	103.353	19.820	9.865	0.499
321.500	241.074	80.006	19.996	103.347	19.820	9.887	0.502
322.000	241.277	80.006	19.996	103.348	19.818	10.038	0.466
322.499	241.518	80.009	19.996	103.348	19.820	9.865	0.439
322.999	241.809	80.006	19.997	103.350	19.817	10.126	0.487
323.500	242.078	80.009	19.995	103.354	19.817	10.067	0.546
324.000	242.301	80.007	19.996	103.361	19.815	10.258	0.526
324.500	242.559	80.007	19.995	103.361	19.815	10.247	0.487
325.000	242.794	80.008	19.995	103.361	19.817	10.121	0.487
325.500	243.079	80.008	19.995	103.361	19.815	10.260	0.507
326.000	243.271	80.007	19.996	103.360	19.813	10.378	0.498
326.500	243.610	80.009	19.995	103.360	19.812	10.456	0.504
327.000	243.826	80.009	19.994	103.359	19.808	10.670	0.543
327.500	244.027	80.011	19.994	103.360	19.807	10.749	0.486
328.000	244.330	80.009	19.995	103.360	19.808	10.692	0.460
328.499	244.575	80.010	19.995	103.360	19.806	10.847	0.526
328.999	244.809	80.007	19.994	103.360	19.807	10.728	0.514
329.499	245.054	80.008	19.994	103.360	19.806	10.822	0.479
329.999	245.289	80.008	19.994	103.359	19.803	10.996	0.480
330.499	245.535	80.010	19.993	103.359	19.801	11.135	0.480
330.999	245.804	80.009	19.994	103.359	19.803	11.020	0.498
331.499	246.007	80.010	19.994	103.358	19.800	11.247	0.493
332.000	246.299	80.009	19.994	103.360	19.801	11.171	0.484
332.499	246.555	80.008	19.994	103.360	19.799	11.322	0.522
332.999	246.819	80.010	19.994	103.358	19.798	11.378	0.534
333.499	247.063	80.008	19.995	103.358	19.795	11.540	0.514
333.999	247.314	80.009	19.994	103.358	19.794	11.629	0.502
334.499	247.558	80.009	19.993	103.357	19.789	11.931	0.495
334.999	247.814	80.008	19.995	103.357	19.791	11.818	0.497
335.499	248.055	80.010	19.994	103.360	19.790	11.912	0.499
335.999	248.284	80.010	19.994	103.359	19.788	12.027	0.484
336.499	248.554	80.008	19.995	103.359	19.788	12.040	0.484
336.999	248.821	80.010	19.994	103.359	19.783	12.353	0.518
337.499	249.029	80.011	19.994	103.358	19.787	12.105	0.506
337.999	249.350	80.010	19.994	103.358	19.786	12.195	0.502
338.499	249.602	80.011	19.995	103.358	19.786	12.179	0.551
338.999	249.825	80.007	19.995	103.358	19.779	12.660	0.524
339.499	250.101	80.010	19.994	103.358	19.781	12.489	0.487
339.999	250.315	80.012	19.995	103.358	19.776	12.798	0.494
340.499	250.587	80.011	19.993	103.359	19.775	12.903	0.488
340.999	250.842	80.009	19.994	103.359	19.778	12.667	0.506
341.499	251.064	80.009	19.994	103.359	19.774	12.944	0.502
341.999	251.347	80.009	19.994	103.359	19.773	13.049	0.491
342.499	251.581	80.009	19.995	103.360	19.769	13.312	0.511
342.999	251.869	80.008	19.995	103.359	19.769	13.288	0.520
343.499	252.086	80.010	19.994	103.359	19.768	13.396	0.514
343.999	252.351	80.011	19.994	103.360	19.767	13.441	0.493
344.499	252.613	80.010	19.995	103.361	19.767	13.410	0.505
344.999	252.836	80.009	19.994	103.360	19.765	13.579	0.506
345.499	253.094	80.009	19.994	103.362	19.765	13.567	0.483
345.999	253.316	80.008	19.995	103.364	19.761	13.802	0.481
346.499	253.576	80.009	19.994	103.364	19.764	13.632	0.481
346.999	253.850	80.009	19.995	103.363	19.759	13.944	0.508
347.499	254.091	80.009	19.994	103.364	19.758	14.016	0.525
347.999	254.300	80.008	19.994	103.367	19.757	14.132	0.483
348.499	254.549	80.008	19.995	103.367	19.756	14.192	0.454
348.999	254.790	80.007	19.994	103.370	19.754	14.322	0.474
349.499	255.079	80.010	19.994	103.371	19.755	14.238	0.509
349.999	255.346	80.010	19.995	103.371	19.749	14.622	0.543
350.499	255.579	80.010	19.994	103.368	19.748	14.685	0.528
350.999	255.836	80.010	19.994	103.367	19.746	14.847	0.496
351.499	256.089	80.009	19.994	103.365	19.746	14.832	0.501
351.999	256.325	80.006	19.994	103.365	19.741	15.152	0.499
352.499	256.568	80.009	19.993	103.363	19.745	14.924	0.483
352.999	256.828	80.010	19.993	103.365	19.742	15.128	0.491
353.499	257.085	80.010	19.994	103.370	19.740	15.263	0.510
353.999	257.298	80.011	19.993	103.375	19.737	15.440	0.494
354.499	257.571	80.011	19.993	103.374	19.736	15.531	0.478
354.999	257.801	80.011	19.994	103.376	19.732	15.795	0.494
355.499	258.053	80.011	19.994	103.375	19.731	15.836	0.492
355.999	258.298	80.010	19.994	103.369	19.730	15.910	0.490
356.499	258.573	80.010	19.993	103.365	19.729	15.971	0.509
356.999	258.806	80.011	19.994	103.366	19.728	16.036	0.514
357.499	259.035	80.011	19.994	103.366	19.725	16.254	0.485
357.999	259.305	80.011	19.993	103.368	19.723	16.373	0.480
358.500	259.548	80.009	19.993	103.368	19.720	16.561	0.506
359.000	259.833	80.011	19.994	103.370	19.720	16.552	0.521
359.499	260.043	80.009	19.993	103.376	19.720	16.572	0.511
359.999	260.295	80.011	19.994	103.381	19.716	16.873	0.479
360.499	260.535	80.011	19.994	103.380	19.717	16.795	0.477
360.999	260.806	80.013	19.994	103.382	19.715	16.880	0.501
361.499	261.041	80.010	19.993	103.384	19.709	17.327	0.508
361.999	261.297	80.010	19.994	103.380	19.710	17.271	0.499
362.499	261.511	80.011	19.994	103.377	19.711	17.176	0.480
362.999	261.804	80.012	19.993	103.377	19.706	17.481	0.489
363.500	262.060	80.010	19.993	103.377	19.703	17.706	0.529
364.000	262.310	80.010	19.994	103.380	19.702	17.803	0.528
364.499	262.547	80.008	19.993	103.384	19.699	18.009	0.496
364.999	262.820	80.011	19.993	103.387	19.699	17.982	0.498
365.499	263.061	80.010	19.995	103.393	19.695	18.250	0.512
365.999	263.316	80.009	19.994	103.395	19.695	18.255	0.505
366.499	263.531	80.008	19.994	103.392	19.695	18.252	0.483
366.999	263.800	80.008	19.994	103.393	19.692	18.419	0.477
367.499	264.044	80.008	19.994	103.394	19.692	18.423	0.498
367.999	264.272	80.008	19.993	103.394	19.686	18.879	0.492
368.499	264.535	80.008	19.995	103.394	19.685	18.883	0.482
368.999	264.805	80.009	19.993	103.397	19.685	18.899	0.512
369.499	265.021	80.007	19.994	103.397	19.681	19.209	0.510
369.999	265.248	80.008	19.994	103.398	19.679	19.293	0.465
370.499	265.525	80.010	19.994	103.399	19.678	19.378	0.473
370.999	265.779	80.009	19.993	103.399	19.677	19.461	0.517
371.499	265.984	80.009	19.995	103.400	19.674	19.681	0.495
371.999	266.282	80.007	19.993	103.400	19.672	19.784	0.481
372.499	266.522	80.009	19.994	103.400	19.670	19.917	0.521
372.999	266.793	80.008	19.992	103.401	19.669	19.952	0.525
373.499	267.055	80.009	19.993	103.401	19.667	20.127	0.522
374.000	267.311	80.008	19.993	103.402	19.664	20.341	0.525
374.499	267.576	80.007	19.994	103.404	19.665	20.263	0.519
374.999	267.798	80.009	19.994	103.404	19.662	20.484	0.504
375.499	268.062	80.009	19.994	103.404	19.655	20.896	0.487
375.999	268.324	80.007	19.994	103.404	19.655	20.900	0.506
376.499	268.567	80.009	19.994	103.404	19.654	20.989	0.515
376.999	268.792	80.008	19.994	103.402	19.651	21.184	0.486
377.499	269.084	80.008	19.994	103.402	19.651	21.217	0.492
377.999	269.320	80.008	19.994	103.402	19.648	21.384	0.523
378.499	269.559	80.008	19.995	103.402	19.643	21.698	0.502
378.999	269.771	80.008	19.995	103.402	19.640	21.914	0.463
379.499	270.068	80.009	19.994	103.403	19.640	21.914	0.480
379.999	270.324	80.007	19.994	103.406	19.636	22.214	0.531
380.499	270.592	80.009	19.995	103.406	19.637	22.117	0.538
380.999	270.844	80.007	19.996	103.411	19.634	22.349	0.522
381.499	271.098	80.008	19.995	103.412	19.628	22.735	0.513
381.999	271.347	80.006	19.995	103.413	19.630	22.597	0.505
382.499	271.579	80.007	19.996	103.411	19.624	22.972	0.492
383.000	271.857	80.008	19.995	103.414	19.625	22.920	0.495
383.499	272.102	80.006	19.995	103.413	19.622	23.159	0.516
383.999	272.341	80.010	19.995	103.417	19.617	23.488	0.504
384.499	272.603	80.007	19.994	103.419	19.619	23.358	0.493
384.999	272.837	80.006	19.995	103.424	19.614	23.638	0.498
385.499	273.093	80.010	19.993	103.422	19.611	23.887	0.493
385.999	273.348	80.007	19.995	103.419	19.608	24.074	0.501
386.499	273.594	80.008	19.995	103.413	19.608	24.055	0.506
386.999	273.880	80.008	19.994	103.408	19.607	24.149	0.516
387.499	274.121	80.008	19.994	103.404	19.603	24.382	0.529
387.999	274.378	80.008	19.995	103.405	19.601	24.501	0.513
388.499	274.618	80.009	19.994	103.406	19.598	24.746	0.498
388.999	274.857	80.008	19.995	103.414	19.600	24.581	0.488
389.499	275.093	80.006	19.995	103.417	19.596	24.846	0.477
389.999	275.366	80.007	19.995	103.421	19.591	25.196	0.493
390.499	275.597	80.010	19.995	103.423	19.588	25.426	0.507
390.999	275.884	80.009	19.994	103.427	19.587	25.483	0.510
391.499	276.137	80.007	19.995	103.427	19.587	25.456	0.529
391.999	276.371	80.008	19.995	103.432	19.584	25.673	0.514
392.499	276.631	80.007	19.994	103.433	19.581	25.873	0.491
392.999	276.879	80.009	19.994	103.436	19.580	25.932	0.501
393.499	277.136	80.009	19.994	103.438	19.579	26.015	0.507
393.999	277.349	80.008	19.993	103.438	19.575	26.262	0.488
394.499	277.612	80.007	19.994	103.438	19.573	26.433	0.473
394.999	277.854	80.008	19.994	103.439	19.570	26.575	0.491
395.499	278.105	80.006	19.994	103.441	19.568	26.754	0.499
395.999	278.369	80.007	19.994	103.441	19.567	26.792	0.504
396.499	278.603	80.009	19.995	103.441	19.566	26.884	0.507
396.999	278.843	80.007	19.994	103.439	19.563	27.071	0.486
397.499	279.103	80.008	19.994	103.437	19.559	27.358	0.487
397.999	279.367	80.008	19.993	103.436	19.559	27.321	0.512
398.499	279.616	80.009	19.995	103.434	19.553	27.717	0.519
398.999	279.837	80.007	19.995	103.432	19.557	27.492	0.492
399.499	280.088	80.007	19.995	103.434	19.556	27.554	0.471
400.000	280.381	80.009	19.994	103.435	19.551	27.858	0.508
400.500	280.601	80.008	19.994	103.435	19.549	27.991	0.529
401.000	280.817	80.010	19.995	103.438	19.548	28.073	0.474
401.499	281.107	80.008	19.994	103.440	19.544	28.316	0.471
401.999	281.345	80.007	19.994	103.440	19.541	28.569	0.517
402.499	281.581	80.008	19.994	103.440	19.542	28.484	0.502
402.999	281.874	80.009	19.995	103.440	19.537	28.825	0.502
403.499	282.079	80.006	19.995	103.439	19.538	28.765	0.514
403.999	282.395	80.008	19.995	103.439	19.536	28.910	0.509
404.499	282.604	80.004	19.995	103.438	19.533	29.062	0.523
404.999	282.884	80.009	19.995	103.438	19.529	29.365	0.507
405.499	283.126	80.008	19.995	103.439	19.526	29.560	0.505
405.999	283.398	80.007	19.996	103.438	19.525	29.640	0.517
406.499	283.618	80.007	19.995	103.439	19.521	29.877	0.503
406.999	283.867	80.007	19.995	103.439	19.523	29.730	0.481
407.499	284.134	80.008	19.995	103.439	19.519	30.006	0.492
407.999	284.370	80.009	19.995	103.439	19.514	30.324	0.510
408.499	284.627	80.008	19.995	103.439	19.514	30.345	0.499
408.999	284.880	80.010	19.994	103.438	19.514	30.353	0.501
409.499	285.113	80.009	19.995	103.439	19.509	30.653	0.498
409.999	285.393	80.009	19.995	103.442	19.505	30.940	0.500
410.499	285.661	80.008	19.994	103.444	19.503	31.061	0.531
410.999	285.884	80.008	19.995	103.448	19.502	31.149	0.520
411.499	286.149	80.009	19.996	103.449	19.498	31.408	0.489
411.999	286.409	80.010	19.995	103.449	19.495	31.618	0.506
412.499	286.653	80.008	19.995	103.449	19.493	31.729	0.514
412.999	286.914	80.008	19.995	103.446	19.492	31.825	0.504
413.499	287.174	80.010	19.996	103.444	19.489	32.000	0.513
413.999	287.434	80.009	19.995	103.444	19.487	32.133	0.521
414.499	287.693	80.009	19.994	103.443	19.484	32.346	0.520
414.999	287.944	80.011	19.995	103.441	19.483	32.434	0.514
415.499	288.212	80.011	19.995	103.442	19.481	32.571	0.515
415.999	288.440	80.009	19.995	103.441	19.476	32.893	0.508
416.499	288.705	80.009	19.995	103.442	19.476	32.881	0.494
417.000	288.946	80.007	19.995	103.441	19.478	32.794	0.499
417.499	289.190	80.009	19.995	103.443	19.472	33.158	0.496
417.999	289.468	80.012	19.994	103.445	19.471	33.207	0.503
418.499	289.693	80.010	19.995	103.445	19.468	33.439	0.512
418.999	289.958	80.010	19.995	103.443	19.463	33.787	0.497
419.499	290.186	80.008	19.994	103.446	19.464	33.711	0.492
419.999	290.469	80.006	19.995	103.448	19.461	33.902	0.502
420.499	290.692	80.007	19.996	103.450	19.458	34.069	0.508
420.999	290.965	80.010	19.995	103.454	19.453	34.412	0.501
421.499	291.207	80.010	19.995	103.461	19.458	34.113	0.505
421.999	291.519	80.009	19.995	103.465	19.455	34.311	0.535
422.499	291.734	80.010	19.996	103.467	19.451	34.582	0.541
422.999	292.043	80.009	19.994	103.470	19.448	34.793	0.526
423.499	292.212	80.011	19.995	103.473	19.448	34.778	0.501
423.999	292.479	80.010	19.995	103.469	19.447	34.854	0.457
424.499	292.752	80.010	19.995	103.465	19.442	35.157	0.488
424.999	292.960	80.011	19.994	103.464	19.443	35.072	0.510
425.499	293.254	80.009	19.994	103.463	19.442	35.165	0.491
425.999	293.506	80.008	19.994	103.463	19.440	35.289	0.524
426.500	293.770	80.011	19.994	103.467	19.436	35.573	0.531
426.999	293.992	80.008	19.993	103.471	19.434	35.721	0.501
427.499	294.250	80.010	19.994	103.473	19.433	35.793	0.483
427.999	294.490	80.010	19.994	103.473	19.427	36.152	0.489
428.499	294.752	80.011	19.994	103.472	19.429	36.053	0.500
428.999	294.985	80.009	19.993	103.471	19.427	36.154	0.499
429.499	295.267	80.010	19.994	103.469	19.428	36.136	0.505
429.999	295.524	80.010	19.993	103.470	19.426	36.273	0.527
430.499	295.760	80.009	19.993	103.470	19.422	36.486	0.516
430.999	296.074	80.013	19.994	103.470	19.422	36.513	0.521
431.499	296.262	80.008	19.993	103.472	19.419	36.718	0.526
431.999	296.508	80.009	19.995	103.474	19.420	36.640	0.468
432.499	296.776	80.010	19.995	103.474	19.418	36.804	0.474
432.999	297.035	80.011	19.995	103.475	19.414	37.045	0.521
433.499	297.278	80.010	19.993	103.474	19.411	37.216	0.514
433.999	297.536	80.010	19.994	103.474	19.409	37.397	0.501
434.499	297.738	80.010	19.994	103.474	19.408	37.426	0.481
434.999	298.006	80.010	19.993	103.474	19.410	37.277	0.465
435.499	298.281	80.009	19.994	103.474	19.405	37.645	0.506
435.999	298.567	80.009	19.994	103.475	19.406	37.602	0.552
436.499	298.773	80.010	19.993	103.476	19.401	37.925	0.527
436.999	299.032	80.010	19.994	103.477	19.401	37.940	0.479
437.499	299.296	80.010	19.994	103.477	19.400	37.986	0.495
437.999	299.517	80.011	19.993	103.479	19.399	38.028	0.504
438.499	299.801	80.010	19.993	103.479	19.397	38.145	0.494
438.999	300.023	80.010	19.994	103.478	19.396	38.268	0.505
439.499	300.286	80.012	19.993	103.478	19.397	38.193	0.496
439.999	300.544	80.011	19.994	103.478	19.393	38.469	0.503
440.499	300.843	80.011	19.994	103.478	19.391	38.585	0.539
440.999	301.063	80.011	19.994	103.478	19.392	38.518	0.537
441.499	301.297	80.011	19.994	103.479	19.390	38.628	0.486
441.999	301.560	80.011	19.994	103.479	19.389	38.688	0.476
442.499	301.822	80.011	19.994	103.479	19.387	38.872	0.511
442.999	302.041	80.010	19.994	103.478	19.385	38.995	0.503
443.499	302.295	80.011	19.994	103.475	19.384	39.051	0.477
443.999	302.588	80.011	19.993	103.475	19.383	39.128	0.510
444.499	302.838	80.010	19.993	103.475	19.381	39.280	0.545
444.999	303.038	80.009	19.993	103.475	19.375	39.641	0.496
445.499	303.332	80.010	19.994	103.477	19.375	39.658	0.472
445.999	303.593	80.010	19.993	103.479	19.373	39.770	0.525
446.499	303.833	80.008	19.994	103.479	19.375	39.623	0.528
446.999	304.107	80.009	19.994	103.479	19.373	39.791	0.507
447.499	304.346	80.009	19.994	103.479	19.370	39.966	0.513
447.999	304.628	80.009	19.995	103.475	19.371	39.892	0.517
448.499	304.852	80.010	19.994	103.475	19.371	39.950	0.514
448.999	305.085	80.009	19.994	103.475	19.368	40.146	0.481
449.499	305.357	80.007	19.994	103.475	19.366	40.244	0.481
449.999	305.622	80.007	19.994	103.475	19.366	40.253	0.522
450.499	305.851	80.009	19.993	103.478	19.365	40.342	0.516
450.999	306.109	80.008	19.994	103.479	19.362	40.545	0.490
451.499	306.372	80.008	19.994	103.479	19.362	40.549	0.504
451.999	306.591	80.009	19.993	103.479	19.357	40.831	0.502
452.499	306.874	80.009	19.994	103.479	19.358	40.758	0.493
452.999	307.132	80.006	19.994	103.479	19.357	40.861	0.522
453.499	307.364	80.007	19.994	103.479	19.357	40.877	0.515
453.999	307.652	80.008	19.994	103.480	19.354	41.038	0.505
454.499	307.891	80.007	19.994	103.481	19.356	40.891	0.523
454.999	308.133	80.007	19.995	103.481	19.355	40.963	0.504
455.499	308.422	80.008	19.994	103.482	19.354	41.042	0.506
455.999	308.604	80.009	19.994	103.482	19.352	41.179	0.501
456.499	308.886	80.008	19.994	103.481	19.351	41.259	0.468
456.999	309.148	80.008	19.994	103.480	19.351	41.242	0.504
457.499	309.412	80.009	19.994	103.479	19.350	41.318	0.535
457.999	309.664	80.008	19.994	103.479	19.346	41.594	0.521
458.499	309.934	80.009	19.993	103.478	19.344	41.687	0.519
458.999	310.176	80.008	19.993	103.478	19.344	41.698	0.517
459.499	310.359	80.007	19.993	103.480	19.347	41.541	0.469
459.999	310.665	80.008	19.994	103.484	19.344	41.703	0.457
460.499	310.873	80.008	19.994	103.484	19.343	41.776	0.501
461.000	311.160	80.010	19.994	103.485	19.343	41.803	0.504
461.500	311.415	80.008	19.993	103.485	19.342	41.844	0.518
461.999	311.689	80.009	19.994	103.484	19.342	41.855	0.536
462.499	311.938	80.008	19.993	103.481	19.339	42.080	0.526
462.999	312.150	80.009	19.993	103.481	19.338	42.104	0.492
463.499	312.446	80.009	19.994	103.484	19.340	41.987	0.484
463.999	312.672	80.007	19.994	103.484	19.338	42.128	0.515
464.499	312.952	80.008	19.993	103.484	19.338	42.125	0.514
464.999	313.184	80.009	19.993	103.485	19.336	42.251	0.509
465.499	313.421	80.008	19.994	103.483	19.335	42.329	0.490
465.999	313.686	80.009	19.994	103.479	19.333	42.473	0.486
466.499	313.937	80.009	19.994	103.478	19.336	42.262	0.509
466.999	314.211	80.010	19.993	103.478	19.335	42.350	0.521
467.499	314.512	80.009	19.994	103.478	19.332	42.527	0.550
467.999	314.735	80.011	19.993	103.478	19.333	42.434	0.549
468.499	315.013	80.008	19.994	103.478	19.330	42.663	0.512
468.999	315.228	80.010	19.994	103.477	19.329	42.715	0.497
469.499	315.502	80.008	19.994	103.477	19.327	42.846	0.491
469.999	315.740	80.010	19.994	103.476	19.333	42.480	0.501
470.499	315.989	80.009	19.994	103.476	19.331	42.572	0.500
470.999	316.222	80.008	19.994	103.476	19.328	42.765	0.485
471.500	316.461	80.010	19.994	103.477	19.327	42.881	0.477
471.999	316.739	80.011	19.993	103.477	19.327	42.833	0.494
472.499	316.988	80.010	19.994	103.476	19.327	42.849	0.522
472.999	317.227	80.007	19.994	103.477	19.326	42.943	0.508
473.499	317.447	80.008	19.995	103.477	19.326	42.923	0.473
473.999	317.757	80.009	19.996	103.476	19.327	42.888	0.495
474.499	318.003	80.010	19.995	103.476	19.329	42.753	0.543
474.999	318.245	80.011	19.995	103.477	19.325	42.983	0.522
475.499	318.491	80.008	19.995	103.477	19.323	43.135	0.488
475.999	318.763	80.009	19.995	103.476	19.323	43.110	0.503
476.499	319.030	80.008	19.995	103.475	19.322	43.179	0.529
476.999	319.256	80.008	19.995	103.476	19.318	43.445	0.517
477.499	319.479	80.008	19.996	103.476	19.322	43.202	0.471
477.999	319.717	80.007	19.994	103.479	19.320	43.307	0.455
478.499	320.023	80.007	19.994	103.481	19.319	43.389	0.502
478.999	320.295	80.007	19.994	103.481	19.319	43.416	0.561
479.499	320.504	80.009	19.994	103.481	19.317	43.555	0.529
479.999	320.760	80.006	19.995	103.480	19.316	43.595	0.473
480.499	321.009	80.009	19.996	103.479	19.317	43.551	0.485
480.999	321.283	80.007	19.995	103.479	19.318	43.451	0.514
481.499	321.502	80.008	19.995	103.479	19.314	43.727	0.508
481.999	321.766	80.008	19.995	103.479	19.316	43.596	0.488
482.499	322.039	80.008	19.996	103.480	19.317	43.536	0.510
482.999	322.299	80.009	19.995	103.478	19.314	43.698	0.535
483.499	322.535	80.008	19.996	103.478	19.313	43.779	0.514
483.999	322.791	80.007	19.995	103.479	19.308	44.134	0.494
484.499	323.075	80.005	19.996	103.481	19.309	44.044	0.516
484.999	323.289	80.009	19.995	103.484	19.306	44.274	0.519
485.499	323.539	80.007	19.994	103.490	19.308	44.156	0.481
485.999	323.795	80.009	19.995	103.496	19.310	43.987	0.485
486.499	324.054	80.006	19.994	103.501	19.305	44.313	0.510
486.999	324.317	80.008	19.995	103.499	19.306	44.246	0.519
487.499	324.581	80.007	19.995	103.495	19.303	44.442	0.525
487.999	324.834	80.008	19.995	103.492	19.302	44.521	0.522
488.499	325.054	80.007	19.994	103.486	19.299	44.741	0.495
488.999	325.336	80.008	19.996	103.481	19.297	44.861	0.488
489.499	325.601	80.007	19.994	103.479	19.297	44.856	0.525
489.999	325.861	80.009	19.994	103.480	19.295	45.011	0.536
490.499	326.071	80.009	19.995	103.479	19.297	44.869	0.497
490.999	326.354	80.009	19.995	103.481	19.293	45.147	0.482
491.499	326.624	80.010	19.995	103.483	19.292	45.227	0.523
491.999	326.837	80.009	19.994	103.486	19.289	45.391	0.518
492.499	327.108	80.009	19.995	103.490	19.290	45.333	0.483
492.999	327.350	80.008	19.995	103.492	19.289	45.385	0.498
493.499	327.584	80.008	19.995	103.490	19.288	45.494	0.495
493.999	327.872	80.009	19.994	103.489	19.287	45.580	0.500
494.499	328.135	80.009	19.995	103.493	19.285	45.694	0.537
494.999	328.374	80.010	19.995	103.496	19.286	45.642	0.526
495.499	328.627	80.008	19.994	103.494	19.285	45.676	0.497
495.999	328.844	80.009	19.995	103.496	19.283	45.843	0.481
496.499	329.121	80.011	19.995	103.498	19.277	46.189	0.482
496.999	329.392	80.009	19.994	103.494	19.280	45.991	0.521
497.499	329.640	80.009	19.995	103.491	19.278	46.171	0.533
497.999	329.864	80.009	19.995	103.492	19.274	46.386	0.495
498.499	330.126	80.009	19.996	103.492	19.274	46.402	0.479
499.000	330.388	80.009	19.995	103.491	19.275	46.379	0.505
499.499	330.653	80.009	19.995	103.492	19.270	46.696	0.526
499.999	330.901	80.008	19.995	103.494	19.267	46.880	0.520
500.499	331.120	80.009	19.995	103.499	19.264	47.071	0.490
500.999	331.377	80.009	19.995	103.502	19.264	47.101	0.472
501.499	331.649	80.009	19.995	103.508	19.261	47.314	0.503
501.999	331.892	80.007	19.995	103.513	19.258	47.473	0.522
502.499	332.145	80.007	19.995	103.514	19.257	47.550	0.505
502.999	332.395	80.008	19.995	103.514	19.252	47.897	0.499
503.499	332.673	80.008	19.995	103.516	19.252	47.875	0.515
503.999	332.960	80.010	19.995	103.516	19.248	48.186	0.547
504.499	333.185	80.007	19.995	103.517	19.249	48.100	0.539
504.999	333.431	80.006	19.995	103.518	19.243	48.495	0.492
505.499	333.685	80.008	19.996	103.522	19.243	48.525	0.485
505.999	333.930	80.008	19.994	103.522	19.239	48.785	0.500
506.499	334.210	80.006	19.995	103.525	19.237	48.919	0.512
506.999	334.454	80.006	19.996	103.524	19.233	49.148	0.525
507.499	334.725	80.007	19.995	103.523	19.231	49.313	0.519
507.999	334.955	80.006	19.995	103.520	19.229	49.462	0.507
508.499	335.260	80.008	19.995	103.520	19.223	49.832	0.518
508.999	335.520	80.009	19.996	103.520	19.223	49.871	0.550
509.499	335.764	80.009	19.995	103.523	19.221	49.979	0.534
509.999	335.951	80.006	19.995	103.523	19.217	50.248	0.467
510.499	336.227	80.009	19.995	103.523	19.212	50.590	0.447
510.999	336.489	80.008	19.996	103.523	19.208	50.862	0.500
511.499	336.767	80.007	19.996	103.526	19.207	50.945	0.539
511.999	336.991	80.009	19.997	103.524	19.201	51.363	0.521
512.499	337.236	80.009	19.997	103.525	19.199	51.475	0.486
512.999	337.534	80.008	19.995	103.527	19.197	51.596	0.506
513.499	337.778	80.010	19.995	103.532	19.195	51.718	0.542
514.000	338.007	80.008	19.996	103.534	19.191	52.008	0.508
514.500	338.258	80.008	19.995	103.540	19.185	52.391	0.477
515.000	338.541	80.008	19.995	103.546	19.180	52.745	0.507
515.500	338.778	80.009	19.996	103.551	19.177	52.919	0.527
516.000	339.026	80.010	19.994	103.554	19.176	53.032	0.503
516.500	339.316	80.010	19.995	103.554	19.171	53.371	0.512
517.000	339.542	80.009	19.994	103.550	19.167	53.644	0.527
517.499	339.792	80.008	19.995	103.550	19.164	53.816	0.496
517.999	340.039	80.009	19.996	103.551	19.159	54.128	0.486
518.500	340.334	80.008	19.995	103.551	19.159	54.152	0.519
519.000	340.556	80.011	19.993	103.557	19.150	54.793	0.529
519.499	340.832	80.010	19.994	103.566	19.143	55.234	0.507
519.999	341.095	80.011	19.994	103.571	19.142	55.332	0.519
520.499	341.324	80.012	19.993	103.579	19.138	55.591	0.516
521.000	341.550	80.010	19.993	103.586	19.129	56.191	0.473
521.500	341.860	80.010	19.993	103.587	19.120	56.748	0.495
521.999	342.050	80.011	19.993	103.590	19.118	56.927	0.518
522.499	342.341	80.009	19.993	103.593	19.112	57.283	0.490
522.999	342.597	80.011	19.994	103.592	19.108	57.608	0.514
523.499	342.828	80.013	19.993	103.592	19.102	57.957	0.517
524.000	343.089	80.009	19.993	103.593	19.097	58.309	0.490
524.500	343.348	80.011	19.993	103.594	19.089	58.864	0.506
524.999	343.609	80.013	19.993	103.596	19.085	59.119	0.520
525.499	343.826	80.010	19.994	103.598	19.079	59.532	0.499
525.999	344.088	80.009	19.993	103.598	19.070	60.110	0.479
526.499	344.335	80.011	19.994	103.598	19.064	60.509	0.494
526.999	344.599	80.010	19.993	103.597	19.063	60.625	0.510
527.499	344.842	80.010	19.993	103.597	19.054	61.220	0.509
527.999	345.113	80.008	19.994	103.597	19.049	61.559	0.510
528.500	345.321	80.008	19.993	103.602	19.042	62.004	0.496
529.000	345.596	80.008	19.993	103.609	19.036	62.408	0.481
529.499	345.857	80.009	19.993	103.612	19.030	62.798	0.510
530.000	346.090	80.008	19.996	103.617	19.023	63.321	0.515
530.500	346.375	80.009	19.995	103.623	19.013	63.946	0.506
530.999	346.674	80.007	19.994	103.625	19.006	64.428	0.551
531.500	346.905	80.007	19.995	103.626	18.997	65.017	0.557
532.000	347.149	80.008	19.994	103.630	18.991	65.407	0.502
532.499	347.381	80.008	19.995	103.631	18.988	65.658	0.475
532.999	347.622	80.008	19.994	103.632	18.983	65.991	0.475
533.499	347.894	80.006	19.995	103.632	18.974	66.593	0.493
534.000	348.158	80.006	19.994	103.632	18.965	67.206	0.524
534.500	348.394	80.007	19.994	103.633	18.956	67.784	0.518
534.999	348.696	80.009	19.994	103.633	18.950	68.169	0.519
535.499	348.940	80.008	19.994	103.634	18.941	68.806	0.542
535.999	349.141	80.009	19.993	103.634	18.933	69.300	0.495
536.499	349.417	80.009	19.994	103.634	18.927	69.729	0.461
536.999	349.674	80.009	19.995	103.637	18.921	70.100	0.505
537.499	349.940	80.009	19.994	103.640	18.916	70.474	0.528
537.999	350.210	80.007	19.995	103.644	18.903	71.301	0.530
538.499	350.405	80.006	19.995	103.651	18.900	71.537	0.500
538.999	350.697	80.007	19.994	103.659	18.893	72.016	0.476
539.500	350.949	80.009	19.993	103.663	18.883	72.657	0.516
540.000	351.144	80.004	19.994	103.667	18.874	73.258	0.496
540.500	351.433	80.007	19.995	103.670	18.871	73.493	0.465
541.000	351.666	80.009	19.995	103.672	18.861	74.140	0.503
541.500	351.971	80.008	19.995	103.672	18.857	74.440	0.530
542.000	352.217	80.008	19.995	103.672	18.848	74.987	0.544
542.500	352.423	80.007	19.995	103.672	18.838	75.685	0.501
542.999	352.721	80.007	19.994	103.672	18.830	76.198	0.478
543.499	352.998	80.008	19.995	103.671	18.829	76.298	0.540
543.999	353.268	80.007	19.994	103.672	18.820	76.842	0.561
544.499	353.463	80.009	19.995	103.672	18.810	77.536	0.506
544.999	353.722	80.007	19.996	103.673	18.808	77.693	0.460
545.499	353.979	80.008	19.994	103.673	18.793	78.656	0.485
545.999	354.246	80.008	19.994	103.673	18.791	78.822	0.520
546.499	354.496	80.007	19.994	103.672	18.783	79.334	0.520
546.999	354.755	80.008	19.995	103.673	18.785	79.200	0.513
547.499	354.998	80.007	19.994	103.672	18.781	79.458	0.506
548.000	355.229	80.010	19.994	103.673	18.773	79.995	0.488
548.500	355.513	80.009	19.994	103.673	18.772	80.046	0.494
548.999	355.791	80.009	19.994	103.673	18.760	80.867	0.539
549.500	356.031	80.009	19.995	103.672	18.756	81.077	0.540
550.000	356.230	80.009	19.995	103.672	18.762	80.718	0.479
550.499	356.500	80.011	19.994	103.671	18.747	81.693	0.454
551.000	356.775	80.009	19.995	103.671	18.743	81.968	0.507
551.500	357.036	80.009	19.994	103.670	18.743	81.941	0.541
552.000	357.240	80.009	19.995	103.670	18.742	82.029	0.500
552.500	357.556	80.010	19.994	103.666	18.739	82.171	0.493
552.999	357.786	80.009	19.994	103.665	18.734	82.500	0.533
553.499	358.055	80.009	19.995	103.661	18.737	82.332	0.522
553.999	358.255	80.009	19.995	103.656	18.736	82.357	0.484
554.499	358.525	80.008	19.996	103.650	18.741	82.065	0.470
554.999	358.794	80.008	19.993	103.646	18.738	82.217	0.505
555.499	358.973	80.009	19.994	103.639	18.738	82.229	0.493
556.000	359.314	80.011	19.995	103.636	18.741	82.009	0.484
556.500	359.476	80.008	19.994	103.632	18.743	81.844	0.512
556.999	359.858	80.010	19.994	103.625	18.749	81.445	0.523
557.499	360.008	80.012	19.994	103.617	18.752	81.283	0.538
557.999	360.305	80.010	19.994	103.609	18.755	81.078	0.489
558.499	360.551	80.009	19.995	103.602	18.762	80.573	0.495
558.999	360.747	80.008	19.994	103.596	18.768	80.162	0.492
559.500	360.909	80.010	19.994	103.594	18.772	79.880	0.400
560.000	361.489	80.009	19.994	103.589	18.780	79.396	0.550
560.499	361.598	80.010	19.994	103.582	18.783	79.165	0.716
560.999	362.030	80.008	19.995	103.573	18.792	78.547	0.616
561.500	361.932	80.009	19.995	103.564	18.801	77.957	0.438
562.000	362.388	80.009	19.993	103.556	18.813	77.164	0.346
562.500	362.929	80.008	19.995	103.548	18.821	76.595	0.677
563.000	362.960	80.009	19.993	103.540	18.835	75.672	0.784
563.500	362.907	80.008	19.994	103.531	18.845	74.996	0.275
564.000	363.574	80.007	19.995	103.517	18.856	74.245	0.295
564.500	363.620	80.009	19.993	103.506	18.866	73.595	0.663
565.000	363.641	80.009	19.995	103.499	18.881	72.599	0.390
565.499	364.135	80.008	19.994	103.492	18.891	71.886	0.291
565.999	364.261	80.010	19.994	103.485	18.905	71.002	0.567
566.499	364.541	80.008	19.994	103.478	18.921	69.905	0.513
566.999	364.748	80.007	19.995	103.467	18.933	69.112	0.446
567.499	365.082	80.007	19.993	103.456	18.948	68.096	0.514
568.000	365.363	80.005	19.994	103.449	18.965	67.007	0.578
568.500	365.607	80.007	19.995	103.442	18.980	65.942	0.570
569.000	365.842	80.007	19.995	103.441	18.999	64.670	0.502
569.500	366.050	80.007	19.995	103.438	19.012	63.799	0.462
569.999	366.360	80.009	19.995	103.432	19.033	62.448	0.481
570.499	366.500	80.008	19.995	103.423	19.049	61.345	0.484
570.999	366.930	80.006	19.995	103.415	19.067	60.129	0.509
571.499	366.991	80.007	19.994	103.407	19.085	58.966	0.530
571.999	367.343	80.003	19.994	103.403	19.104	57.701	0.452
572.499	367.617	80.009	19.995	103.401	19.120	56.598	0.520
572.999	367.896	80.009	19.996	103.400	19.135	55.586	0.589
573.499	368.085	80.007	19.996	103.393	19.155	54.252	0.510
573.999	368.353	80.006	19.995	103.386	19.174	52.980	0.463
574.500	368.603	80.007	19.995	103.379	19.192	51.824	0.488
575.000	368.808	80.008	19.995	103.372	19.211	50.530	0.487
575.499	369.135	80.009	19.994	103.365	19.226	49.506	0.494
575.999	369.365	80.008	19.994	103.362	19.242	48.440	0.544
576.500	369.628	80.009	19.995	103.357	19.261	47.181	0.525
577.000	369.877	80.010	19.994	103.355	19.280	45.921	0.502
577.499	370.098	80.006	19.995	103.355	19.293	45.023	0.491
577.999	370.361	80.006	19.995	103.354	19.310	43.939	0.477
578.499	370.600	80.006	19.994	103.354	19.329	42.677	0.493
578.999	370.870	80.010	19.995	103.356	19.344	41.629	0.506
579.499	371.080	80.010	19.996	103.352	19.358	40.711	0.495
579.999	371.392	80.009	19.995	103.348	19.375	39.606	0.501
580.499	371.623	80.008	19.994	103.343	19.389	38.640	0.532
580.999	371.896	80.009	19.994	103.337	19.405	37.581	0.524
581.499	372.166	80.009	19.994	103.332	19.424	36.299	0.524
581.999	372.360	80.009	19.995	103.329	19.434	35.614	0.503
582.499	372.665	80.010	19.994	103.325	19.453	34.384	0.481
583.000	372.925	80.010	19.995	103.323	19.465	33.600	0.532
583.500	373.182	80.009	19.994	103.322	19.479	32.617	0.541
584.000	373.424	80.009	19.995	103.318	19.492	31.772	0.507
584.499	373.690	80.011	19.995	103.315	19.508	30.720	0.503
584.999	373.967	80.008	19.994	103.309	19.518	30.017	0.526
585.500	374.228	80.008	19.994	103.308	19.531	29.147	0.541
586.000	374.465	80.008	19.994	103.309	19.545	28.227	0.518
586.500	374.723	80.006	19.994	103.308	19.554	27.601	0.496
587.000	374.978	80.010	19.995	103.307	19.569	26.609	0.504
587.500	375.201	80.008	19.994	103.309	19.575	26.224	0.495
588.000	375.502	80.008	19.995	103.306	19.588	25.380	0.501
588.499	375.735	80.010	19.994	103.303	19.597	24.777	0.529
588.999	375.968	80.010	19.994	103.301	19.605	24.213	0.500
589.500	376.243	80.008	19.995	103.298	19.617	23.420	0.487
590.000	376.482	80.007	19.995	103.295	19.621	23.139	0.511
590.499	376.763	80.007	19.995	103.292	19.632	22.422	0.517
590.999	377.038	80.010	19.994	103.289	19.642	21.745	0.538
591.499	377.251	80.007	19.994	103.288	19.651	21.155	0.522
591.999	377.490	80.009	19.994	103.288	19.661	20.490	0.470
592.499	377.766	80.008	19.995	103.291	19.666	20.128	0.483
592.999	377.996	80.008	19.995	103.294	19.676	19.509	0.511
593.499	378.282	80.006	19.993	103.296	19.682	19.122	0.511
593.999	378.525	80.007	19.994	103.295	19.686	18.797	0.522
594.500	378.765	80.008	19.995	103.294	19.692	18.415	0.506
595.000	379.022	80.010	19.994	103.292	19.702	17.738	0.490
595.500	379.242	80.010	19.995	103.288	19.707	17.436	0.487
596.000	379.539	80.010	19.995	103.284	19.712	17.076	0.497
596.500	379.741	80.010	19.995	103.284	19.717	16.772	0.508
596.999	380.041	80.009	19.995	103.282	19.724	16.259	0.500
597.500	380.263	80.010	19.995	103.282	19.727	16.117	0.512
598.000	380.548	80.010	19.995	103.282	19.735	15.582	0.515
598.499	380.787	80.008	19.994	103.282	19.737	15.396	0.515
599.000	381.068	80.010	19.995	103.282	19.739	15.261	0.522
599.500	381.317	80.010	19.995	103.281	19.747	14.768	0.525
600.000	381.552	80.009	19.996	103.281	19.749	14.599	0.507
600.500	381.794	80.009	19.995	103.282	19.754	14.289	0.480
600.999	381.994	80.009	19.995	103.281	19.757	14.110	0.459
601.499	382.272	80.010	19.996	103.279	19.761	13.807	0.460
601.999	382.535	80.010	19.994	103.279	19.764	13.611	0.510
602.499	382.786	80.010	19.995	103.278	19.764	13.625	0.527
602.999	383.024	80.009	19.995	103.277	19.767	13.433	0.501
603.499	383.260	80.009	19.994	103.277	19.771	13.157	0.481
603.999	383.519	80.010	19.995	103.277	19.776	12.811	0.485
604.499	383.782	80.009	19.995	103.277	19.776	12.807	0.509
604.999	384.035	80.011	19.995	103.277	19.778	12.703	0.519
605.500	384.273	80.011	19.995	103.277	19.785	12.233	0.503
606.000	384.519	80.011	19.996	103.277	19.786	12.159	0.487
606.500	384.799	80.012	19.996	103.278	19.787	12.072	0.505
607.000	385.019	80.011	19.995	103.276	19.790	11.914	0.513
607.500	385.316	80.010	19.995	103.276	19.790	11.872	0.509
608.000	385.517	80.010	19.994	103.276	19.792	11.735	0.508
608.500	385.798	80.009	19.994	103.276	19.796	11.511	0.490
608.999	386.010	80.009	19.995	103.274	19.798	11.353	0.487
609.499	386.263	80.008	19.995	103.273	19.800	11.248	0.479
610.000	386.530	80.010	19.994	103.273	19.801	11.128	0.493
610.500	386.793	80.009	19.995	103.271	19.806	10.822	0.525
610.999	387.053	80.009	19.995	103.270	19.806	10.786	0.526
611.499	387.298	80.009	19.995	103.271	19.810	10.584	0.514
611.999	387.525	80.008	19.994	103.273	19.808	10.678	0.489
612.499	387.798	80.008	19.994	103.269	19.814	10.300	0.486
612.999	388.031	80.009	19.995	103.269	19.812	10.404	0.503
613.500	388.274	80.008	19.994	103.270	19.814	10.301	0.491
614.000	388.527	80.009	19.995	103.271	19.814	10.281	0.486
614.499	388.814	80.009	19.994	103.272	19.817	10.094	0.518
614.999	389.026	80.009	19.994	103.276	19.818	10.010	0.519
615.500	389.267	80.007	19.995	103.278	19.818	9.984	0.476
616.000	389.467	80.008	19.994	103.277	19.819	9.949	0.447
616.499	389.740	80.008	19.994	103.278	19.821	9.807	0.457
616.999	389.990	80.008	19.994	103.277	19.821	9.821	0.498
617.499	390.261	80.009	19.995	103.273	19.822	9.783	0.522
617.999	390.464	80.010	19.994	103.272	19.825	9.527	0.497
618.499	390.785	80.010	19.994	103.272	19.826	9.466	0.499
619.000	391.014	80.009	19.994	103.270	19.829	9.308	0.537
619.500	391.275	80.009	19.995	103.270	19.829	9.295	0.520
619.999	391.486	80.009	19.994	103.274	19.829	9.282	0.481
620.499	391.780	80.008	19.994	103.273	19.830	9.203	0.489
620.999	391.996	80.008	19.994	103.275	19.828	9.367	0.508
621.500	392.269	80.010	19.994	103.275	19.831	9.130	0.500
622.000	392.526	80.008	19.994	103.274	19.831	9.151	0.510
622.500	392.755	80.008	19.995	103.275	19.832	9.058	0.508
623.000	393.027	80.009	19.995	103.277	19.833	9.015	0.493
623.500	393.269	80.010	19.994	103.277	19.832	9.072	0.507
623.999	393.512	80.006	19.994	103.275	19.834	8.934	0.500
624.499	393.769	80.009	19.994	103.273	19.835	8.861	0.493
624.999	394.073	80.009	19.995	103.272	19.832	9.068	0.531
625.499	394.260	80.008	19.995	103.269	19.834	8.919	0.526
625.999	394.559	80.008	19.994	103.269	19.838	8.694	0.489
626.499	394.806	80.009	19.994	103.271	19.840	8.532	0.516
626.999	395.064	80.008	19.994	103.273	19.838	8.691	0.525
627.499	395.309	80.008	19.995	103.273	19.838	8.691	0.504
627.999	395.583	80.009	19.994	103.273	19.839	8.615	0.511
628.499	395.784	80.010	19.994	103.271	19.838	8.664	0.497
629.000	396.056	80.009	19.995	103.267	19.841	8.452	0.474
629.500	396.311	80.007	19.995	103.268	19.843	8.328	0.499
630.000	396.543	80.009	19.994	103.268	19.845	8.225	0.507
630.500	396.832	80.006	19.994	103.271	19.846	8.166	0.504
631.000	397.057	80.008	19.994	103.269	19.845	8.245	0.517
631.499	397.278	80.009	19.994	103.270	19.848	8.043	0.480
631.999	397.566	80.010	19.994	103.270	19.843	8.334	0.478
632.499	397.865	80.008	19.994	103.270	19.845	8.208	0.548
633.000	398.038	80.009	19.994	103.271	19.845	8.226	0.530
633.500	398.319	80.010	19.993	103.274	19.844	8.312	0.463
634.000	398.557	80.008	19.994	103.276	19.845	8.250	0.486
634.500	398.855	80.008	19.994	103.273	19.845	8.232	0.527
635.000	399.056	80.010	19.994	103.272	19.847	8.055	0.518
635.500	399.315	80.009	19.994	103.268	19.846	8.158	0.480
636.000	399.575	80.008	19.994	103.267	19.843	8.321	0.490
636.500	399.824	80.006	19.994	103.269	19.847	8.083	0.514
637.000	400.112	80.009	19.994	103.272	19.848	8.002	0.522
637.500	400.361	80.008	19.994	103.270	19.847	8.060	0.537
638.000	400.584	80.009	19.994	103.272	19.850	7.912	0.505
638.500	400.833	80.009	19.994	103.275	19.849	7.955	0.472
639.000	401.088	80.009	19.994	103.274	19.852	7.748	0.489
639.500	401.296	80.008	19.994	103.274	19.848	8.009	0.483
640.000	401.555	80.009	19.995	103.278	19.852	7.746	0.465
640.500	401.812	80.009	19.994	103.281	19.850	7.908	0.492
641.000	402.079	80.008	19.994	103.281	19.852	7.750	0.520
641.500	402.318	80.008	19.994	103.282	19.851	7.829	0.515
642.000	402.592	80.008	19.994	103.279	19.851	7.828	0.510
642.500	402.816	80.007	19.993	103.274	19.853	7.690	0.505
642.999	403.084	80.007	19.994	103.273	19.853	7.713	0.495
643.499	403.349	80.008	19.994	103.273	19.857	7.416	0.513
643.999	403.638	80.008	19.995	103.267	19.855	7.575	0.544
644.500	403.857	80.009	19.994	103.267	19.854	7.634	0.531
645.000	404.150	80.009	19.994	103.271	19.853	7.659	0.510
645.500	404.343	80.009	19.994	103.271	19.858	7.357	0.499
646.000	404.653	80.008	19.994	103.272	19.855	7.540	0.494
646.499	404.854	80.008	19.994	103.278	19.860	7.233	0.507
646.999	405.113	80.007	19.994	103.280	19.857	7.407	0.486
647.499	405.323	80.009	19.995	103.282	19.857	7.384	0.465
647.999	405.612	80.009	19.995	103.282	19.859	7.301	0.484
648.499	405.844	80.007	19.994	103.282	19.857	7.439	0.509
648.999	406.123	80.008	19.994	103.282	19.858	7.337	0.516
649.500	406.349	80.008	19.993	103.283	19.861	7.161	0.508
650.000	406.622	80.008	19.993	103.282	19.857	7.398	0.502
650.500	406.871	80.008	19.995	103.281	19.859	7.283	0.511
651.000	407.122	80.008	19.994	103.279	19.857	7.431	0.511
651.500	407.345	80.010	19.994	103.279	19.859	7.271	0.487
652.000	407.631	80.009	19.994	103.277	19.859	7.280	0.491
652.500	407.893	80.008	19.994	103.271	19.863	7.033	0.529
653.000	408.119	80.009	19.994	103.271	19.861	7.173	0.518
653.500	408.368	80.008	19.993	103.273	19.860	7.197	0.481
654.000	408.630	80.008	19.994	103.271	19.859	7.250	0.493
654.500	408.899	80.009	19.993	103.270	19.860	7.194	0.521
655.000	409.147	80.009	19.993	103.268	19.861	7.162	0.524
655.500	409.389	80.009	19.993	103.265	19.861	7.121	0.503
656.000	409.595	80.009	19.993	103.264	19.860	7.229	0.469
656.500	409.893	80.009	19.993	103.265	19.863	7.036	0.476
657.000	410.180	80.009	19.994	103.266	19.865	6.890	0.544
657.500	410.396	80.010	19.994	103.268	19.863	7.005	0.544
658.000	410.646	80.009	19.994	103.271	19.864	6.964	0.485
658.500	410.903	80.010	19.994	103.272	19.864	6.944	0.486
659.000	411.177	80.009	19.993	103.271	19.865	6.885	0.519
659.499	411.452	80.009	19.993	103.266	19.864	6.944	0.540
659.999	411.636	80.010	19.994	103.266	19.865	6.902	0.504
660.499	411.928	80.011	19.994	103.267	19.861	7.134	0.468
660.999	412.211	80.012	19.994	103.266	19.863	7.015	0.525
661.499	412.434	80.009	19.995	103.266	19.863	7.006	0.540
662.000	412.683	80.010	19.995	103.267	19.866	6.828	0.489
662.500	412.953	80.010	19.994	103.271	19.866	6.843	0.496
662.999	413.191	80.010	19.995	103.272	19.867	6.715	0.514
663.499	413.443	80.010	19.995	103.271	19.866	6.810	0.499
663.999	413.680	80.011	19.994	103.269	19.865	6.899	0.490
664.500	413.930	80.009	19.995	103.267	19.865	6.852	0.488
665.000	414.206	80.010	19.994	103.265	19.865	6.904	0.507
665.500	414.461	80.010	19.995	103.263	19.865	6.859	0.529
666.000	414.694	80.010	19.996	103.261	19.867	6.739	0.510
666.499	414.957	80.009	19.995	103.260	19.866	6.842	0.492
666.999	415.198	80.009	19.994	103.265	19.866	6.820	0.500
667.499	415.481	80.009	19.995	103.264	19.867	6.744	0.514
667.999	415.699	80.010	19.995	103.264	19.868	6.712	0.512
668.499	415.938	80.007	19.995	103.261	19.866	6.818	0.479
668.999	416.204	80.009	19.995	103.264	19.868	6.668	0.481
669.499	416.483	80.008	19.996	103.264	19.866	6.820	0.525
669.999	416.729	80.009	19.995	103.259	19.871	6.503	0.535
670.499	416.964	80.008	19.995	103.256	19.871	6.483	0.503
670.999	417.221	80.009	19.995	103.254	19.869	6.604	0.486
671.499	417.494	80.009	19.996	103.250	19.872	6.423	0.511
671.999	417.732	80.008	19.996	103.248	19.870	6.529	0.521
672.500	417.963	80.008	19.995	103.248	19.868	6.659	0.490
673.000	418.252	80.008	19.994	103.249	19.873	6.358	0.494
673.499	418.496	80.009	19.995	103.251	19.870	6.548	0.526
673.999	418.747	80.009	19.994	103.254	19.872	6.388	0.514
674.499	419.004	80.009	19.995	103.252	19.875	6.239	0.502
675.000	419.251	80.008	19.995	103.252	19.870	6.517	0.506
675.500	419.524	80.009	19.994	103.254	19.873	6.354	0.511
675.999	419.757	80.009	19.995	103.255	19.871	6.509	0.513
676.500	420.038	80.008	19.995	103.255	19.872	6.444	0.511
677.000	420.230	80.009	19.995	103.260	19.876	6.118	0.494
677.499	420.480	80.009	19.995	103.265	19.874	6.314	0.457
677.999	420.749	80.010	19.994	103.262	19.872	6.393	0.480
678.499	421.004	80.009	19.995	103.260	19.870	6.574	0.521
678.999	421.259	80.009	19.995	103.261	19.875	6.202	0.517
679.499	421.491	80.010	19.996	103.256	19.874	6.300	0.499
679.999	421.729	80.010	19.995	103.251	19.873	6.327	0.479
680.499	422.015	80.009	19.994	103.253	19.879	5.962	0.497
680.999	422.215	80.009	19.994	103.255	19.876	6.149	0.505
681.500	422.472	80.010	19.994	103.256	19.877	6.070	0.472
682.000	422.766	80.010	19.995	103.260	19.873	6.330	0.504
682.499	423.047	80.011	19.995	103.266	19.876	6.179	0.563
682.999	423.279	80.010	19.994	103.268	19.877	6.073	0.544
683.499	423.507	80.010	19.994	103.268	19.879	5.949	0.487
683.999	423.779	80.011	19.994	103.264	19.876	6.167	0.480
684.499	424.047	80.010	19.994	103.263	19.876	6.146	0.520
685.000	424.296	80.011	19.994	103.259	19.876	6.138	0.528
685.500	424.565	80.010	19.995	103.256	19.879	5.978	0.518
686.000	424.871	80.012	19.994	103.256	19.879	5.931	0.546
686.500	425.037	80.010	19.994	103.262	19.877	6.098	0.523
686.999	425.339	80.010	19.994	103.264	19.878	5.982	0.470
687.499	425.554	80.011	19.994	103.262	19.876	6.146	0.493
687.999	425.855	80.011	19.994	103.259	19.882	5.767	0.516
688.500	426.091	80.012	19.995	103.255	19.881	5.801	0.526
689.000	426.353	80.010	19.995	103.251	19.883	5.706	0.518
689.499	426.612	80.010	19.994	103.245	19.883	5.710	0.510
689.999	426.836	80.010	19.995	103.248	19.882	5.753	0.502
690.500	427.086	80.011	19.996	103.255	19.881	5.846	0.478
691.000	427.340	80.010	19.995	103.261	19.881	5.822	0.489
691.500	427.584	80.011	19.996	103.262	19.882	5.743	0.501
691.999	427.860	80.010	19.995	103.262	19.884	5.590	0.509
692.499	428.107	80.009	19.995	103.262	19.882	5.776	0.521
692.999	428.326	80.009	19.995	103.260	19.883	5.675	0.494
693.500	428.598	80.009	19.995	103.259	19.882	5.716	0.479
694.000	428.876	80.011	19.995	103.262	19.883	5.681	0.521
694.499	429.102	80.009	19.996	103.268	19.882	5.736	0.527
694.999	429.384	80.009	19.995	103.270	19.885	5.544	0.506
695.499	429.616	80.009	19.995	103.270	19.884	5.585	0.511
696.000	429.883	80.009	19.995	103.266	19.880	5.912	0.507
696.500	430.146	80.007	19.995	103.260	19.883	5.689	0.515
696.999	430.402	80.009	19.995	103.256	19.882	5.774	0.524
697.499	430.637	80.008	19.995	103.251	19.883	5.681	0.505
697.999	430.903	80.009	19.994	103.247	19.883	5.681	0.496
698.499	431.177	80.008	19.995	103.249	19.883	5.677	0.520
699.000	431.383	80.008	19.994	103.255	19.884	5.636	0.510
699.500	431.653	80.007	19.996	103.255	19.885	5.544	0.478
699.999	431.916	80.008	19.996	103.256	19.887	5.445	0.505
700.499	432.162	80.006	19.995	103.257	19.882	5.727	0.521
700.999	432.420	80.007	19.996	103.254	19.885	5.567	0.506
701.499	432.672	80.006	19.995	103.249	19.885	5.526	0.507
701.999	432.922	80.008	19.994	103.248	19.890	5.211	0.506
702.500	433.199	80.006	19.995	103.246	19.886	5.509	0.514
703.000	433.447	80.008	19.995	103.246	19.887	5.427	0.526
703.499	433.686	80.008	19.995	103.251	19.886	5.479	0.506
703.999	433.969	80.008	19.995	103.252	19.883	5.664	0.504
704.499	434.207	80.007	19.996	103.252	19.887	5.421	0.522
704.999	434.450	80.007	19.995	103.253	19.887	5.412	0.501
705.499	434.723	80.007	19.994	103.252	19.893	5.038	0.498
706.000	434.976	80.008	19.995	103.249	19.889	5.248	0.521
706.500	435.235	80.007	19.995	103.248	19.888	5.322	0.519
706.999	435.501	80.008	19.995	103.248	19.888	5.349	0.519
707.500	435.748	80.007	19.994	103.248	19.887	5.401	0.519
708.000	436.014	80.008	19.995	103.249	19.888	5.320	0.513
708.499	436.279	80.008	19.994	103.255	19.887	5.421	0.522
708.999	436.507	80.008	19.994	103.261	19.894	4.932	0.512
709.499	436.741	80.008	19.994	103.262	19.887	5.391	0.478
709.999	437.004	80.009	19.994	103.261	19.890	5.232	0.480
710.499	437.229	80.009	19.994	103.259	19.890	5.196	0.492
710.999	437.515	80.007	19.995	103.253	19.891	5.123	0.500
711.500	437.739	80.007	19.994	103.246	19.890	5.245	0.511
712.000	437.991	80.008	19.995	103.249	19.892	5.090	0.493
712.499	438.226	80.008	19.994	103.249	19.893	5.011	0.481
712.999	438.494	80.010	19.994	103.250	19.893	4.997	0.495
713.499	438.747	80.009	19.993	103.249	19.895	4.909	0.513
713.999	439.007	80.008	19.994	103.250	19.892	5.103	0.517
714.500	439.253	80.007	19.993	103.247	19.891	5.146	0.509
715.000	439.493	80.007	19.993	103.247	19.895	4.865	0.496
715.500	439.771	80.007	19.994	103.247	19.899	4.631	0.502
715.999	440.002	80.010	19.995	103.247	19.893	5.006	0.514
716.500	440.284	80.008	19.994	103.248	19.895	4.869	0.511
717.000	440.515	80.009	19.994	103.247	19.897	4.732	0.513
717.500	440.794	80.009	19.995	103.248	19.898	4.703	0.512
718.000	441.023	80.007	19.994	103.248	19.898	4.685	0.509
718.500	441.267	80.008	19.994	103.247	19.896	4.797	0.490
719.000	441.509	80.008	19.994	103.248	19.901	4.462	0.480
719.500	441.753	80.009	19.994	103.247	19.898	4.712	0.486
719.999	442.022	80.008	19.994	103.248	19.899	4.627	0.499
720.500	442.279	80.009	19.993	103.249	19.895	4.903	0.519
721.000	442.540	80.008	19.994	103.250	19.897	4.730	0.522
721.499	442.762	80.008	19.995	103.249	19.899	4.609	0.500
721.999	443.048	80.008	19.994	103.249	19.896	4.782	0.496
722.499	443.272	80.008	19.993	103.251	19.899	4.633	0.509
722.999	443.546	80.009	19.995	103.252	19.900	4.541	0.504
723.499	443.793	80.008	19.993	103.251	19.898	4.662	0.509
723.999	444.069	80.007	19.994	103.250	19.901	4.480	0.522
724.500	444.307	80.008	19.995	103.252	19.901	4.467	0.518
725.000	444.555	80.008	19.995	103.251	19.900	4.568	0.500
725.500	444.823	80.007	19.994	103.251	19.901	4.471	0.501
726.000	445.079	80.006	19.994	103.251	19.899	4.628	0.520
726.500	445.350	80.007	19.995	103.252	19.899	4.601	0.526
726.999	445.562	80.006	19.995	103.252	19.901	4.475	0.505
727.500	445.811	80.009	19.994	103.253	19.906	4.165	0.472
728.000	446.043	80.008	19.994	103.250	19.902	4.390	0.471
728.499	446.351	80.007	19.994	103.251	19.900	4.543	0.510
728.999	446.566	80.007	19.995	103.251	19.903	4.316	0.531
729.499	446.853	80.009	19.994	103.249	19.901	4.475	0.512
729.999	447.079	80.008	19.994	103.246	19.902	4.446	0.507
730.499	447.297	80.007	19.994	103.245	19.906	4.113	0.479
731.000	447.598	80.008	19.995	103.242	19.902	4.404	0.482
731.500	447.831	80.008	19.995	103.242	19.907	4.093	0.527
732.000	448.105	80.008	19.995	103.242	19.902	4.387	0.521
732.500	448.360	80.007	19.994	103.241	19.904	4.250	0.518
733.000	448.529	80.007	19.996	103.241	19.905	4.244	0.476
733.500	448.853	80.008	19.994	103.242	19.908	4.028	0.459
734.000	449.071	80.008	19.995	103.242	19.905	4.228	0.518
734.499	449.324	80.007	19.995	103.241	19.901	4.451	0.506
734.999	449.608	80.007	19.994	103.242	19.907	4.082	0.504
735.499	449.887	80.008	19.996	103.242	19.907	4.062	0.550
735.999	450.128	80.008	19.995	103.245	19.907	4.097	0.541
736.499	450.383	80.008	19.995	103.246	19.904	4.296	0.508
737.000	450.594	80.010	19.995	103.247	19.909	3.924	0.481
737.500	450.900	80.008	19.994	103.247	19.906	4.131	0.491
738.000	451.144	80.009	19.994	103.247	19.911	3.829	0.533
738.500	451.379	80.010	19.995	103.244	19.911	3.787	0.514
738.999	451.636	80.008	19.996	103.244	19.907	4.107	0.486
739.499	451.911	80.010	19.994	103.245	19.905	4.196	0.512
739.999	452.140	80.011	19.995	103.245	19.907	4.089	0.518
740.500	452.358	80.010	19.994	103.245	19.909	3.937	0.475
741.000	452.654	80.011	19.994	103.245	19.909	3.918	0.481
741.499	452.883	80.011	19.994	103.244	19.911	3.812	0.520
741.999	453.150	80.010	19.994	103.244	19.906	4.145	0.511
742.499	453.412	80.010	19.993	103.246	19.907	4.073	0.513
742.999	453.678	80.010	19.995	103.247	19.911	3.789	0.528
743.499	453.930	80.009	19.994	103.248	19.906	4.176	0.523
743.999	454.141	80.010	19.994	103.247	19.908	4.001	0.491
744.499	454.422	80.011	19.994	103.246	19.911	3.800	0.477
744.999	454.664	80.010	19.994	103.243	19.912	3.760	0.507
745.499	454.946	80.011	19.994	103.242	19.914	3.609	0.523
745.999	455.212	80.010	19.995	103.241	19.909	3.924	0.536
746.499	455.432	80.010	19.995	103.241	19.912	3.733	0.518
746.999	455.684	80.010	19.994	103.241	19.912	3.726	0.479
747.500	455.996	80.011	19.994	103.242	19.916	3.496	0.518
748.000	456.182	80.009	19.994	103.241	19.912	3.713	0.531
748.500	456.474	80.010	19.994	103.241	19.915	3.562	0.488
748.999	456.754	80.010	19.994	103.241	19.914	3.602	0.526
749.499	456.979	80.010	19.993	103.241	19.909	3.931	0.538
749.999	457.216	80.010	19.995	103.241	19.913	3.659	0.483
750.499	457.528	80.009	19.993	103.241	19.915	3.533	0.505
750.999	457.726	80.011	19.995	103.241	19.911	3.800	0.529
751.499	458.000	80.010	19.994	103.241	19.914	3.609	0.491
752.000	458.263	80.010	19.994	103.240	19.919	3.312	0.505
752.500	458.498	80.010	19.994	103.241	19.911	3.780	0.518
752.999	458.761	80.009	19.994	103.241	19.914	3.595	0.498
753.499	459.027	80.010	19.994	103.242	19.915	3.555	0.513
753.999	459.265	80.010	19.995	103.242	19.915	3.517	0.516
754.499	459.517	80.010	19.994	103.243	19.919	3.278	0.497
754.999	459.791	80.010	19.994	103.242	19.917	3.444	0.508
755.499	460.017	80.009	19.995	103.242	19.919	3.276	0.513
755.999	460.298	80.008	19.994	103.241	19.917	3.388	0.503
756.499	460.552	80.009	19.995	103.242	19.915	3.550	0.521
756.999	460.822	80.008	19.994	103.241	19.912	3.737	0.529
757.499	461.049	80.008	19.994	103.242	19.915	3.546	0.510
758.000	461.308	80.010	19.995	103.242	19.915	3.552	0.492
758.500	461.566	80.010	19.995	103.242	19.923	2.990	0.502
759.000	461.834	80.009	19.995	103.241	19.917	3.386	0.521
759.500	462.081	80.009	19.995	103.241	19.918	3.375	0.520
759.999	462.374	80.009	19.995	103.241	19.916	3.456	0.527
760.499	462.591	80.010	19.995	103.241	19.917	3.424	0.525
760.999	462.866	80.009	19.995	103.240	19.921	3.123	0.501
761.500	463.097	80.009	19.995	103.241	19.919	3.256	0.499
762.000	463.364	80.008	19.995	103.241	19.920	3.246	0.503
762.500	463.612	80.010	19.995	103.241	19.919	3.278	0.507
763.000	463.870	80.009	19.994	103.241	19.921	3.163	0.510
763.500	464.074	80.010	19.994	103.242	19.919	3.300	0.483
763.999	464.352	80.009	19.995	103.242	19.921	3.129	0.472
764.499	464.594	80.010	19.995	103.243	19.925	2.898	0.501
764.999	464.855	80.009	19.995	103.244	19.922	3.055	0.512
765.499	465.099	80.011	19.995	103.243	19.923	3.032	0.504
765.999	465.318	80.010	19.995	103.241	19.921	3.159	0.484
766.499	465.633	80.010	19.995	103.241	19.922	3.086	0.499
766.999	465.863	80.010	19.994	103.240	19.919	3.251	0.539
767.499	466.082	80.010	19.995	103.240	19.920	3.193	0.497
768.000	466.358	80.011	19.994	103.240	19.921	3.163	0.472
768.500	466.626	80.010	19.995	103.242	19.917	3.422	0.519
768.999	466.881	80.010	19.994	103.242	19.921	3.120	0.533
769.499	467.161	80.011	19.994	103.242	19.922	3.109	0.529
769.999	467.374	80.011	19.994	103.243	19.922	3.107	0.514
770.500	467.635	80.011	19.994	103.243	19.920	3.217	0.484
771.000	467.867	80.010	19.994	103.243	19.925	2.891	0.484
771.500	468.140	80.009	19.994	103.242	19.926	2.818	0.499
772.000	468.405	80.010	19.995	103.241	19.922	3.080	0.521
772.500	468.623	80.010	19.995	103.240	19.924	2.926	0.510
772.999	468.940	80.010	19.994	103.239	19.925	2.854	0.509
773.500	469.195	80.011	19.994	103.239	19.924	2.978	0.554
774.000	469.411	80.010	19.994	103.239	19.923	2.983	0.521
774.500	469.707	80.011	19.994	103.241	19.923	2.981	0.491
774.999	469.910	80.010	19.994	103.241	19.922	3.078	0.506
775.500	470.216	80.009	19.994	103.243	19.927	2.736	0.504
776.000	470.434	80.009	19.994	103.244	19.925	2.909	0.517
776.499	470.708	80.009	19.994	103.244	19.921	3.131	0.508
776.999	470.970	80.010	19.994	103.244	19.925	2.871	0.514
777.499	471.201	80.009	19.995	103.244	19.923	3.044	0.514
777.999	471.452	80.008	19.994	103.244	19.925	2.897	0.488
778.499	471.709	80.009	19.994	103.242	19.925	2.848	0.495
778.999	471.935	80.008	19.994	103.241	19.923	3.008	0.495
779.500	472.186	80.007	19.994	103.242	19.924	2.958	0.480
780.000	472.482	80.007	19.995	103.244	19.926	2.790	0.512
780.500	472.740	80.008	19.996	103.245	19.925	2.897	0.551
781.000	473.003	80.007	19.995	103.247	19.927	2.724	0.538
781.500	473.248	80.008	19.995	103.249	19.926	2.841	0.514
782.000	473.505	80.009	19.995	103.248	19.925	2.850	0.505
782.499	473.757	80.009	19.994	103.246	19.924	2.958	0.506
783.000	474.030	80.007	19.994	103.245	19.924	2.927	0.517
783.500	474.272	80.007	19.996	103.245	19.923	3.001	0.520
783.999	474.576	80.008	19.994	103.245	19.924	2.913	0.530
784.499	474.784	80.007	19.994	103.244	19.927	2.744	0.529
785.000	475.065	80.008	19.996	103.243	19.928	2.664	0.500
785.500	475.324	80.007	19.995	103.243	19.927	2.740	0.514
786.000	475.526	80.006	19.996	103.241	19.928	2.655	0.500
786.500	475.839	80.006	19.997	103.240	19.928	2.697	0.488
786.999	476.026	80.008	19.996	103.241	19.927	2.762	0.508
787.499	476.293	80.007	19.996	103.244	19.929	2.582	0.477
787.999	476.554	80.008	19.996	103.243	19.928	2.646	0.491
788.499	476.798	80.006	19.995	103.245	19.930	2.555	0.516
789.000	477.083	80.009	19.996	103.245	19.931	2.470	0.518
789.500	477.335	80.007	19.997	103.244	19.927	2.720	0.533
789.999	477.575	80.007	19.996	103.242	19.929	2.609	0.514
790.499	477.865	80.007	19.996	103.242	19.926	2.801	0.511
790.999	478.121	80.008	19.995	103.242	19.924	2.915	0.538
791.499	478.361	80.008	19.995	103.242	19.927	2.715	0.521
791.999	478.586	80.006	19.996	103.242	19.927	2.762	0.480
792.499	478.853	80.008	19.996	103.241	19.930	2.562	0.479
792.999	479.094	80.008	19.996	103.241	19.931	2.503	0.500
793.499	479.355	80.007	19.996	103.241	19.934	2.278	0.505
793.999	479.574	80.009	19.996	103.240	19.932	2.420	0.491
794.500	479.840	80.007	19.996	103.240	19.931	2.485	0.482
795.000	480.105	80.009	19.996	103.240	19.930	2.544	0.508
795.500	480.337	80.008	19.996	103.240	19.930	2.531	0.514
795.999	480.632	80.008	19.996	103.240	19.929	2.625	0.512
796.499	480.888	80.009	19.996	103.239	19.931	2.510	0.539
796.999	481.126	80.007	19.996	103.239	19.932	2.414	0.522
797.500	481.408	80.008	19.995	103.239	19.931	2.461	0.507
798.000	481.703	80.008	19.996	103.239	19.934	2.247	0.549
798.499	481.915	80.008	19.996	103.239	19.934	2.270	0.542
798.999	482.140	80.008	19.995	103.240	19.930	2.562	0.472
799.500	482.448	80.009	19.996	103.240	19.930	2.538	0.485
800.000	482.678	80.009	19.995	103.239	19.931	2.479	0.536
800.499	482.941	80.008	19.996	103.239	19.936	2.155	0.515
800.999	483.205	80.008	19.994	103.240	19.934	2.283	0.510
801.500	483.464	80.007	19.995	103.240	19.932	2.420	0.525
802.000	483.708	80.007	19.995	103.240	19.934	2.279	0.513
802.499	483.988	80.009	19.995	103.241	19.933	2.332	0.513
802.999	484.221	80.009	19.995	103.241	19.934	2.269	0.518
803.499	484.487	80.009	19.994	103.241	19.929	2.639	0.506
803.999	484.699	80.008	19.994	103.240	19.933	2.333	0.489
804.499	484.929	80.009	19.995	103.239	19.934	2.258	0.460
805.000	485.233	80.008	19.994	103.238	19.931	2.456	0.488
805.500	485.483	80.009	19.995	103.238	19.932	2.432	0.544
806.000	485.737	80.007	19.994	103.233	19.930	2.538	0.529
806.500	486.006	80.008	19.995	103.232	19.932	2.423	0.514
807.000	486.260	80.008	19.995	103.233	19.930	2.554	0.523
807.500	486.530	80.008	19.995	103.234	19.934	2.249	0.524
808.000	486.784	80.009	19.995	103.234	19.934	2.272	0.524
808.499	487.044	80.008	19.994	103.240	19.929	2.586	0.519
808.999	487.288	80.008	19.995	103.242	19.933	2.335	0.509
809.499	487.516	80.007	19.995	103.241	19.934	2.287	0.488
809.999	487.829	80.008	19.994	103.236	19.936	2.152	0.506
810.499	488.057	80.008	19.995	103.236	19.935	2.231	0.541
810.999	488.286	80.006	19.995	103.235	19.933	2.326	0.499
811.499	488.582	80.007	19.995	103.236	19.930	2.538	0.491
811.999	488.833	80.008	19.995	103.235	19.937	2.053	0.536
812.499	489.107	80.008	19.994	103.237	19.931	2.504	0.536
812.999	489.365	80.007	19.995	103.235	19.932	2.391	0.528
813.499	489.599	80.007	19.995	103.235	19.934	2.249	0.512
814.000	489.895	80.008	19.994	103.234	19.932	2.389	0.511
814.500	490.137	80.008	19.995	103.236	19.932	2.393	0.534
815.000	490.382	80.008	19.995	103.239	19.939	1.968	0.512
815.499	490.636	80.007	19.995	103.240	19.931	2.461	0.493
815.999	490.915	80.008	19.994	103.235	19.938	2.006	0.516
816.499	491.147	80.009	19.994	103.231	19.937	2.091	0.522
817.000	491.374	80.008	19.995	103.229	19.938	2.038	0.485
817.500	491.620	80.008	19.994	103.229	19.935	2.184	0.466
818.000	491.900	80.009	19.994	103.227	19.936	2.166	0.499
818.500	492.136	80.010	19.994	103.232	19.939	1.914	0.520
818.999	492.403	80.008	19.994	103.241	19.938	1.979	0.509
819.499	492.656	80.008	19.996	103.247	19.936	2.137	0.512
820.000	492.900	80.009	19.994	103.244	19.932	2.441	0.508
820.500	493.164	80.008	19.994	103.239	19.934	2.288	0.502
821.000	493.417	80.009	19.994	103.236	19.935	2.200	0.513
821.500	493.706	80.009	19.995	103.227	19.939	1.968	0.530
821.999	493.967	80.010	19.994	103.220	19.938	2.042	0.546
822.500	494.204	80.009	19.994	103.223	19.936	2.117	0.524
823.000	494.437	80.008	19.993	103.231	19.941	1.813	0.484
823.500	494.735	80.009	19.996	103.233	19.936	2.155	0.501
823.999	494.984	80.009	19.994	103.238	19.937	2.078	0.539
824.499	495.242	80.009	19.994	103.241	19.938	2.020	0.527
824.999	495.495	80.009	19.995	103.241	19.937	2.045	0.509
825.499	495.740	80.011	19.994	103.241	19.935	2.240	0.505
825.999	496.033	80.011	19.994	103.241	19.941	1.781	0.518
826.500	496.258	80.010	19.995	103.241	19.937	2.099	0.529
827.000	496.504	80.010	19.994	103.241	19.934	2.250	0.495
827.499	496.781	80.009	19.995	103.241	19.936	2.142	0.497
827.999	497.011	80.010	19.994	103.239	19.935	2.234	0.515
828.499	497.284	80.009	19.994	103.235	19.933	2.321	0.505
829.000	497.503	80.009	19.995	103.234	19.936	2.141	0.498
829.500	497.799	80.009	19.993	103.231	19.937	2.090	0.503
829.999	498.040	80.010	19.995	103.231	19.939	1.927	0.525
830.499	498.299	80.010	19.995	103.234	19.933	2.340	0.519
830.999	498.573	80.010	19.995	103.238	19.939	1.964	0.517
831.499	498.785	80.010	19.994	103.237	19.938	2.038	0.509
832.000	499.062	80.009	19.995	103.238	19.940	1.905	0.487
832.500	499.275	80.010	19.995	103.235	19.940	1.902	0.490
832.999	499.535	80.010	19.993	103.234	19.934	2.276	0.482
833.499	499.791	80.009	19.994	103.228	19.937	2.051	0.494
834.000	500.093	80.009	19.994	103.225	19.937	2.055	0.537
834.500	500.299	80.009	19.994	103.225	19.933	2.344	0.533
834.999	500.571	80.008	19.994	103.227	19.935	2.179	0.493
835.499	500.821	80.011	19.995	103.228	19.931	2.452	0.500
835.999	501.082	80.010	19.995	103.230	19.935	2.202	0.517
836.499	501.359	80.010	19.994	103.229	19.937	2.101	0.525
837.000	501.566	80.010	19.995	103.226	19.935	2.229	0.511
837.500	501.844	80.010	19.995	103.221	19.937	2.062	0.485
837.999	502.086	80.010	19.993	103.220	19.937	2.074	0.502
838.500	502.375	80.010	19.994	103.224	19.936	2.153	0.525
839.000	502.624	80.010	19.994	103.227	19.938	2.010	0.534
839.500	502.876	80.009	19.994	103.230	19.939	1.932	0.519
840.000	503.149	80.011	19.998	103.233	19.941	1.806	0.513
840.499	503.370	80.009	19.995	103.235	19.937	2.083	0.510
840.999	503.608	80.009	19.996	103.229	19.940	1.900	0.476
841.500	503.866	80.010	19.994	103.227	19.939	1.950	0.477
842.000	504.129	80.009	19.996	103.227	19.940	1.857	0.508
842.500	504.358	80.011	19.994	103.230	19.941	1.792	0.507
843.000	504.594	80.010	19.993	103.228	19.938	2.020	0.479
843.500	504.859	80.011	19.995	103.233	19.937	2.097	0.483
844.000	505.182	80.011	19.995	103.238	19.941	1.822	0.544
844.500	505.408	80.010	19.994	103.239	19.937	2.090	0.568
844.999	505.638	80.010	19.994	103.238	19.941	1.786	0.503
845.500	505.835	80.010	19.993	103.236	19.938	1.997	0.441
846.000	506.139	80.010	19.994	103.231	19.938	2.020	0.464
846.500	506.391	80.010	19.995	103.226	19.938	2.036	0.528
847.000	506.690	80.011	19.995	103.221	19.938	1.986	0.554
847.499	506.939	80.010	19.994	103.220	19.936	2.146	0.550
847.999	507.188	80.011	19.994	103.221	19.939	1.952	0.523
848.499	507.422	80.010	19.994	103.226	19.935	2.204	0.490
848.999	507.686	80.010	19.993	103.232	19.942	1.772	0.490
849.499	507.914	80.011	19.994	103.236	19.938	2.025	0.495
849.999	508.167	80.009	19.994	103.239	19.940	1.908	0.487
850.499	508.442	80.011	19.994	103.240	19.943	1.703	0.504
850.999	508.685	80.010	19.993	103.239	19.937	2.067	0.523
851.499	508.928	80.012	19.995	103.238	19.938	2.006	0.502
851.999	509.221	80.010	19.994	103.239	19.936	2.134	0.511
852.499	509.468	80.010	19.994	103.239	19.939	1.948	0.538
852.999	509.716	80.009	19.994	103.235	19.938	2.027	0.518
853.499	509.965	80.010	19.995	103.230	19.939	1.912	0.496
853.999	510.185	80.012	19.994	103.223	19.936	2.167	0.483
854.499	510.443	80.012	19.995	103.216	19.942	1.741	0.473
854.999	510.725	80.010	19.995	103.209	19.943	1.678	0.509
855.499	510.975	80.010	19.994	103.208	19.942	1.768	0.536
856.000	511.232	80.010	19.995	103.211	19.941	1.835	0.520
856.500	511.485	80.010	19.995	103.218	19.939	1.966	0.509
857.000	511.748	80.009	19.995	103.223	19.946	1.488	0.513
857.500	511.968	80.010	19.995	103.229	19.937	2.085	0.499
857.999	512.199	80.009	19.995	103.234	19.943	1.646	0.466
858.499	512.457	80.009	19.994	103.233	19.943	1.698	0.470
858.999	512.700	80.010	19.996	103.228	19.941	1.779	0.495
859.500	512.961	80.007	19.995	103.227	19.944	1.624	0.503
860.000	513.217	80.009	19.994	103.226	19.941	1.811	0.511
860.500	513.465	80.008	19.995	103.220	19.938	1.998	0.510
861.000	513.685	80.008	19.995	103.219	19.943	1.680	0.486
861.500	513.995	80.008	19.996	103.224	19.937	2.074	0.499
862.000	514.218	80.008	19.995	103.227	19.940	1.883	0.531
862.500	514.466	80.009	19.995	103.227	19.939	1.930	0.502
863.000	514.764	80.008	19.996	103.229	19.939	1.968	0.509
863.499	515.013	80.009	19.994	103.226	19.942	1.752	0.547
864.000	515.255	80.009	19.995	103.219	19.945	1.527	0.519
864.500	515.493	80.008	19.996	103.211	19.944	1.613	0.485
864.999	515.779	80.007	19.996	103.208	19.945	1.538	0.502
865.499	515.991	80.008	19.995	103.213	19.943	1.647	0.511
865.999	516.263	80.008	19.994	103.220	19.946	1.478	0.491
866.499	516.512	80.008	19.995	103.225	19.943	1.692	0.503
866.999	516.752	80.008	19.995	103.230	19.948	1.374	0.505
867.499	517.018	80.008	19.995	103.228	19.945	1.541	0.498
867.999	517.285	80.007	19.995	103.223	19.942	1.757	0.519
868.499	517.507	80.008	19.995	103.218	19.941	1.844	0.511
868.999	517.789	80.009	19.995	103.214	19.945	1.516	0.496
869.499	518.050	80.009	19.996	103.209	19.946	1.471	0.523
869.999	518.268	80.008	19.994	103.214	19.942	1.725	0.511
870.499	518.518	80.009	19.995	103.217	19.944	1.590	0.474
871.000	518.780	80.010	19.995	103.215	19.947	1.410	0.490
871.500	519.092	80.007	19.994	103.222	19.945	1.570	0.543
872.000	519.284	80.009	19.996	103.225	19.943	1.646	0.539
872.500	519.557	80.008	19.996	103.227	19.945	1.574	0.484
873.000	519.817	80.008	19.996	103.228	19.941	1.820	0.499
873.500	520.064	80.009	19.996	103.232	19.946	1.452	0.520
873.999	520.295	80.009	19.995	103.227	19.943	1.705	0.493
874.499	520.567	80.008	19.995	103.225	19.945	1.522	0.490
875.000	520.806	80.009	19.996	103.220	19.944	1.617	0.507
875.500	521.056	80.011	19.995	103.215	19.942	1.752	0.500
876.000	521.304	80.008	19.994	103.211	19.944	1.585	0.494
876.500	521.550	80.008	19.995	103.209	19.946	1.473	0.496
876.999	521.834	80.008	19.994	103.209	19.946	1.464	0.512
877.499	522.066	80.008	19.994	103.211	19.945	1.570	0.523
877.999	522.357	80.008	19.995	103.211	19.943	1.700	0.520
878.499	522.612	80.008	19.995	103.211	19.946	1.486	0.534
878.999	522.877	80.008	19.995	103.215	19.946	1.504	0.533
879.499	523.084	80.009	19.995	103.220	19.943	1.676	0.496
879.999	523.365	80.010	19.997	103.220	19.945	1.520	0.481
880.499	523.617	80.008	19.995	103.221	19.948	1.362	0.511
880.999	523.858	80.008	19.996	103.223	19.944	1.639	0.512
881.500	524.090	80.010	19.995	103.221	19.947	1.394	0.482
882.000	524.370	80.007	19.995	103.218	19.945	1.556	0.493
882.499	524.590	80.008	19.996	103.219	19.940	1.846	0.506
882.999	524.863	80.009	19.995	103.219	19.947	1.441	0.496
883.499	525.083	80.008	19.996	103.218	19.947	1.387	0.493
883.999	525.344	80.008	19.994	103.218	19.947	1.410	0.488
884.500	525.641	80.009	19.996	103.214	19.946	1.477	0.520
885.000	525.843	80.006	19.996	103.210	19.942	1.732	0.528
885.499	526.093	80.008	19.996	103.207	19.944	1.637	0.476
885.999	526.340	80.008	19.995	103.211	19.943	1.675	0.474
886.499	526.565	80.007	19.996	103.215	19.947	1.426	0.484
886.999	526.803	80.007	19.996	103.218	19.947	1.399	0.468
887.499	527.071	80.007	19.995	103.216	19.947	1.381	0.485
887.999	527.328	80.008	19.996	103.215	19.946	1.498	0.516
888.499	527.552	80.008	19.995	103.212	19.947	1.405	0.503
888.999	527.841	80.008	19.995	103.210	19.943	1.673	0.496
889.499	528.081	80.007	19.996	103.212	19.946	1.487	0.521
889.999	528.328	80.008	19.996	103.218	19.941	1.801	0.508
890.499	528.520	80.007	19.997	103.219	19.947	1.383	0.463
890.999	528.766	80.008	19.996	103.220	19.947	1.396	0.439
891.499	529.043	80.006	19.995	103.221	19.942	1.734	0.481
891.999	529.317	80.006	19.996	103.222	19.945	1.563	0.538
892.499	529.530	80.007	19.996	103.222	19.943	1.702	0.519
892.999	529.765	80.006	19.995	103.225	19.946	1.462	0.467
893.499	530.000	80.008	19.995	103.226	19.944	1.586	0.459
893.999	530.298	80.007	19.996	103.224	19.946	1.469	0.501
894.499	530.536	80.007	19.995	103.222	19.948	1.315	0.534
895.000	530.736	80.007	19.995	103.221	19.947	1.423	0.487
895.500	531.022	80.007	19.994	103.222	19.943	1.671	0.462
895.999	531.233	80.008	19.995	103.222	19.942	1.741	0.491
896.499	531.489	80.006	19.994	103.221	19.948	1.358	0.482
896.999	531.736	80.008	19.995	103.222	19.946	1.459	0.485
897.499	532.001	80.008	19.995	103.219	19.942	1.757	0.508
897.999	532.263	80.009	19.994	103.215	19.949	1.282	0.520
898.499	532.516	80.008	19.993	103.212	19.946	1.495	0.521
899.000	532.736	80.009	19.994	103.210	19.945	1.565	0.494
899.500	532.984	80.008	19.994	103.208	19.947	1.387	0.470
900.000	533.213	80.008	19.994	103.208	19.945	1.576	0.473
900.500	533.453	80.010	19.996	103.212	19.947	1.441	0.473
900.999	533.719	80.010	19.995	103.217	19.946	1.448	0.487
901.499	533.984	80.008	19.995	103.223	19.946	1.497	0.519
901.999	534.213	80.009	19.995	103.226	19.943	1.696	0.513
902.499	534.465	80.008	19.994	103.228	19.944	1.601	0.488
902.999	534.709	80.008	19.993	103.224	19.943	1.702	0.488
903.499	534.981	80.008	19.994	103.218	19.944	1.641	0.506
903.999	535.227	80.008	19.994	103.213	19.950	1.211	0.517
904.499	535.436	80.009	19.995	103.209	19.949	1.257	0.487
904.999	535.706	80.009	19.994	103.208	19.940	1.885	0.467
905.499	535.929	80.009	19.994	103.214	19.948	1.335	0.486
906.000	536.189	80.009	19.994	103.218	19.946	1.464	0.488
906.500	536.429	80.008	19.993	103.221	19.948	1.337	0.492
907.000	536.674	80.010	19.995	103.222	19.946	1.461	0.493
907.500	536.896	80.009	19.994	103.222	19.944	1.585	0.476
908.000	537.149	80.010	19.994	103.219	19.943	1.673	0.471
908.499	537.418	80.009	19.995	103.221	19.943	1.659	0.498
908.999	537.653	80.010	19.995	103.217	19.945	1.558	0.513
909.499	537.926	80.009	19.994	103.219	19.947	1.380	0.507
909.999	538.123	80.010	19.993	103.222	19.949	1.297	0.489
910.499	538.360	80.010	19.994	103.223	19.949	1.299	0.452
910.999	538.642	80.009	19.994	103.219	19.944	1.604	0.477
911.499	538.879	80.009	19.994	103.222	19.948	1.351	0.519
911.999	539.127	80.008	19.994	103.222	19.944	1.594	0.502
912.499	539.388	80.008	19.995	103.219	19.948	1.335	0.497
912.999	539.642	80.009	19.994	103.218	19.946	1.452	0.513
913.499	539.898	80.007	19.995	103.223	19.944	1.583	0.512
914.000	540.117	80.008	19.995	103.226	19.947	1.421	0.492
914.500	540.383	80.009	19.994	103.227	19.948	1.345	0.480
914.999	540.617	80.008	19.994	103.225	19.946	1.468	0.492
915.499	540.883	80.008	19.994	103.222	19.946	1.496	0.500
915.999	541.107	80.008	19.993	103.220	19.943	1.664	0.495
916.499	541.354	80.008	19.993	103.222	19.943	1.649	0.480
917.000	541.605	80.008	19.994	103.228	19.948	1.362	0.485
917.500	541.895	80.008	19.993	103.234	19.943	1.666	0.519
918.000	542.123	80.009	19.995	103.240	19.946	1.489	0.530
918.499	542.396	80.009	19.994	103.236	19.949	1.299	0.510
918.999	542.628	80.007	19.993	103.231	19.948	1.315	0.503
919.500	542.882	80.007	19.994	103.224	19.946	1.472	0.496
920.000	543.161	80.009	19.994	103.220	19.949	1.274	0.510
920.499	543.415	80.008	19.994	103.220	19.947	1.425	0.533
920.999	543.638	80.008	19.993	103.220	19.947	1.439	0.505
921.500	543.884	80.009	19.995	103.219	19.944	1.619	0.473
922.000	544.136	80.009	19.995	103.218	19.948	1.344	0.484
922.500	544.385	80.008	19.995	103.219	19.945	1.529	0.500
923.000	544.638	80.008	19.994	103.216	19.943	1.680	0.501
923.500	544.897	80.009	19.994	103.215	19.942	1.772	0.507
923.999	545.151	80.010	19.995	103.214	19.946	1.509	0.512
924.499	545.398	80.009	19.994	103.215	19.946	1.466	0.507
925.000	545.628	80.008	19.994	103.211	19.945	1.513	0.489
925.500	545.903	80.009	19.995	103.207	19.946	1.491	0.491
925.999	546.146	80.009	19.995	103.206	19.945	1.574	0.512
926.499	546.397	80.009	19.994	103.209	19.950	1.189	0.506
926.999	546.656	80.010	19.994	103.206	19.946	1.488	0.502
927.500	546.955	80.010	19.995	103.206	19.947	1.439	0.534
928.000	547.207	80.011	19.995	103.212	19.946	1.451	0.555
928.500	547.452	80.010	19.994	103.220	19.948	1.365	0.524
928.999	547.702	80.009	19.994	103.223	19.947	1.432	0.496
929.499	547.946	80.011	19.994	103.228	19.943	1.653	0.494
929.999	548.203	80.009	19.994	103.231	19.944	1.608	0.498
930.499	548.458	80.010	19.994	103.230	19.947	1.428	0.506
930.999	548.722	80.010	19.995	103.229	19.945	1.524	0.516
931.499	548.990	80.010	19.994	103.226	19.946	1.500	0.526
931.999	549.271	80.010	19.994	103.224	19.945	1.574	0.541
932.500	549.514	80.011	19.993	103.222	19.944	1.587	0.536
933.000	549.813	80.012	19.994	103.226	19.942	1.756	0.533
933.499	550.035	80.011	19.994	103.223	19.947	1.387	0.531
933.999	550.302	80.012	19.995	103.226	19.948	1.371	0.505
934.499	550.571	80.011	19.993	103.228	19.949	1.246	0.513
935.000	550.812	80.010	19.994	103.230	19.939	1.928	0.523
935.500	551.090	80.010	19.995	103.225	19.944	1.612	0.515
935.999	551.332	80.010	19.993	103.229	19.944	1.595	0.520
936.499	551.590	80.010	19.994	103.229	19.945	1.531	0.509
936.999	551.858	80.010	19.993	103.230	19.944	1.615	0.513
937.499	552.155	80.010	19.993	103.226	19.947	1.428	0.546
937.999	552.402	80.010	19.993	103.224	19.947	1.423	0.555
938.499	552.676	80.009	19.994	103.218	19.948	1.356	0.533
938.999	552.948	80.008	19.994	103.212	19.945	1.540	0.534
939.500	553.176	80.009	19.994	103.212	19.946	1.460	0.523
940.000	553.463	80.008	19.995	103.218	19.945	1.538	0.507
940.500	553.747	80.009	19.994	103.225	19.947	1.410	0.543
941.000	553.983	80.008	19.995	103.231	19.946	1.473	0.546
941.500	554.293	80.010	19.995	103.238	19.947	1.390	0.533
942.000	554.556	80.007	19.995	103.239	19.950	1.212	0.559
942.500	554.838	80.008	19.995	103.236	19.948	1.365	0.559
943.000	555.125	80.008	19.996	103.230	19.949	1.275	0.557
943.500	555.416	80.008	19.995	103.223	19.949	1.255	0.574
944.000	555.635	80.008	19.994	103.219	19.949	1.261	0.544
944.500	555.946	80.008	19.994	103.214	19.950	1.212	0.520
945.000	556.191	80.008	19.995	103.211	19.946	1.493	0.543
945.499	556.454	80.008	19.995	103.212	19.947	1.421	0.532
945.999	556.753	80.007	19.995	103.211	19.947	1.385	0.534
946.500	556.996	80.007	19.995	103.208	19.951	1.146	0.552
947.000	557.294	80.008	19.995	103.209	19.948	1.347	0.542
947.499	557.539	80.007	19.996	103.211	19.949	1.274	0.542
947.999	557.846	80.008	19.995	103.212	19.945	1.544	0.548
948.499	558.140	80.007	19.995	103.212	19.949	1.281	0.576
948.999	558.380	80.007	19.995	103.212	19.950	1.241	0.567
949.499	558.630	80.007	19.995	103.212	19.946	1.472	0.512
949.999	558.882	80.008	19.995	103.210	19.951	1.128	0.496
950.499	559.158	80.007	19.996	103.208	19.946	1.482	0.515
951.000	559.449	80.007	19.995	103.208	19.948	1.355	0.547
951.500	559.719	80.008	19.996	103.206	19.949	1.311	0.564
952.000	559.990	80.008	19.995	103.208	19.952	1.059	0.551
952.500	560.293	80.008	19.996	103.210	19.946	1.477	0.558
953.000	560.544	80.010	19.995	103.212	19.945	1.556	0.564
953.500	560.849	80.008	19.994	103.215	19.949	1.293	0.555
954.000	561.076	80.008	19.995	103.216	19.948	1.336	0.544
954.500	561.378	80.008	19.994	103.215	19.949	1.282	0.530
954.999	561.648	80.007	19.995	103.215	19.948	1.345	0.550
955.499	561.907	80.007	19.995	103.214	19.948	1.327	0.551
956.000	562.200	80.009	19.994	103.217	19.949	1.290	0.541
956.500	562.475	80.007	19.994	103.219	19.947	1.444	0.560
956.999	562.728	80.008	19.995	103.219	19.944	1.581	0.548
957.499	563.058	80.009	19.995	103.222	19.945	1.522	0.556
958.000	563.296	80.008	19.995	103.228	19.942	1.712	0.576
958.500	563.561	80.008	19.996	103.231	19.946	1.462	0.536
959.000	563.805	80.007	19.995	103.231	19.949	1.277	0.506
959.500	564.131	80.007	19.993	103.236	19.950	1.183	0.539
959.999	564.422	80.007	19.994	103.236	19.945	1.565	0.593
960.499	564.664	80.008	19.995	103.234	19.946	1.468	0.575
960.999	564.934	80.008	19.996	103.231	19.948	1.349	0.523
961.499	565.181	80.007	19.996	103.233	19.946	1.484	0.515
962.000	565.491	80.008	19.995	103.229	19.949	1.279	0.537
962.500	565.701	80.007	19.995	103.227	19.947	1.432	0.539
962.999	565.993	80.009	19.995	103.221	19.946	1.453	0.511
963.499	566.269	80.008	19.994	103.216	19.947	1.441	0.535
964.000	566.525	80.009	19.995	103.210	19.952	1.059	0.550
964.500	566.811	80.009	19.994	103.208	19.947	1.444	0.537
964.999	567.067	80.009	19.995	103.205	19.944	1.640	0.542
965.499	567.376	80.008	19.995	103.205	19.948	1.313	0.553
966.000	567.633	80.008	19.995	103.209	19.950	1.241	0.565
966.500	567.922	80.008	19.995	103.210	19.946	1.496	0.556
966.999	568.156	80.008	19.994	103.212	19.951	1.162	0.535
967.499	568.439	80.008	19.995	103.215	19.948	1.354	0.521
967.999	568.678	80.008	19.995	103.215	19.945	1.545	0.519
968.499	568.959	80.008	19.995	103.215	19.950	1.205	0.521
968.999	569.200	80.008	19.995	103.215	19.946	1.471	0.521
969.499	569.468	80.007	19.996	103.213	19.945	1.550	0.516
970.000	569.777	80.007	19.995	103.210	19.946	1.477	0.543
970.500	570.036	80.007	19.996	103.212	19.946	1.459	0.572
970.999	570.273	80.006	19.994	103.210	19.945	1.545	0.532
971.499	570.562	80.006	19.995	103.209	19.945	1.570	0.511
972.000	570.805	80.006	19.994	103.210	19.948	1.326	0.530
972.500	571.097	80.008	19.994	103.210	19.946	1.469	0.534
972.999	571.354	80.006	19.996	103.209	19.946	1.455	0.542
973.499	571.589	80.006	19.996	103.208	19.946	1.448	0.520
974.000	571.842	80.005	19.996	103.209	19.945	1.532	0.489
974.500	572.118	80.006	19.996	103.208	19.950	1.241	0.509
974.999	572.401	80.006	19.995	103.208	19.952	1.079	0.545
975.499	572.691	80.006	19.995	103.207	19.947	1.389	0.566
975.999	572.945	80.006	19.996	103.207	19.946	1.469	0.558
976.499	573.206	80.006	19.996	103.206	19.952	1.086	0.529
976.999	573.444	80.005	19.996	103.210	19.949	1.291	0.507
977.499	573.705	80.005	19.995	103.210	19.947	1.381	0.499
977.999	573.993	80.005	19.997	103.214	19.951	1.133	0.524
978.500	574.267	80.007	19.996	103.218	19.953	1.014	0.555
979.000	574.571	80.006	19.995	103.218	19.953	1.011	0.570
979.500	574.795	80.007	19.996	103.217	19.951	1.155	0.553
980.000	575.047	80.006	19.996	103.216	19.952	1.101	0.502
980.500	575.320	80.007	19.997	103.212	19.951	1.158	0.500
981.000	575.581	80.007	19.995	103.210	19.950	1.189	0.530
981.499	575.839	80.007	19.995	103.211	19.953	0.978	0.527
981.999	576.130	80.007	19.995	103.210	19.954	0.943	0.534
982.499	576.335	80.008	19.996	103.210	19.952	1.079	0.522
983.000	576.588	80.006	19.998	103.210	19.951	1.112	0.477
983.500	576.817	80.007	19.996	103.208	19.947	1.392	0.470
983.999	577.097	80.008	19.997	103.208	19.952	1.110	0.496
984.499	577.374	80.008	19.996	103.207	19.950	1.189	0.533
984.999	577.631	80.008	19.996	103.208	19.949	1.290	0.545
985.499	577.897	80.008	19.994	103.208	19.948	1.317	0.528
985.999	578.131	80.009	19.996	103.211	19.950	1.232	0.511
986.499	578.443	80.009	19.996	103.209	19.951	1.137	0.523
987.000	578.647	80.008	19.995	103.210	19.951	1.162	0.531
987.500	578.922	80.009	19.995	103.209	19.954	0.919	0.497
988.000	579.194	80.010	19.995	103.209	19.951	1.155	0.514
988.500	579.440	80.010	19.995	103.211	19.950	1.212	0.533
988.999	579.708	80.009	19.997	103.214	19.949	1.259	0.516
989.499	579.940	80.010	19.995	103.218	19.951	1.164	0.507
989.999	580.210	80.009	19.995	103.220	19.953	1.029	0.501
990.499	580.520	80.009	19.995	103.219	19.951	1.158	0.541
990.999	580.726	80.012	19.995	103.216	19.955	0.894	0.548
991.499	581.004	80.010	19.994	103.218	19.951	1.117	0.500
991.999	581.248	80.009	19.995	103.215	19.951	1.146	0.503
992.500	581.550	80.010	19.995	103.215	19.949	1.300	0.534
993.000	581.797	80.011	19.994	103.215	19.948	1.315	0.548
993.500	582.099	80.010	19.995	103.216	19.948	1.362	0.549
994.000	582.298	80.010	19.996	103.215	19.953	1.027	0.525
994.500	582.571	80.009	19.994	103.214	19.950	1.203	0.487
995.000	582.800	80.010	19.993	103.213	19.951	1.157	0.487
995.500	583.107	80.009	19.994	103.212	19.951	1.139	0.519
996.000	583.340	80.009	19.995	103.211	19.951	1.133	0.538
996.500	583.602	80.010	19.994	103.215	19.952	1.076	0.517
997.000	583.913	80.009	19.994	103.218	19.956	0.797	0.534
997.499	584.136	80.009	19.994	103.219	19.953	1.043	0.554
997.999	584.376	80.008	19.995	103.219	19.951	1.175	0.498
998.499	584.643	80.009	19.995	103.216	19.952	1.058	0.485
998.999	584.897	80.009	19.994	103.209	19.953	1.023	0.514
999.499	585.179	80.011	19.995	103.206	19.949	1.250	0.529
999.999	585.454	80.009	19.994	103.203	19.953	1.018	0.546
1000.499	585.692	80.009	19.995	103.202	19.953	1.032	0.535
1000.999	585.977	80.009	19.995	103.202	19.952	1.054	0.518
1001.499	586.225	80.009	19.995	103.202	19.955	0.894	0.528
1001.999	586.475	80.010	19.995	103.202	19.951	1.176	0.516
1002.500	586.717	80.008	19.995	103.203	19.955	0.887	0.495
1003.000	586.979	80.009	19.995	103.206	19.951	1.112	0.498
1003.500	587.252	80.009	19.996	103.208	19.950	1.218	0.520
1003.999	587.503	80.010	19.995	103.210	19.953	1.034	0.530
1004.499	587.764	80.010	19.994	103.214	19.953	1.009	0.517
1004.999	588.001	80.009	19.995	103.217	19.951	1.129	0.504
1005.500	588.241	80.009	19.995	103.216	19.951	1.158	0.487
1006.000	588.551	80.010	19.994	103.214	19.952	1.059	0.514
1006.499	588.839	80.011	19.994	103.215	19.950	1.221	0.574
1006.999	589.055	80.009	19.994	103.213	19.950	1.189	0.551
1007.499	589.315	80.009	19.996	103.215	19.952	1.085	0.490
1007.999	589.591	80.011	19.996	103.221	19.953	0.980	0.505
1008.500	589.846	80.010	19.994	103.226	19.958	0.649	0.533
1009.000	590.082	80.011	19.994	103.225	19.952	1.072	0.511
1009.500	590.352	80.011	19.995	103.224	19.953	1.036	0.499
1010.000	590.602	80.009	19.995	103.219	19.953	1.014	0.513
1010.499	590.899	80.011	19.996	103.213	19.945	1.518	0.534
1011.000	591.144	80.013	19.994	103.211	19.947	1.424	0.545
1011.500	591.374	80.012	19.995	103.214	19.951	1.157	0.508
1011.999	591.682	80.011	19.994	103.216	19.950	1.241	0.507
1012.499	591.910	80.012	19.995	103.221	19.952	1.049	0.537
1012.999	592.193	80.011	19.995	103.227	19.949	1.263	0.523
1013.499	592.422	80.011	19.995	103.227	19.950	1.194	0.511
1013.999	592.696	80.012	19.995	103.227	19.948	1.372	0.507
1014.499	592.953	80.011	19.995	103.225	19.954	0.957	0.517
1014.999	593.214	80.012	19.995	103.219	19.950	1.225	0.525
1015.499	593.451	80.012	19.995	103.212	19.949	1.275	0.508
1015.999	593.712	80.012	19.994	103.208	19.952	1.059	0.497
1016.499	593.960	80.012	19.995	103.204	19.946	1.502	0.504
1016.999	594.240	80.011	19.994	103.204	19.951	1.135	0.519
1017.499	594.513	80.012	19.995	103.207	19.954	0.971	0.540
1018.000	594.777	80.010	19.994	103.209	19.949	1.277	0.545
1018.500	595.021	80.011	19.995	103.209	19.951	1.137	0.522
1018.999	595.239	80.012	19.994	103.210	19.956	0.842	0.485
1019.499	595.563	80.010	19.994	103.209	19.948	1.361	0.502
1019.999	595.766	80.011	19.993	103.206	19.948	1.331	0.534
1020.499	596.043	80.010	19.995	103.205	19.952	1.065	0.503
1021.000	596.281	80.010	19.995	103.204	19.952	1.059	0.497
1021.500	596.556	80.009	19.995	103.204	19.956	0.826	0.514
1022.000	596.800	80.011	19.995	103.205	19.952	1.050	0.516
1022.500	597.032	80.011	19.994	103.211	19.949	1.261	0.498
1023.000	597.278	80.009	19.994	103.212	19.953	1.013	0.477
1023.499	597.550	80.009	19.995	103.213	19.947	1.419	0.498
1023.999	597.832	80.009	19.994	103.213	19.949	1.282	0.536
1024.499	598.074	80.009	19.994	103.210	19.952	1.074	0.539
1025.000	598.322	80.007	19.994	103.209	19.954	0.919	0.507
1025.500	598.592	80.009	19.995	103.209	19.950	1.245	0.504
1025.999	598.856	80.008	19.994	103.209	19.948	1.363	0.526
1026.499	599.107	80.009	19.995	103.209	19.946	1.455	0.525
1026.999	599.361	80.010	19.994	103.209	19.948	1.354	0.510
1027.499	599.616	80.009	19.994	103.207	19.948	1.347	0.507
1027.999	599.857	80.009	19.994	103.205	19.946	1.468	0.503
1028.499	600.163	80.008	19.994	103.206	19.952	1.056	0.522
1028.999	600.407	80.010	19.994	103.207	19.949	1.270	0.548
1029.499	600.646	80.010	19.994	103.207	19.950	1.203	0.516
1029.999	600.901	80.009	19.994	103.207	19.951	1.155	0.489
1030.499	601.187	80.008	19.994	103.207	19.948	1.360	0.518
1030.999	601.428	80.007	19.993	103.206	19.949	1.259	0.534
1031.499	601.689	80.008	19.994	103.207	19.953	0.980	0.515
1031.999	601.959	80.009	19.994	103.207	19.951	1.137	0.517
1032.499	602.196	80.007	19.994	103.208	19.950	1.219	0.519
1032.999	602.447	80.009	19.996	103.208	19.949	1.248	0.497
1033.499	602.696	80.009	19.995	103.208	19.954	0.957	0.493
1033.999	602.960	80.009	19.994	103.207	19.955	0.847	0.506
1034.499	603.238	80.009	19.995	103.207	19.950	1.236	0.528
1034.999	603.453	80.007	19.995	103.208	19.951	1.135	0.518
1035.499	603.718	80.010	19.996	103.209	19.951	1.113	0.487
1035.999	603.936	80.008	19.995	103.210	19.951	1.166	0.481
1036.499	604.227	80.010	19.995	103.214	19.949	1.299	0.496
1037.000	604.446	80.007	19.994	103.215	19.955	0.910	0.510
1037.500	604.700	80.009	19.995	103.214	19.949	1.272	0.492
1037.999	604.971	80.009	19.993	103.213	19.952	1.050	0.499
1038.499	605.231	80.010	19.996	103.213	19.950	1.200	0.528
1038.999	605.506	80.008	19.993	103.214	19.952	1.058	0.533
1039.499	605.733	80.007	19.994	103.212	19.948	1.313	0.519
1039.999	606.016	80.008	19.995	103.213	19.953	1.002	0.506
1040.499	606.277	80.007	19.994	103.214	19.953	1.013	0.527
1040.999	606.514	80.007	19.994	103.213	19.954	0.948	0.521
1041.499	606.797	80.008	19.994	103.208	19.954	0.924	0.509
1042.000	607.035	80.007	19.995	103.208	19.955	0.899	0.520
1042.500	607.278	80.009	19.995	103.207	19.949	1.279	0.501
1042.999	607.542	80.008	19.996	103.206	19.949	1.261	0.494
1043.499	607.812	80.008	19.994	103.207	19.949	1.268	0.521
1043.999	608.063	80.008	19.996	103.206	19.958	0.687	0.527
1044.499	608.300	80.007	19.995	103.208	19.953	1.032	0.504
1044.999	608.563	80.008	19.995	103.213	19.950	1.241	0.494
1045.500	608.809	80.008	19.995	103.213	19.954	0.930	0.504
1046.000	609.064	80.007	19.995	103.216	19.954	0.962	0.505
1046.500	609.337	80.008	19.995	103.219	19.952	1.094	0.515
1047.000	609.602	80.009	19.995	103.219	19.953	1.000	0.533
1047.500	609.834	80.007	19.995	103.214	19.951	1.162	0.517
1048.000	610.138	80.009	19.995	103.214	19.955	0.847	0.516
1048.499	610.327	80.007	19.995	103.212	19.954	0.942	0.514
1049.000	610.630	80.006	19.994	103.209	19.953	0.989	0.492
1049.500	610.858	80.008	19.994	103.207	19.955	0.849	0.512
1050.000	611.128	80.007	19.995	103.206	19.953	0.978	0.514
1050.499	611.351	80.007	19.994	103.206	19.949	1.290	0.495
1050.999	611.611	80.007	19.994	103.205	19.952	1.061	0.488
1051.499	611.910	80.008	19.996	103.205	19.954	0.950	0.521
1051.999	612.119	80.010	19.995	103.204	19.955	0.883	0.534
1052.499	612.384	80.009	19.996	103.204	19.953	0.980	0.492
1053.000	612.633	80.008	19.995	103.204	19.951	1.113	0.495
1053.500	612.898	80.008	19.994	103.204	19.953	0.995	0.514
1053.999	613.154	80.008	19.996	103.205	19.953	1.009	0.517
1054.499	613.434	80.008	19.995	103.205	19.953	1.043	0.529
1054.999	613.675	80.008	19.995	103.204	19.952	1.058	0.529
1055.499	613.922	80.009	19.997	103.204	19.952	1.104	0.504
1055.999	614.178	80.007	19.996	103.204	19.952	1.097	0.495
1056.499	614.423	80.008	19.995	103.205	19.955	0.908	0.502
1056.999	614.693	80.008	19.997	103.204	19.955	0.903	0.508
1057.499	614.966	80.007	19.994	103.206	19.959	0.628	0.529
1057.999	615.219	80.008	19.996	103.205	19.954	0.942	0.535
1058.499	615.459	80.008	19.996	103.205	19.956	0.813	0.509
1059.000	615.685	80.008	19.995	103.204	19.950	1.196	0.479
1059.500	616.003	80.007	19.995	103.204	19.954	0.966	0.505
1059.999	616.222	80.007	19.996	103.202	19.952	1.086	0.541
1060.499	616.469	80.008	19.994	103.204	19.957	0.727	0.502
1060.999	616.755	80.008	19.995	103.203	19.956	0.833	0.499
1061.499	616.992	80.007	19.994	103.203	19.953	0.978	0.528
1061.999	617.216	80.008	19.995	103.203	19.953	1.011	0.492
1062.500	617.499	80.008	19.994	103.203	19.958	0.701	0.484
1063.000	617.745	80.007	19.995	103.202	19.954	0.968	0.518
1063.500	618.007	80.008	19.995	103.202	19.957	0.775	0.518
1064.000	618.245	80.008	19.995	103.203	19.957	0.719	0.504
1064.499	618.499	80.008	19.995	103.204	19.955	0.899	0.496
1064.999	618.749	80.008	19.996	103.204	19.954	0.919	0.498
1065.499	619.003	80.008	19.995	103.205	19.957	0.757	0.505
1066.000	619.274	80.008	19.995	103.205	19.952	1.084	0.514
1066.500	619.520	80.008	19.995	103.206	19.953	1.041	0.521
1067.000	619.752	80.008	19.994	103.206	19.956	0.804	0.498
1067.499	620.006	80.011	19.996	103.206	19.955	0.899	0.482
1067.999	620.273	80.009	19.994	103.205	19.953	0.982	0.504
1068.499	620.529	80.009	19.996	103.204	19.955	0.870	0.522
1068.999	620.772	80.010	19.994	103.203	19.953	0.982	0.511
1069.499	621.040	80.009	19.995	103.203	19.958	0.700	0.505
1069.999	621.282	80.009	19.995	103.202	19.950	1.219	0.510
1070.500	621.537	80.010	19.995	103.203	19.954	0.948	0.503
1071.000	621.757	80.009	19.996	103.205	19.953	1.013	0.486
1071.500	622.012	80.010	19.997	103.205	19.953	0.980	0.475
1072.000	622.273	80.009	19.995	103.207	19.953	1.022	0.495
1072.500	622.531	80.008	19.996	103.208	19.961	0.487	0.517
1073.000	622.792	80.008	19.997	103.208	19.954	0.933	0.519
1073.500	623.038	80.008	19.996	103.208	19.953	1.040	0.513
1074.000	623.317	80.009	19.996	103.209	19.953	1.011	0.516
1074.500	623.603	80.009	19.996	103.209	19.952	1.088	0.545
1075.000	623.811	80.008	19.996	103.208	19.953	1.020	0.530
1075.499	624.071	80.008	19.996	103.207	19.954	0.921	0.481
1075.999	624.340	80.008	19.995	103.206	19.956	0.817	0.499
1076.499	624.551	80.010	19.995	103.204	19.953	0.989	0.505
1076.999	624.833	80.008	19.997	103.201	19.953	1.032	0.486
1077.500	625.079	80.009	19.997	103.201	19.955	0.899	0.510
1078.000	625.349	80.009	19.996	103.201	19.954	0.953	0.522
1078.499	625.600	80.008	19.996	103.204	19.952	1.101	0.519
1079.000	625.824	80.010	19.996	103.204	19.952	1.110	0.498
1079.500	626.085	80.009	19.996	103.204	19.951	1.153	0.480
1079.999	626.346	80.008	19.996	103.207	19.950	1.180	0.504
1080.499	626.582	80.010	19.997	103.208	19.951	1.126	0.509
1080.999	626.838	80.008	19.996	103.210	19.950	1.185	0.494
1081.499	627.100	80.009	19.996	103.215	19.949	1.306	0.505
1081.999	627.345	80.010	19.996	103.215	19.949	1.277	0.513
1082.499	627.618	80.009	19.996	103.215	19.945	1.520	0.513
1082.999	627.854	80.010	19.995	103.215	19.951	1.173	0.514
1083.499	628.133	80.010	19.996	103.211	19.949	1.277	0.511
1083.999	628.355	80.009	19.996	103.206	19.951	1.157	0.508
1084.499	628.629	80.009	19.994	103.208	19.951	1.171	0.499
1084.999	628.846	80.009	19.994	103.207	19.952	1.099	0.494
1085.499	629.124	80.008	19.994	103.206	19.951	1.135	0.493
1086.000	629.393	80.009	19.994	103.204	19.951	1.138	0.521
1086.500	629.655	80.009	19.997	103.205	19.948	1.331	0.539
1086.999	629.837	80.009	19.995	103.208	19.951	1.113	0.487
1087.499	630.126	80.009	19.993	103.211	19.953	1.032	0.457
1087.999	630.390	80.010	19.994	103.212	19.945	1.531	0.512
1088.500	630.650	80.009	19.995	103.212	19.952	1.061	0.538
1089.000	630.917	80.009	19.994	103.213	19.948	1.343	0.525
1089.499	631.150	80.010	19.995	103.212	19.950	1.196	0.513
1089.999	631.431	80.010	19.994	103.212	19.950	1.182	0.507
1090.499	631.698	80.007	19.993	103.213	19.951	1.171	0.531
1090.999	631.897	80.009	19.994	103.214	19.953	0.982	0.507
1091.499	632.172	80.011	19.995	103.213	19.949	1.268	0.470
1092.000	632.414	80.010	19.994	103.211	19.948	1.374	0.496
1092.500	632.648	80.011	19.994	103.207	19.950	1.185	0.496
1093.000	632.895	80.010	19.995	103.206	19.950	1.201	0.478
1093.499	633.136	80.011	19.994	103.206	19.947	1.392	0.484
1093.999	633.395	80.009	19.993	103.210	19.950	1.178	0.494
1094.499	633.661	80.011	19.993	103.216	19.950	1.185	0.513
1094.999	633.909	80.011	19.995	103.218	19.947	1.379	0.519
1095.499	634.176	80.010	19.994	103.218	19.953	1.041	0.515
1095.999	634.417	80.012	19.993	103.218	19.951	1.167	0.512
1096.499	634.714	80.011	19.993	103.212	19.945	1.516	0.523
1096.999	634.963	80.012	19.995	103.205	19.946	1.446	0.542
1097.499	635.231	80.011	19.994	103.207	19.953	1.007	0.531
1097.999	635.490	80.013	19.994	103.207	19.949	1.277	0.522
1098.499	635.743	80.010	19.994	103.207	19.951	1.156	0.520
1098.999	635.966	80.010	19.994	103.208	19.957	0.746	0.494
1099.499	636.256	80.011	19.993	103.208	19.951	1.142	0.494
1099.999	636.499	80.011	19.993	103.205	19.949	1.248	0.522
1100.499	636.763	80.011	19.993	103.205	19.951	1.162	0.520
1100.999	636.990	80.009	19.995	103.203	19.953	1.007	0.500
1101.499	637.242	80.010	19.995	103.203	19.955	0.890	0.485
1101.999	637.476	80.009	19.994	103.203	19.949	1.279	0.482
1102.499	637.741	80.009	19.993	103.204	19.951	1.155	0.492
1102.999	638.006	80.009	19.995	103.207	19.954	0.943	0.514
1103.500	638.261	80.008	19.994	103.213	19.952	1.079	0.525
1104.000	638.524	80.009	19.996	103.213	19.949	1.291	0.519
1104.499	638.738	80.008	19.994	103.213	19.945	1.568	0.498
1104.999	639.027	80.009	19.995	103.212	19.947	1.396	0.490
1105.499	639.284	80.008	19.994	103.212	19.950	1.241	0.525
1106.000	639.524	80.009	19.995	103.207	19.949	1.255	0.521
1106.500	639.769	80.008	19.996	103.207	19.954	0.948	0.491
1106.999	640.006	80.008	19.994	103.207	19.955	0.867	0.484
1107.499	640.248	80.008	19.994	103.207	19.950	1.238	0.480
1107.999	640.491	80.006	19.994	103.205	19.950	1.245	0.482
1108.499	640.741	80.009	19.995	103.207	19.950	1.180	0.489
1108.999	641.012	80.008	19.994	103.208	19.951	1.131	0.507
1109.499	641.251	80.007	19.995	103.208	19.952	1.065	0.515
1110.000	641.540	80.007	19.993	103.210	19.954	0.977	0.519
1110.500	641.772	80.008	19.994	103.210	19.953	0.995	0.525
1110.999	642.043	80.008	19.995	103.210	19.949	1.273	0.512
1111.499	642.301	80.010	19.995	103.209	19.951	1.149	0.516
1111.999	642.556	80.008	19.994	103.209	19.951	1.162	0.521
1112.499	642.790	80.010	19.995	103.207	19.956	0.840	0.501
1112.999	643.037	80.009	19.995	103.207	19.952	1.072	0.485
1113.499	643.292	80.007	19.995	103.210	19.950	1.198	0.491
1114.000	643.571	80.008	19.994	103.215	19.952	1.052	0.518
1114.500	643.805	80.008	19.994	103.216	19.954	0.935	0.523
1114.999	644.043	80.009	19.996	103.216	19.951	1.120	0.493
1115.499	644.312	80.008	19.993	103.216	19.958	0.676	0.490
1115.999	644.567	80.008	19.995	103.213	19.951	1.133	0.516
1116.499	644.800	80.009	19.995	103.210	19.952	1.049	0.505
1117.000	645.087	80.010	19.995	103.212	19.954	0.964	0.504
1117.500	645.330	80.009	19.993	103.219	19.949	1.281	0.525
1118.000	645.574	80.009	19.994	103.222	19.952	1.050	0.509
1118.500	645.776	80.010	19.994	103.220	19.955	0.906	0.466
1118.999	646.069	80.008	19.995	103.219	19.947	1.433	0.470
1119.499	646.332	80.010	19.994	103.216	19.950	1.178	0.526
1119.999	646.561	80.009	19.994	103.209	19.948	1.351	0.524
1120.499	646.785	80.010	19.995	103.205	19.951	1.135	0.473
1120.999	647.048	80.008	19.994	103.205	19.959	0.626	0.470
1121.499	647.310	80.009	19.995	103.207	19.957	0.723	0.506
1121.999	647.559	80.008	19.996	103.205	19.954	0.919	0.518
1122.499	647.820	80.007	19.994	103.210	19.949	1.282	0.510
1123.000	648.078	80.009	19.994	103.215	19.953	1.040	0.514
1123.500	648.352	80.009	19.994	103.215	19.956	0.826	0.526
1123.999	648.611	80.011	19.995	103.213	19.958	0.703	0.533
1124.499	648.850	80.010	19.994	103.213	19.956	0.799	0.516
1124.999	649.082	80.008	19.995	103.209	19.957	0.732	0.485
1125.499	649.385	80.010	19.994	103.205	19.951	1.115	0.503
1125.999	649.639	80.008	19.993	103.204	19.959	0.628	0.546
1126.500	649.894	80.010	19.995	103.204	19.947	1.433	0.533
1127.000	650.148	80.009	19.994	103.205	19.952	1.092	0.509
1127.499	650.384	80.009	19.994	103.205	19.951	1.173	0.499
1127.999	650.622	80.009	19.994	103.205	19.953	1.014	0.482
1128.499	650.899	80.010	19.996	103.205	19.953	1.023	0.495
1128.999	651.160	80.010	19.994	103.206	19.948	1.322	0.527
1129.499	651.382	80.009	19.995	103.207	19.951	1.165	0.510
1129.999	651.674	80.010	19.995	103.207	19.948	1.369	0.499
1130.500	651.928	80.009	19.994	103.207	19.949	1.306	0.530
1131.000	652.189	80.008	19.995	103.207	19.954	0.939	0.530
1131.500	652.424	80.009	19.994	103.206	19.948	1.338	0.506
1132.000	652.686	80.008	19.994	103.203	19.952	1.090	0.497
1132.499	652.951	80.010	19.995	103.205	19.946	1.455	0.512
1132.999	653.172	80.008	19.995	103.207	19.947	1.396	0.506
1133.500	653.431	80.007	19.994	103.207	19.947	1.381	0.483
1134.000	653.660	80.007	19.994	103.206	19.952	1.108	0.484
1134.499	653.943	80.007	19.996	103.206	19.947	1.439	0.501
1134.999	654.187	80.009	19.995	103.205	19.949	1.302	0.520
1135.499	654.413	80.009	19.996	103.203	19.950	1.237	0.499
1136.000	654.697	80.008	19.996	103.203	19.955	0.870	0.490
1136.500	654.933	80.007	19.995	103.204	19.951	1.142	0.515
1136.999	655.183	80.008	19.994	103.204	19.955	0.878	0.503
1137.499	655.465	80.007	19.995	103.203	19.955	0.879	0.509
1137.999	655.704	80.008	19.995	103.204	19.948	1.343	0.526
1138.499	655.977	80.009	19.996	103.204	19.951	1.138	0.516
1139.000	656.180	80.007	19.997	103.204	19.954	0.959	0.495
1139.500	656.401	80.007	19.994	103.204	19.951	1.120	0.450
1139.999	656.659	80.007	19.995	103.204	19.950	1.227	0.451
1140.499	656.916	80.006	19.995	103.205	19.949	1.311	0.497
1141.000	657.100	80.008	19.995	103.205	19.960	0.552	0.478
1141.500	657.382	80.008	19.995	103.204	19.953	1.040	0.454
1141.999	657.606	80.008	19.996	103.204	19.956	0.793	0.486
1142.499	657.848	80.009	19.995	103.204	19.952	1.068	0.486
1143.000	658.102	80.008	19.994	103.202	19.959	0.624	0.481
1143.500	658.318	80.009	19.996	103.202	19.952	1.106	0.483
1144.000	658.559	80.008	19.994	103.200	19.951	1.135	0.463
1144.500	658.804	80.010	19.994	103.199	19.951	1.142	0.471
1144.999	659.032	80.008	19.994	103.199	19.950	1.187	0.479
1145.499	659.262	80.009	19.995	103.200	19.943	1.653	0.466
1145.999	659.498	80.010	19.996	103.201	19.951	1.138	0.462
1146.499	659.738	80.010	19.995	103.202	19.957	0.748	0.471
1146.999	659.997	80.008	19.995	103.201	19.953	1.038	0.488
1147.499	660.226	80.010	19.996	103.201	19.955	0.874	0.493
1148.000	660.452	80.011	19.995	103.201	19.955	0.851	0.472
1148.500	660.707	80.008	19.994	103.201	19.952	1.067	0.468
1148.999	660.959	80.010	19.995	103.201	19.955	0.899	0.494
1149.499	661.192	80.011	19.995	103.203	19.954	0.930	0.496
1149.999	661.409	80.009	19.995	103.204	19.957	0.737	0.468
1150.500	661.672	80.011	19.995	103.205	19.957	0.745	0.465
1151.000	661.892	80.009	19.995	103.206	19.953	1.014	0.481
1151.500	662.127	80.011	19.995	103.206	19.958	0.705	0.469
1152.000	662.364	80.010	19.994	103.206	19.952	1.092	0.464
1152.499	662.592	80.009	19.994	103.205	19.953	1.014	0.469
1152.999	662.821	80.009	19.994	103.205	19.956	0.784	0.461
1153.499	663.077	80.010	19.994	103.204	19.954	0.944	0.471
1153.999	663.320	80.009	19.993	103.204	19.950	1.205	0.492
1154.499	663.549	80.011	19.995	103.204	19.955	0.874	0.485
1154.999	663.747	80.010	19.995	103.204	19.950	1.230	0.450
1155.499	664.009	80.010	19.994	103.205	19.951	1.169	0.443
1155.999	664.246	80.011	19.996	103.205	19.954	0.941	0.480
1156.499	664.457	80.009	19.995	103.205	19.947	1.432	0.474
1156.999	664.687	80.009	19.994	103.205	19.950	1.212	0.445
1157.499	664.929	80.010	19.995	103.205	19.955	0.888	0.457
1158.000	665.132	80.008	19.994	103.204	19.952	1.104	0.458
1158.500	665.402	80.010	19.995	103.204	19.955	0.874	0.459
1158.999	665.608	80.009	19.995	103.204	19.956	0.834	0.474
1159.499	665.843	80.009	19.994	103.204	19.949	1.253	0.458
1159.999	666.036	80.010	19.995	103.204	19.950	1.203	0.435
1160.499	666.268	80.010	19.996	103.204	19.952	1.077	0.427
1160.999	666.535	80.009	19.994	103.204	19.949	1.304	0.462
1161.500	666.756	80.008	19.994	103.204	19.952	1.110	0.493
1162.000	666.983	80.010	19.996	103.203	19.949	1.302	0.468
1162.500	667.234	80.009	19.995	103.201	19.948	1.358	0.463
1163.000	667.442	80.010	19.995	103.201	19.953	1.025	0.469
1163.500	667.654	80.011	19.996	103.200	19.951	1.174	0.440
1163.999	667.911	80.007	19.996	103.200	19.953	0.986	0.445
1164.499	668.096	80.009	19.997	103.200	19.954	0.915	0.455
1164.999	668.375	80.007	19.996	103.204	19.950	1.237	0.453
1165.499	668.567	80.009	19.996	103.205	19.952	1.065	0.468
1165.999	668.823	80.008	19.996	103.205	19.950	1.209	0.460
1166.499	669.031	80.011	19.996	103.205	19.951	1.137	0.456
1166.999	669.278	80.008	19.996	103.204	19.951	1.169	0.459
1167.499	669.509	80.008	19.994	103.202	19.954	0.933	0.466
1167.999	669.735	80.009	19.994	103.202	19.955	0.845	0.468
1168.499	669.967	80.009	19.996	103.202	19.946	1.480	0.458
1168.999	670.213	80.008	19.995	103.202	19.947	1.379	0.468
1169.499	670.444	80.008	19.995	103.203	19.949	1.279	0.477
1170.000	670.661	80.009	19.994	103.201	19.955	0.903	0.463
1170.500	670.870	80.009	19.995	103.200	19.957	0.775	0.437
1171.000	671.075	80.008	19.996	103.199	19.950	1.243	0.420
1171.500	671.298	80.008	19.996	103.200	19.950	1.230	0.421
1172.000	671.541	80.010	19.997	103.202	19.947	1.432	0.447
1172.500	671.753	80.010	19.995	103.205	19.952	1.090	0.460
1173.000	672.032	80.010	19.995	103.207	19.944	1.590	0.473
1173.500	672.270	80.010	19.994	103.208	19.949	1.306	0.504
1174.000	672.502	80.009	19.995	103.208	19.950	1.221	0.494
1174.500	672.744	80.012	19.994	103.207	19.946	1.503	0.472
1174.999	672.981	80.009	19.993	103.207	19.950	1.227	0.476
1175.499	673.231	80.011	19.993	103.206	19.944	1.631	0.483
1175.999	673.444	80.010	19.994	103.206	19.950	1.194	0.475
1176.499	673.667	80.010	19.994	103.206	19.952	1.104	0.449
1176.999	673.932	80.010	19.995	103.205	19.951	1.137	0.462
1177.499	674.209	80.009	19.994	103.206	19.949	1.264	0.515
1178.000	674.444	80.010	19.994	103.207	19.950	1.236	0.527
1178.500	674.648	80.012	19.995	103.207	19.949	1.288	0.475
1179.000	674.927	80.011	19.994	103.207	19.947	1.405	0.461
1179.500	675.130	80.010	19.994	103.206	19.947	1.392	0.483
1179.999	675.407	80.011	19.995	103.205	19.952	1.065	0.481
1180.499	675.626	80.010	19.993	103.204	19.950	1.241	0.488
1180.999	675.868	80.011	19.993	103.204	19.948	1.356	0.478
1181.499	676.073	80.011	19.995	103.203	19.948	1.372	0.454
1182.000	676.355	80.011	19.994	103.204	19.951	1.162	0.467
1182.500	676.580	80.009	19.993	103.206	19.951	1.111	0.497
1182.999	676.829	80.010	19.993	103.207	19.946	1.455	0.491
1183.499	677.081	80.008	19.994	103.207	19.950	1.178	0.488
1183.999	677.335	80.011	19.994	103.207	19.946	1.464	0.503
1184.499	677.543	80.009	19.993	103.206	19.949	1.306	0.484
1184.999	677.793	80.010	19.995	103.203	19.952	1.077	0.460
1185.499	678.046	80.009	19.994	103.202	19.954	0.973	0.480
1185.999	678.296	80.007	19.994	103.202	19.950	1.210	0.503
1186.499	678.526	80.008	19.995	103.204	19.949	1.311	0.491
1186.999	678.748	80.008	19.993	103.205	19.950	1.239	0.466
1187.500	678.976	80.008	19.994	103.205	19.944	1.615	0.451
1188.000	679.215	80.009	19.994	103.208	19.944	1.604	0.459
1188.499	679.508	80.008	19.994	103.211	19.945	1.543	0.500
1189.000	679.699	80.009	19.994	103.209	19.949	1.250	0.508
1189.500	680.027	80.008	19.994	103.208	19.949	1.271	0.502
1190.000	680.184	80.007	19.994	103.208	19.952	1.052	0.502
1190.500	680.472	80.009	19.994	103.206	19.946	1.451	0.465
1191.000	680.753	80.009	19.996	103.203	19.944	1.590	0.507
1191.500	681.015	80.008	19.994	103.204	19.952	1.102	0.556
1192.000	681.211	80.008	19.996	103.203	19.949	1.302	0.500
1192.500	681.463	80.008	19.994	103.204	19.952	1.086	0.453
1193.000	681.702	80.009	19.994	103.204	19.950	1.212	0.469
1193.499	681.908	80.008	19.994	103.203	19.950	1.216	0.468
1193.999	682.217	80.008	19.994	103.203	19.947	1.421	0.480
1194.499	682.464	80.009	19.995	103.203	19.952	1.077	0.536
1194.999	682.692	80.008	19.995	103.203	19.953	0.984	0.516
1195.499	682.954	80.009	19.995	103.203	19.949	1.266	0.483
1195.999	683.191	80.009	19.994	103.204	19.949	1.286	0.495
1196.499	683.401	80.007	19.995	103.204	19.951	1.165	0.473
1196.999	683.697	80.007	19.993	103.203	19.945	1.529	0.476
1197.500	683.948	80.010	19.996	103.203	19.948	1.369	0.526
1198.000	684.154	80.008	19.994	103.201	19.949	1.281	0.502
1198.500	684.404	80.007	19.994	103.198	19.942	1.746	0.457
1199.000	684.615	80.008	19.996	103.194	19.948	1.369	0.459
1199.500	684.882	80.007	19.994	103.195	19.948	1.336	0.470
1199.999	685.147	80.007	19.994	103.195	19.950	1.182	0.505
1200.499	685.370	80.009	19.994	103.196	19.948	1.324	0.510
1200.999	685.569	80.008	19.994	103.199	19.955	0.849	0.455
1201.499	685.804	80.007	19.994	103.201	19.950	1.227	0.428
1201.999	686.061	80.009	19.995	103.201	19.952	1.081	0.463
1202.500	686.291	80.007	19.995	103.201	19.948	1.340	0.489
1203.000	686.530	80.010	19.995	103.200	19.950	1.189	0.478
1203.499	686.828	80.008	19.994	103.200	19.943	1.698	0.503
1203.999	687.035	80.011	19.995	103.200	19.946	1.466	0.521
1204.499	687.279	80.009	19.994	103.201	19.947	1.392	0.478
1204.999	687.496	80.010	19.994	103.201	19.948	1.313	0.456
1205.499	687.764	80.009	19.995	103.201	19.949	1.304	0.473
1205.999	688.008	80.008	19.994	103.201	19.944	1.588	0.499
1206.500	688.238	80.010	19.995	103.201	19.948	1.338	0.493
1207.000	688.513	80.009	19.995	103.201	19.951	1.167	0.490
1207.500	688.752	80.009	19.994	103.201	19.946	1.457	0.509
1208.000	689.019	80.008	19.994	103.202	19.946	1.477	0.509
1208.499	689.226	80.010	19.995	103.202	19.948	1.313	0.490
1208.999	689.483	80.009	19.994	103.202	19.946	1.500	0.469
1209.499	689.693	80.008	19.994	103.202	19.945	1.522	0.466
1209.999	689.956	80.010	19.993	103.202	19.953	1.027	0.470
1210.499	690.192	80.009	19.994	103.202	19.950	1.207	0.485
1210.999	690.437	80.010	19.995	103.202	19.950	1.239	0.490
1211.499	690.686	80.008	19.994	103.202	19.950	1.216	0.488
1211.999	690.961	80.009	19.994	103.202	19.942	1.719	0.509
1212.499	691.187	80.007	19.994	103.202	19.950	1.210	0.512
1212.999	691.436	80.007	19.993	103.202	19.949	1.263	0.488
1213.499	691.715	80.010	19.994	103.202	19.952	1.083	0.501
1213.999	691.941	80.009	19.994	103.202	19.949	1.288	0.516
1214.499	692.162	80.010	19.995	103.202	19.947	1.408	0.476
1215.000	692.402	80.008	19.993	103.203	19.947	1.383	0.455
1215.500	692.695	80.007	19.994	103.203	19.947	1.408	0.497
1216.000	692.904	80.009	19.994	103.204	19.946	1.507	0.517
1216.499	693.160	80.010	19.994	103.205	19.943	1.664	0.483
1216.999	693.430	80.009	19.995	103.205	19.948	1.326	0.495
1217.499	693.650	80.009	19.994	103.205	19.941	1.788	0.508
1217.999	693.900	80.007	19.994	103.205	19.945	1.559	0.480
1218.499	694.169	80.008	19.994	103.206	19.947	1.405	0.495
1218.999	694.383	80.008	19.994	103.207	19.946	1.498	0.501
1219.499	694.636	80.007	19.993	103.207	19.945	1.529	0.475
1219.999	694.891	80.008	19.994	103.207	19.949	1.250	0.488
1220.500	695.131	80.007	19.994	103.207	19.945	1.518	0.502
1221.000	695.392	80.008	19.995	103.207	19.947	1.417	0.498
1221.500	695.660	80.008	19.994	103.206	19.941	1.824	0.515
1222.000	695.890	80.007	19.993	103.206	19.945	1.531	0.514
1222.500	696.102	80.008	19.995	103.207	19.948	1.374	0.470
1223.000	696.395	80.009	19.994	103.207	19.946	1.446	0.473
1223.500	696.653	80.008	19.994	103.206	19.947	1.397	0.528
1223.999	696.906	80.009	19.994	103.205	19.944	1.579	0.531
1224.499	697.170	80.008	19.996	103.205	19.942	1.762	0.514
1225.000	697.406	80.008	19.995	103.205	19.949	1.297	0.509
1225.500	697.614	80.009	19.995	103.205	19.943	1.651	0.472
1225.999	697.861	80.007	19.994	103.207	19.944	1.626	0.450
1226.499	698.109	80.010	19.996	103.207	19.946	1.446	0.475
1226.999	698.374	80.008	19.996	103.207	19.948	1.324	0.504
1227.499	698.603	80.009	19.996	103.207	19.948	1.318	0.503
1227.999	698.855	80.009	19.996	103.207	19.951	1.158	0.487
1228.499	699.106	80.009	19.996	103.206	19.945	1.575	0.492
1229.000	699.300	80.008	19.994	103.206	19.950	1.236	0.474
1229.500	699.554	80.008	19.995	103.206	19.950	1.189	0.447
1230.000	699.816	80.009	19.996	103.206	19.950	1.192	0.482
1230.500	700.046	80.009	19.994	103.205	19.949	1.282	0.504
1231.000	700.279	80.009	19.996	103.206	19.944	1.628	0.477
1231.500	700.575	80.009	19.995	103.206	19.946	1.480	0.496
1231.999	700.810	80.010	19.995	103.206	19.944	1.644	0.530
1232.499	701.064	80.008	19.995	103.205	19.947	1.392	0.510
1232.999	701.280	80.008	19.993	103.205	19.946	1.491	0.480
1233.499	701.552	80.009	19.995	103.205	19.950	1.216	0.479
1233.999	701.798	80.009	19.995	103.205	19.949	1.300	0.503
1234.499	702.041	80.007	19.994	103.203	19.954	0.977	0.504
1235.000	702.300	80.009	19.994	103.203	19.953	1.018	0.495
1235.500	702.559	80.008	19.993	103.202	19.947	1.406	0.510
1235.999	702.755	80.010	19.995	103.201	19.950	1.243	0.487
1236.499	702.995	80.008	19.995	103.201	19.951	1.158	0.446
1236.999	703.273	80.009	19.995	103.202	19.949	1.282	0.477
1237.499	703.479	80.009	19.994	103.198	19.947	1.415	0.501
1237.999	703.742	80.008	19.994	103.197	19.947	1.379	0.476
1238.500	704.007	80.008	19.995	103.198	19.952	1.095	0.499
1239.000	704.222	80.008	19.994	103.198	19.949	1.273	0.504
1239.499	704.478	80.008	19.994	103.199	19.947	1.421	0.476
1240.000	704.767	80.009	19.993	103.203	19.950	1.227	0.508
1240.500	704.972	80.009	19.994	103.204	19.948	1.376	0.520
1240.999	705.215	80.009	19.993	103.204	19.947	1.390	0.471
1241.499	705.436	80.009	19.994	103.203	19.948	1.343	0.456
1241.999	705.709	80.009	19.994	103.205	19.946	1.446	0.479
1242.499	705.927	80.008	19.993	103.205	19.950	1.205	0.492
1242.999	706.144	80.009	19.994	103.206	19.950	1.209	0.463
1243.499	706.425	80.009	19.994	103.204	19.948	1.345	0.467
1243.999	706.655	80.009	19.995	103.201	19.949	1.253	0.504
1244.499	706.886	80.009	19.995	103.200	19.949	1.295	0.486
1245.000	707.140	80.009	19.995	103.200	19.949	1.273	0.473
1245.500	707.352	80.009	19.993	103.200	19.951	1.131	0.476
1246.000	707.615	80.009	19.994	103.202	19.949	1.248	0.470
1246.499	707.844	80.010	19.994	103.205	19.949	1.297	0.483
1246.999	708.059	80.009	19.994	103.205	19.948	1.343	0.468
1247.499	708.320	80.010	19.994	103.204	19.947	1.403	0.460
1248.000	708.571	80.009	19.994	103.204	19.950	1.189	0.494
1248.500	708.796	80.010	19.995	103.203	19.947	1.396	0.494
1249.000	709.080	80.009	19.994	103.203	19.950	1.221	0.493
1249.500	709.272	80.009	19.995	103.202	19.952	1.097	0.493
1250.000	709.516	80.010	19.994	103.202	19.948	1.358	0.456
1250.500	709.729	80.009	19.995	103.202	19.950	1.244	0.447
1251.000	709.997	80.009	19.993	103.202	19.948	1.336	0.470
1251.500	710.239	80.009	19.995	103.202	19.950	1.187	0.496
1252.000	710.462	80.008	19.995	103.202	19.949	1.264	0.487
1252.499	710.724	80.009	19.995	103.202	19.947	1.397	0.475
1252.999	710.961	80.009	19.995	103.201	19.950	1.190	0.492
1253.499	711.172	80.009	19.995	103.199	19.951	1.145	0.474
1254.000	711.419	80.009	19.995	103.199	19.949	1.246	0.453
1254.500	711.665	80.009	19.995	103.198	19.952	1.047	0.476
1255.000	711.921	80.010	19.994	103.198	19.947	1.412	0.497
1255.500	712.140	80.010	19.994	103.198	19.950	1.205	0.489
1255.999	712.380	80.011	19.994	103.199	19.948	1.374	0.467
1256.499	712.653	80.011	19.995	103.198	19.947	1.385	0.486
1256.999	712.907	80.010	19.995	103.199	19.953	1.038	0.520
1257.499	713.090	80.009	19.995	103.198	19.950	1.185	0.482
1258.000	713.303	80.011	19.995	103.199	19.950	1.192	0.417
1258.500	713.568	80.012	19.995	103.199	19.950	1.243	0.437
1259.000	713.784	80.011	19.995	103.200	19.951	1.142	0.479
1259.500	714.069	80.011	19.995	103.200	19.950	1.207	0.491
1259.999	714.298	80.008	19.995	103.199	19.949	1.304	0.508
1260.500	714.505	80.009	19.995	103.195	19.947	1.415	0.475
1261.000	714.776	80.010	19.996	103.195	19.946	1.466	0.457
1261.500	714.994	80.010	19.997	103.194	19.945	1.525	0.483
1262.000	715.258	80.011	19.995	103.193	19.951	1.162	0.486
1262.499	715.487	80.010	19.996	103.192	19.943	1.701	0.488
1262.999	715.717	80.010	19.994	103.194	19.949	1.270	0.476
1263.499	715.978	80.011	19.995	103.194	19.948	1.336	0.475
1263.999	716.202	80.010	19.995	103.191	19.944	1.631	0.488
1264.499	716.463	80.011	19.996	103.189	19.949	1.268	0.485
1264.999	716.655	80.009	19.996	103.188	19.950	1.239	0.469
1265.499	716.916	80.010	19.995	103.185	19.949	1.277	0.453
1266.000	717.142	80.010	19.995	103.186	19.948	1.369	0.470
1266.500	717.396	80.009	19.995	103.189	19.946	1.462	0.484
1266.999	717.618	80.009	19.995	103.189	19.949	1.254	0.478
1267.500	717.834	80.009	19.995	103.189	19.951	1.135	0.457
1268.000	718.118	80.008	19.995	103.195	19.948	1.351	0.469
1268.499	718.337	80.008	19.995	103.194	19.948	1.369	0.501
1268.999	718.590	80.008	19.995	103.195	19.951	1.115	0.487
1269.499	718.827	80.008	19.995	103.198	19.945	1.552	0.481
1269.999	719.049	80.007	19.994	103.200	19.948	1.376	0.474
1270.499	719.288	80.008	19.994	103.199	19.954	0.964	0.459
1270.999	719.513	80.010	19.996	103.195	19.949	1.264	0.463
1271.499	719.765	80.008	19.994	103.190	19.947	1.381	0.471
1271.999	720.007	80.008	19.995	103.186	19.950	1.191	0.485
1272.499	720.259	80.009	19.994	103.187	19.950	1.225	0.494
1272.999	720.462	80.008	19.995	103.189	19.950	1.200	0.474
1273.500	720.733	80.008	19.995	103.191	19.946	1.453	0.464
1274.000	720.965	80.009	19.995	103.193	19.953	1.002	0.488
1274.500	721.183	80.007	19.995	103.196	19.948	1.327	0.476
1275.000	721.405	80.009	19.994	103.195	19.947	1.388	0.445
1275.499	721.684	80.008	19.995	103.194	19.953	1.032	0.471
1275.999	721.903	80.009	19.995	103.196	19.951	1.162	0.500
1276.499	722.146	80.008	19.993	103.199	19.949	1.291	0.480
1276.999	722.365	80.007	19.994	103.200	19.950	1.245	0.462
1277.499	722.625	80.009	19.995	103.201	19.947	1.415	0.471
1277.999	722.897	80.009	19.996	103.202	19.952	1.092	0.505
1278.499	723.056	80.009	19.994	103.202	19.948	1.345	0.481
1278.999	723.325	80.008	19.995	103.202	19.948	1.376	0.430
1279.499	723.579	80.008	19.995	103.202	19.952	1.066	0.476
1279.999	723.830	80.009	19.995	103.202	19.952	1.093	0.514
1280.500	724.099	80.009	19.995	103.201	19.951	1.176	0.512
1281.000	724.354	80.009	19.994	103.201	19.950	1.234	0.522
1281.499	724.521	80.008	19.994	103.201	19.952	1.106	0.473
1282.000	724.778	80.009	19.995	103.202	19.955	0.869	0.423
1282.500	725.041	80.008	19.994	103.202	19.952	1.059	0.472
1283.000	725.276	80.009	19.994	103.203	19.952	1.045	0.509
1283.500	725.509	80.008	19.995	103.203	19.952	1.110	0.483
1284.000	725.779	80.009	19.996	103.203	19.949	1.270	0.486
1284.500	725.972	80.010	19.994	103.204	19.957	0.768	0.483
1285.000	726.221	80.009	19.994	103.205	19.953	1.005	0.453
1285.500	726.464	80.009	19.994	103.204	19.956	0.815	0.467
1286.000	726.735	80.009	19.994	103.203	19.953	1.011	0.503
1286.500	726.953	80.009	19.995	103.202	19.955	0.879	0.501
1287.000	727.204	80.008	19.995	103.201	19.955	0.849	0.479
1287.500	727.474	80.009	19.995	103.200	19.952	1.108	0.495
1288.000	727.694	80.009	19.994	103.201	19.951	1.122	0.506
1288.499	727.882	80.008	19.994	103.201	19.952	1.085	0.449
1288.999	728.163	80.010	19.995	103.198	19.950	1.210	0.438
1289.499	728.407	80.008	19.995	103.199	19.951	1.165	0.497
1289.999	728.667	80.009	19.994	103.199	19.952	1.106	0.515
1290.499	728.920	80.009	19.994	103.198	19.954	0.932	0.508
1291.000	729.159	80.008	19.995	103.199	19.950	1.214	0.502
1291.500	729.424	80.009	19.994	103.202	19.953	0.982	0.498
1292.000	729.633	80.007	19.995	103.202	19.954	0.964	0.489
1292.500	729.906	80.008	19.994	103.203	19.952	1.068	0.478
1293.000	730.153	80.009	19.994	103.203	19.953	1.000	0.501
1293.500	730.417	80.009	19.995	103.202	19.953	1.014	0.516
1293.999	730.651	80.008	19.994	103.204	19.952	1.061	0.505
1294.500	730.902	80.008	19.994	103.203	19.952	1.095	0.491
1295.000	731.161	80.008	19.994	103.201	19.952	1.083	0.497
1295.500	731.386	80.009	19.995	103.201	19.952	1.047	0.497
1295.999	731.667	80.009	19.994	103.202	19.953	0.987	0.495
1296.499	731.902	80.008	19.994	103.202	19.951	1.148	0.511
1296.999	732.135	80.007	19.994	103.203	19.953	1.009	0.492
1297.499	732.409	80.008	19.994	103.205	19.954	0.917	0.488
1297.999	732.698	80.009	19.994	103.206	19.949	1.275	0.535
1298.499	732.921	80.010	19.996	103.206	19.948	1.351	0.538
1298.999	733.181	80.008	19.995	103.207	19.949	1.288	0.498
1299.499	733.426	80.007	19.995	103.207	19.947	1.410	0.494
1299.999	733.684	80.007	19.994	103.207	19.952	1.061	0.504
1300.500	733.918	80.008	19.995	103.207	19.952	1.049	0.497
1301.000	734.179	80.007	19.994	103.206	19.953	1.014	0.494
1301.500	734.442	80.007	19.995	103.206	19.951	1.147	0.510
1302.000	734.657	80.007	19.993	103.206	19.950	1.223	0.501
1302.500	734.957	80.007	19.994	103.208	19.949	1.268	0.496
1302.999	735.197	80.009	19.995	103.209	19.950	1.185	0.527
1303.499	735.448	80.008	19.994	103.209	19.953	1.022	0.516
1303.999	735.713	80.007	19.994	103.209	19.955	0.896	0.504
1304.499	735.997	80.009	19.995	103.208	19.949	1.254	0.532
1304.999	736.258	80.008	19.994	103.208	19.948	1.322	0.547
1305.499	736.473	80.007	19.995	103.207	19.952	1.083	0.510
1305.999	736.710	80.006	19.995	103.207	19.950	1.232	0.464
1306.499	736.982	80.007	19.994	103.208	19.947	1.417	0.481
1306.999	737.258	80.007	19.994	103.210	19.947	1.387	0.529
1307.499	737.508	80.009	19.995	103.210	19.951	1.128	0.537
1307.999	737.758	80.008	19.994	103.211	19.950	1.225	0.513
1308.499	738.015	80.009	19.994	103.211	19.949	1.252	0.503
1308.999	738.291	80.009	19.994	103.211	19.948	1.369	0.520
1309.499	738.552	80.009	19.994	103.209	19.954	0.966	0.535
1309.999	738.789	80.009	19.994	103.209	19.948	1.329	0.517
1310.499	739.085	80.009	19.995	103.207	19.950	1.236	0.515
1311.000	739.349	80.010	19.995	103.207	19.948	1.331	0.547
1311.500	739.610	80.011	19.994	103.206	19.955	0.881	0.543
1311.999	739.863	80.009	19.995	103.206	19.945	1.550	0.520
1312.499	740.128	80.010	19.995	103.205	19.948	1.369	0.516
1312.999	740.394	80.009	19.995	103.205	19.950	1.216	0.524
1313.499	740.666	80.010	19.993	103.204	19.949	1.298	0.534
1313.999	740.911	80.011	19.995	103.203	19.946	1.450	0.527
1314.499	741.199	80.011	19.994	103.203	19.949	1.275	0.525
1315.000	741.438	80.010	19.994	103.204	19.947	1.428	0.530
1315.500	741.686	80.010	19.994	103.205	19.948	1.378	0.507
1315.999	741.986	80.010	19.993	103.205	19.947	1.419	0.518
1316.500	742.245	80.011	19.994	103.205	19.953	1.016	0.553
1317.000	742.480	80.010	19.993	103.204	19.949	1.284	0.526
1317.499	742.737	80.010	19.994	103.203	19.950	1.241	0.493
1318.000	743.018	80.010	19.994	103.202	19.947	1.387	0.515
1318.500	743.254	80.009	19.993	103.202	19.947	1.379	0.527
