Sample ID:	C:\MCC\MCC Cal\Test\Bamboo_RugA_MCC_30K_min_211124_R2.txt
Sample Weight (mg):	4.67
Heating Rate (C/s):	0.5
Combustor Temp (C):	900
N2 Flow Rate (cc/min):	80
O2 Flow Rate (cc/min):	20
Calibration File:	C:\MCC\MCC Cal\Coeff1 JN10440_30_210304.txt.txt
T Correction Coefficients:	0	1.024463	0
Time Shift (s):	14
*
Time (s)	Temperature (C)	N2 flow rate (cc/min)	O2 flow rate (cc/min)	Flow Rate (cc/min)	Oxygen (%)	HRR (W/g)	Heating rate (C/s)
-0.001	108.987	80.009	19.998	103.115	20.144	-0.039	-0.000
0.499	109.001	80.006	19.996	103.120	20.144	-0.054	0.027
1.000	108.990	80.007	19.995	103.124	20.143	0.019	0.019
1.500	108.938	80.006	19.996	103.123	20.143	0.009	-0.030
2.000	108.995	80.007	19.996	103.121	20.149	-0.422	-0.029
2.499	108.991	80.005	19.995	103.115	20.145	-0.110	0.030
3.000	108.988	80.007	19.996	103.107	20.147	-0.260	0.023
3.500	108.989	80.007	19.995	103.102	20.144	-0.020	-0.005
4.000	108.970	80.008	19.994	103.100	20.145	-0.123	-0.010
4.500	108.963	80.007	19.994	103.104	20.147	-0.236	-0.022
5.000	108.984	80.008	19.994	103.110	20.147	-0.225	-0.006
5.500	108.948	80.007	19.995	103.113	20.146	-0.162	-0.001
6.000	108.951	80.007	19.994	103.112	20.146	-0.212	-0.024
6.500	108.965	80.009	19.994	103.108	20.147	-0.251	-0.008
7.000	108.945	80.008	19.994	103.105	20.147	-0.277	0.005
7.500	108.964	80.008	19.995	103.100	20.142	0.058	-0.004
8.000	108.947	80.007	19.995	103.104	20.147	-0.283	0.000
8.500	108.955	80.007	19.996	103.107	20.145	-0.095	-0.004
9.000	108.939	80.007	19.994	103.111	20.145	-0.117	-0.008
9.500	108.966	80.006	19.994	103.109	20.150	-0.437	0.002
10.000	108.951	80.008	19.994	103.109	20.144	-0.041	0.011
10.500	108.953	80.007	19.994	103.105	20.144	-0.037	-0.001
11.000	108.969	80.007	19.994	103.108	20.145	-0.099	0.003
11.500	108.956	80.006	19.994	103.110	20.143	0.034	0.011
12.000	108.944	80.008	19.993	103.117	20.141	0.141	-0.011
12.500	108.974	80.007	19.996	103.124	20.139	0.328	-0.004
13.000	108.965	80.006	19.994	103.133	20.141	0.147	0.020
13.500	108.982	80.006	19.994	103.141	20.138	0.378	0.015
14.000	108.947	80.006	19.994	103.149	20.139	0.268	-0.005
14.500	108.935	80.007	19.995	103.157	20.137	0.436	-0.033
15.000	108.932	80.007	19.995	103.163	20.136	0.506	-0.031
15.500	108.957	80.009	19.993	103.167	20.138	0.342	0.004
16.000	108.993	80.008	19.993	103.169	20.134	0.671	0.041
16.500	108.956	80.007	19.994	103.176	20.133	0.725	0.030
17.000	108.995	80.008	19.993	103.184	20.133	0.695	0.001
17.500	108.999	80.007	19.994	103.192	20.135	0.565	0.023
18.000	108.997	80.008	19.994	103.200	20.133	0.715	0.022
18.500	109.037	80.009	19.994	103.205	20.129	1.002	0.020
19.000	109.047	80.007	19.993	103.208	20.131	0.847	0.044
19.500	109.057	80.009	19.994	103.214	20.130	0.894	0.035
20.000	109.094	80.008	19.993	103.219	20.128	1.063	0.034
20.500	109.127	80.009	19.993	103.225	20.127	1.096	0.059
21.000	109.119	80.007	19.994	103.233	20.129	1.011	0.047
21.500	109.157	80.007	19.994	103.245	20.128	1.052	0.028
22.000	109.142	80.008	19.994	103.253	20.125	1.277	0.027
22.500	109.188	80.007	19.995	103.261	20.122	1.451	0.026
23.000	109.232	80.008	19.994	103.268	20.122	1.457	0.060
23.500	109.275	80.007	19.994	103.275	20.122	1.436	0.089
24.000	109.262	80.008	19.993	103.279	20.126	1.223	0.059
24.500	109.326	80.008	19.995	103.283	20.124	1.342	0.041
25.000	109.354	80.007	19.995	103.283	20.130	0.918	0.072
25.500	109.394	80.008	19.994	103.271	20.127	1.106	0.080
26.000	109.408	80.008	19.993	103.247	20.129	1.007	0.061
26.500	109.422	80.009	19.995	103.215	20.128	1.055	0.041
27.000	109.487	80.009	19.994	103.179	20.131	0.821	0.053
27.500	109.520	80.009	19.994	103.150	20.133	0.691	0.088
28.000	109.546	80.010	19.995	103.130	20.135	0.565	0.079
28.500	109.576	80.011	19.995	103.116	20.135	0.602	0.058
29.000	109.622	80.010	19.994	103.110	20.134	0.660	0.066
29.500	109.651	80.010	19.994	103.103	20.134	0.637	0.075
30.000	109.712	80.011	19.995	103.095	20.137	0.412	0.082
30.500	109.731	80.008	19.995	103.094	20.138	0.398	0.085
31.000	109.758	80.008	19.994	103.094	20.139	0.268	0.064
31.500	109.805	80.009	19.994	103.093	20.139	0.329	0.060
32.000	109.863	80.010	19.994	103.093	20.139	0.329	0.089
32.499	109.827	80.007	19.994	103.093	20.141	0.152	0.063
32.999	109.870	80.009	19.995	103.093	20.142	0.095	0.014
33.499	109.929	80.009	19.994	103.094	20.141	0.143	0.054
33.999	109.973	80.008	19.994	103.097	20.143	0.006	0.103
34.499	110.017	80.009	19.995	103.099	20.141	0.126	0.096
34.999	110.013	80.007	19.995	103.099	20.143	-0.015	0.064
35.499	110.063	80.008	19.995	103.098	20.141	0.173	0.043
36.000	110.063	80.008	19.994	103.094	20.140	0.240	0.048
36.501	110.103	80.007	19.994	103.091	20.145	-0.100	0.045
37.000	110.135	80.007	19.995	103.089	20.144	-0.084	0.056
37.499	110.140	80.006	19.994	103.089	20.144	-0.084	0.054
37.999	110.148	80.007	19.994	103.088	20.148	-0.323	0.025
38.499	110.168	80.006	19.995	103.087	20.146	-0.175	0.020
38.999	110.174	80.007	19.994	103.086	20.146	-0.182	0.027
39.500	110.218	80.006	19.995	103.089	20.146	-0.208	0.039
40.001	110.213	80.005	19.995	103.089	20.145	-0.097	0.045
40.501	110.228	80.006	19.995	103.090	20.144	-0.072	0.024
41.000	110.280	80.006	19.995	103.091	20.145	-0.085	0.038
41.500	110.280	80.006	19.994	103.091	20.143	0.009	0.060
42.000	110.297	80.006	19.994	103.089	20.145	-0.134	0.035
42.499	110.350	80.006	19.995	103.088	20.145	-0.123	0.044
42.999	110.300	80.005	19.994	103.088	20.146	-0.158	0.036
43.499	110.329	80.005	19.994	103.088	20.147	-0.225	-0.009
43.999	110.399	80.006	19.994	103.088	20.146	-0.193	0.039
44.499	110.391	80.005	19.995	103.088	20.144	-0.045	0.080
44.999	110.397	80.006	19.995	103.088	20.143	-0.004	0.030
45.499	110.429	80.006	19.996	103.089	20.144	-0.019	0.018
45.999	110.427	80.006	19.995	103.089	20.141	0.182	0.034
46.499	110.444	80.006	19.994	103.092	20.145	-0.087	0.022
46.999	110.444	80.005	19.995	103.092	20.145	-0.093	0.016
47.499	110.452	80.006	19.995	103.094	20.141	0.171	0.013
47.999	110.484	80.005	19.994	103.094	20.142	0.067	0.024
48.499	110.498	80.006	19.995	103.093	20.145	-0.147	0.043
49.000	110.536	80.006	19.995	103.091	20.145	-0.123	0.049
49.501	110.522	80.005	19.995	103.090	20.146	-0.206	0.038
50.001	110.536	80.005	19.995	103.089	20.144	-0.052	0.012
50.500	110.517	80.005	19.994	103.089	20.148	-0.316	-0.003
50.999	110.575	80.007	19.995	103.089	20.146	-0.208	0.017
51.499	110.581	80.005	19.995	103.089	20.147	-0.277	0.052
51.999	110.548	80.006	19.996	103.090	20.144	-0.076	0.018
52.499	110.581	80.006	19.995	103.090	20.146	-0.203	-0.014
53.000	110.602	80.006	19.994	103.090	20.146	-0.190	0.027
53.501	110.602	80.006	19.996	103.090	20.148	-0.295	0.038
54.001	110.611	80.005	19.995	103.092	20.146	-0.204	0.015
54.501	110.604	80.007	19.995	103.093	20.147	-0.258	0.005
55.001	110.661	80.005	19.996	103.094	20.149	-0.373	0.026
55.500	110.647	80.005	19.995	103.094	20.149	-0.392	0.047
55.999	110.636	80.005	19.994	103.094	20.147	-0.229	0.009
56.499	110.664	80.003	19.996	103.092	20.146	-0.206	-0.004
57.000	110.652	80.006	19.995	103.092	20.146	-0.188	0.016
57.500	110.673	80.006	19.996	103.092	20.148	-0.359	0.013
58.000	110.680	80.004	19.995	103.092	20.146	-0.169	0.019
58.501	110.682	80.004	19.995	103.092	20.145	-0.141	0.018
59.000	110.656	80.006	19.996	103.092	20.146	-0.184	-0.007
59.499	110.669	80.006	19.997	103.091	20.145	-0.139	-0.019
59.999	110.679	80.004	19.996	103.091	20.145	-0.123	0.005
60.499	110.689	80.006	19.997	103.091	20.145	-0.143	0.022
60.999	110.694	80.006	19.995	103.092	20.145	-0.132	0.017
61.499	110.681	80.004	19.997	103.092	20.146	-0.158	0.003
61.999	110.722	80.005	19.998	103.093	20.147	-0.238	0.010
62.499	110.729	80.004	19.997	103.093	20.146	-0.182	0.038
62.999	110.744	80.004	19.997	103.093	20.146	-0.201	0.035
63.499	110.730	80.005	19.997	103.092	20.148	-0.355	0.011
64.000	110.754	80.006	19.996	103.091	20.145	-0.097	0.006
64.500	110.751	80.005	19.997	103.091	20.147	-0.242	0.016
64.999	110.762	80.005	19.996	103.090	20.148	-0.351	0.015
65.499	110.750	80.004	19.996	103.091	20.150	-0.452	0.003
65.999	110.746	80.004	19.997	103.090	20.149	-0.420	-0.009
66.499	110.764	80.004	19.996	103.089	20.146	-0.204	-0.001
67.000	110.737	80.004	19.995	103.089	20.147	-0.269	0.002
67.501	110.773	80.005	19.996	103.089	20.147	-0.271	0.000
68.001	110.806	80.004	19.994	103.089	20.147	-0.253	0.040
68.501	110.796	80.006	19.995	103.089	20.147	-0.236	0.046
69.000	110.777	80.006	19.995	103.090	20.145	-0.115	-0.003
69.500	110.778	80.004	19.996	103.090	20.145	-0.089	-0.023
70.000	110.788	80.004	19.995	103.091	20.149	-0.379	-0.004
70.500	110.795	80.004	19.994	103.091	20.148	-0.340	0.013
71.000	110.791	80.004	19.996	103.092	20.148	-0.299	0.010
71.499	110.774	80.005	19.994	103.093	20.149	-0.360	-0.009
71.999	110.782	80.004	19.996	103.093	20.151	-0.541	-0.015
72.499	110.776	80.005	19.995	103.093	20.149	-0.375	-0.003
73.000	110.789	80.004	19.996	103.092	20.146	-0.208	0.004
73.500	110.773	80.005	19.995	103.092	20.149	-0.368	0.002
74.000	110.773	80.005	19.995	103.093	20.149	-0.414	-0.009
74.500	110.763	80.005	19.994	103.094	20.149	-0.377	-0.013
74.999	110.763	80.004	19.996	103.094	20.150	-0.491	-0.010
75.499	110.771	80.005	19.995	103.094	20.150	-0.476	-0.001
75.999	110.810	80.005	19.994	103.094	20.149	-0.362	0.028
76.499	110.771	80.005	19.995	103.093	20.151	-0.502	0.024
76.999	110.792	80.005	19.996	103.092	20.146	-0.201	-0.009
77.499	110.777	80.005	19.995	103.091	20.149	-0.368	-0.006
77.999	110.808	80.006	19.995	103.092	20.147	-0.242	0.010
78.499	110.796	80.005	19.995	103.092	20.147	-0.260	0.017
78.999	110.827	80.007	19.994	103.092	20.148	-0.297	0.019
79.499	110.809	80.007	19.995	103.091	20.147	-0.262	0.016
79.999	110.787	80.005	19.994	103.094	20.149	-0.422	-0.014
80.499	110.805	80.006	19.994	103.097	20.147	-0.260	-0.022
80.999	110.807	80.006	19.995	103.097	20.148	-0.355	0.008
81.499	110.805	80.007	19.995	103.097	20.149	-0.383	0.010
81.999	110.778	80.007	19.995	103.097	20.147	-0.258	-0.015
82.499	110.812	80.007	19.994	103.093	20.146	-0.175	-0.011
82.999	110.789	80.007	19.995	103.090	20.149	-0.388	0.009
83.499	110.775	80.006	19.995	103.089	20.147	-0.262	-0.013
84.000	110.809	80.009	19.995	103.088	20.150	-0.435	-0.009
84.500	110.753	80.008	19.993	103.089	20.147	-0.229	-0.002
84.999	110.800	80.007	19.995	103.088	20.147	-0.284	-0.015
85.499	110.792	80.008	19.995	103.090	20.151	-0.507	0.016
85.999	110.785	80.007	19.994	103.090	20.149	-0.386	0.012
86.499	110.779	80.006	19.995	103.090	20.147	-0.266	-0.014
86.999	110.787	80.007	19.995	103.090	20.145	-0.134	-0.005
87.499	110.749	80.009	19.995	103.091	20.148	-0.331	-0.014
87.999	110.795	80.008	19.995	103.088	20.149	-0.366	-0.011
88.499	110.763	80.009	19.994	103.088	20.150	-0.444	0.011
89.000	110.756	80.007	19.994	103.088	20.148	-0.344	-0.012
89.501	110.784	80.007	19.995	103.086	20.149	-0.366	-0.009
90.000	110.801	80.008	19.994	103.085	20.148	-0.359	0.033
90.499	110.769	80.008	19.995	103.086	20.149	-0.364	0.015
90.999	110.767	80.006	19.996	103.086	20.152	-0.583	-0.025
91.499	110.732	80.006	19.994	103.086	20.149	-0.386	-0.036
92.000	110.739	80.007	19.995	103.087	20.144	-0.019	-0.032
92.500	110.731	80.007	19.996	103.088	20.145	-0.137	-0.015
92.999	110.755	80.008	19.994	103.088	20.146	-0.203	0.007
93.500	110.758	80.007	19.995	103.088	20.144	-0.052	0.022
94.000	110.732	80.007	19.995	103.088	20.146	-0.203	0.002
94.499	110.719	80.007	19.995	103.088	20.147	-0.277	-0.032
94.999	110.735	80.007	19.995	103.088	20.145	-0.152	-0.018
95.499	110.725	80.007	19.995	103.088	20.147	-0.253	0.005
96.000	110.713	80.007	19.994	103.088	20.144	-0.054	-0.008
96.500	110.700	80.008	19.995	103.087	20.148	-0.314	-0.024
97.000	110.669	80.007	19.993	103.087	20.150	-0.483	-0.034
97.500	110.729	80.007	19.995	103.087	20.149	-0.394	-0.007
97.999	110.714	80.007	19.996	103.087	20.149	-0.412	0.037
98.500	110.710	80.007	19.994	103.087	20.149	-0.390	0.013
99.001	110.699	80.008	19.996	103.087	20.148	-0.331	-0.017
99.500	110.680	80.007	19.995	103.088	20.152	-0.574	-0.022
99.999	110.700	80.007	19.995	103.086	20.149	-0.381	-0.014
100.500	110.701	80.007	19.995	103.086	20.148	-0.318	0.011
101.000	110.685	80.005	19.995	103.085	20.153	-0.671	0.002
101.499	110.703	80.008	19.994	103.085	20.149	-0.386	-0.007
101.999	110.675	80.007	19.994	103.085	20.151	-0.552	-0.003
102.499	110.659	80.007	19.995	103.087	20.150	-0.496	-0.026
102.999	110.675	80.008	19.994	103.086	20.149	-0.427	-0.022
103.499	110.674	80.007	19.994	103.086	20.151	-0.541	0.007
103.999	110.637	80.007	19.994	103.086	20.151	-0.524	-0.012
104.499	110.659	80.007	19.995	103.086	20.151	-0.552	-0.026
104.999	110.645	80.009	19.994	103.090	20.152	-0.628	-0.004
105.499	110.639	80.007	19.994	103.091	20.150	-0.487	-0.006
105.999	110.602	80.007	19.994	103.092	20.149	-0.398	-0.031
106.499	110.579	80.008	19.993	103.091	20.149	-0.414	-0.052
107.000	110.593	80.008	19.995	103.091	20.150	-0.485	-0.035
107.500	110.582	80.008	19.994	103.087	20.149	-0.420	-0.003
107.999	110.600	80.009	19.994	103.088	20.147	-0.269	0.005
108.499	110.590	80.010	19.993	103.088	20.148	-0.297	0.008
108.999	110.562	80.008	19.995	103.088	20.149	-0.370	-0.015
109.499	110.562	80.009	19.994	103.089	20.149	-0.405	-0.034
109.999	110.587	80.008	19.994	103.088	20.151	-0.526	-0.002
110.499	110.619	80.009	19.994	103.088	20.149	-0.396	0.041
111.000	110.608	80.009	19.995	103.088	20.148	-0.340	0.039
111.500	110.625	80.008	19.995	103.088	20.151	-0.556	0.013
112.000	110.545	80.010	19.993	103.090	20.150	-0.431	-0.029
112.500	110.587	80.007	19.995	103.091	20.152	-0.606	-0.051
112.999	110.571	80.009	19.995	103.092	20.147	-0.264	-0.006
113.499	110.553	80.010	19.994	103.091	20.150	-0.476	-0.004
114.000	110.596	80.009	19.994	103.091	20.151	-0.498	-0.004
114.500	110.553	80.009	19.994	103.088	20.149	-0.381	0.012
114.999	110.570	80.008	19.994	103.083	20.151	-0.539	-0.013
115.499	110.566	80.009	19.994	103.081	20.151	-0.518	-0.007
115.999	110.534	80.008	19.995	103.082	20.151	-0.541	-0.011
116.499	110.514	80.008	19.994	103.082	20.149	-0.401	-0.044
117.000	110.552	80.009	19.993	103.084	20.147	-0.262	-0.017
117.500	110.509	80.007	19.995	103.088	20.149	-0.372	0.007
118.000	110.515	80.008	19.995	103.090	20.150	-0.431	-0.021
118.500	110.506	80.006	19.992	103.091	20.148	-0.305	-0.020
118.999	110.481	80.007	19.993	103.087	20.148	-0.299	-0.018
119.499	110.504	80.007	19.995	103.086	20.150	-0.470	-0.018
119.999	110.519	80.006	19.994	103.086	20.147	-0.262	0.018
120.500	110.464	80.006	19.994	103.087	20.149	-0.411	-0.001
121.001	110.470	80.007	19.995	103.086	20.153	-0.669	-0.045
121.500	110.466	80.005	19.994	103.088	20.147	-0.242	-0.023
121.999	110.459	80.007	19.994	103.088	20.151	-0.517	-0.004
122.499	110.444	80.006	19.994	103.088	20.152	-0.587	-0.017
122.999	110.462	80.005	19.995	103.087	20.152	-0.595	-0.010
123.499	110.460	80.005	19.996	103.090	20.152	-0.622	0.009
124.000	110.430	80.006	19.994	103.092	20.150	-0.431	-0.008
124.500	110.413	80.005	19.995	103.091	20.150	-0.444	-0.039
124.999	110.451	80.005	19.996	103.091	20.151	-0.522	-0.013
125.499	110.414	80.007	19.996	103.090	20.151	-0.522	0.011
125.999	110.384	80.005	19.995	103.089	20.151	-0.498	-0.033
126.500	110.436	80.005	19.996	103.089	20.149	-0.386	-0.023
127.001	110.396	80.005	19.994	103.090	20.151	-0.500	0.017
127.500	110.384	80.005	19.995	103.090	20.151	-0.513	-0.020
127.999	110.402	80.006	19.994	103.090	20.150	-0.492	-0.023
128.500	110.368	80.007	19.995	103.090	20.152	-0.589	-0.005
129.000	110.349	80.005	19.994	103.090	20.149	-0.392	-0.034
129.500	110.386	80.005	19.995	103.089	20.151	-0.552	-0.017
130.000	110.370	80.004	19.995	103.090	20.153	-0.643	0.019
130.500	110.342	80.005	19.995	103.091	20.148	-0.307	-0.011
131.000	110.371	80.005	19.994	103.091	20.147	-0.281	-0.021
131.500	110.371	80.003	19.996	103.092	20.146	-0.165	0.015
132.000	110.346	80.006	19.996	103.092	20.149	-0.409	0.002
132.500	110.343	80.006	19.995	103.092	20.143	-0.004	-0.027
133.000	110.316	80.005	19.995	103.091	20.146	-0.193	-0.029
133.500	110.342	80.006	19.995	103.090	20.146	-0.208	-0.015
134.000	110.301	80.004	19.995	103.090	20.147	-0.290	-0.008
134.500	110.307	80.006	19.994	103.089	20.145	-0.145	-0.025
135.000	110.330	80.005	19.995	103.090	20.147	-0.260	-0.003
135.500	110.321	80.004	19.996	103.089	20.147	-0.253	0.021
136.000	110.296	80.005	19.995	103.091	20.147	-0.242	-0.010
136.500	110.283	80.006	19.995	103.090	20.147	-0.279	-0.036
137.000	110.314	80.006	19.994	103.090	20.148	-0.297	-0.010
137.500	110.279	80.005	19.994	103.091	20.151	-0.507	0.006
138.000	110.292	80.006	19.994	103.091	20.149	-0.414	-0.013
138.500	110.285	80.006	19.995	103.091	20.147	-0.229	-0.008
139.000	110.298	80.006	19.995	103.092	20.145	-0.147	0.006
139.500	110.269	80.005	19.995	103.092	20.148	-0.355	-0.005
140.000	110.268	80.006	19.994	103.091	20.146	-0.171	-0.023
140.500	110.251	80.006	19.995	103.092	20.147	-0.236	-0.024
141.000	110.230	80.006	19.994	103.092	20.147	-0.225	-0.028
141.500	110.258	80.008	19.995	103.092	20.148	-0.338	-0.016
142.000	110.216	80.008	19.995	103.091	20.148	-0.338	-0.004
142.500	110.238	80.007	19.995	103.091	20.148	-0.338	-0.017
143.000	110.206	80.006	19.994	103.091	20.146	-0.188	-0.015
143.500	110.231	80.006	19.995	103.091	20.151	-0.505	-0.008
144.000	110.207	80.007	19.994	103.091	20.145	-0.091	-0.002
144.500	110.185	80.007	19.994	103.090	20.146	-0.173	-0.022
145.000	110.201	80.006	19.995	103.089	20.145	-0.087	-0.026
145.500	110.176	80.005	19.995	103.088	20.146	-0.221	-0.008
146.000	110.145	80.007	19.994	103.087	20.150	-0.474	-0.033
146.500	110.164	80.006	19.995	103.087	20.147	-0.242	-0.033
147.000	110.145	80.005	19.995	103.088	20.150	-0.438	-0.006
147.500	110.165	80.006	19.995	103.088	20.148	-0.344	0.000
148.000	110.119	80.005	19.995	103.087	20.148	-0.329	-0.013
148.500	110.108	80.006	19.995	103.087	20.150	-0.429	-0.041
149.000	110.124	80.004	19.995	103.087	20.148	-0.355	-0.026
149.500	110.091	80.005	19.996	103.088	20.145	-0.150	-0.006
150.000	110.098	80.005	19.994	103.089	20.148	-0.342	-0.022
150.500	110.102	80.005	19.996	103.090	20.149	-0.364	-0.008
151.000	110.103	80.004	19.996	103.090	20.144	-0.022	0.008
151.500	110.122	80.006	19.995	103.091	20.147	-0.253	0.012
152.000	110.097	80.004	19.996	103.090	20.146	-0.162	0.007
152.500	110.099	80.005	19.997	103.090	20.149	-0.396	-0.014
153.000	110.077	80.004	19.996	103.090	20.150	-0.459	-0.022
153.500	110.075	80.004	19.995	103.090	20.147	-0.247	-0.022
154.000	110.083	80.004	19.995	103.089	20.146	-0.212	-0.009
154.500	110.067	80.005	19.995	103.089	20.148	-0.303	-0.001
155.000	110.090	80.005	19.996	103.088	20.148	-0.331	-0.000
155.500	110.033	80.005	19.995	103.087	20.147	-0.277	-0.014
156.000	110.051	80.004	19.995	103.087	20.146	-0.167	-0.037
156.500	110.067	80.004	19.996	103.087	20.146	-0.208	-0.003
157.000	110.042	80.004	19.995	103.087	20.149	-0.362	0.013
157.500	110.041	80.003	19.995	103.087	20.149	-0.360	-0.017
158.000	110.025	80.005	19.996	103.087	20.149	-0.388	-0.021
158.500	110.016	80.004	19.997	103.087	20.148	-0.299	-0.022
159.000	110.008	80.004	19.995	103.087	20.148	-0.301	-0.022
159.500	110.026	80.005	19.995	103.087	20.149	-0.411	-0.003
160.000	110.027	80.007	19.996	103.088	20.148	-0.301	0.015
160.500	110.022	80.005	19.996	103.088	20.146	-0.171	0.007
161.000	110.009	80.006	19.995	103.089	20.147	-0.290	-0.011
161.500	110.016	80.006	19.995	103.088	20.148	-0.301	-0.011
162.000	110.003	80.006	19.994	103.088	20.146	-0.154	-0.006
162.500	109.979	80.007	19.995	103.089	20.145	-0.150	-0.022
163.000	109.986	80.005	19.995	103.088	20.146	-0.197	-0.028
163.500	109.976	80.007	19.995	103.087	20.147	-0.268	-0.010
164.000	109.949	80.007	19.996	103.087	20.147	-0.229	-0.019
164.500	109.945	80.006	19.994	103.086	20.147	-0.264	-0.034
165.000	109.949	80.007	19.996	103.085	20.151	-0.505	-0.016
165.500	109.937	80.008	19.995	103.085	20.146	-0.204	-0.004
166.000	109.936	80.007	19.995	103.085	20.147	-0.255	-0.011
166.500	109.920	80.007	19.995	103.085	20.147	-0.286	-0.015
167.000	109.943	80.007	19.995	103.085	20.150	-0.466	-0.005
167.500	109.948	80.007	19.995	103.086	20.147	-0.230	0.017
168.000	109.905	80.009	19.993	103.086	20.148	-0.342	-0.005
168.500	109.917	80.008	19.995	103.087	20.147	-0.262	-0.034
169.000	109.882	80.008	19.995	103.087	20.147	-0.288	-0.027
169.500	109.896	80.008	19.995	103.087	20.144	-0.035	-0.022
170.000	109.893	80.007	19.994	103.087	20.146	-0.162	-0.005
170.500	109.932	80.008	19.995	103.087	20.145	-0.089	0.023
171.000	109.851	80.008	19.994	103.087	20.144	-0.058	-0.003
171.500	109.860	80.008	19.994	103.088	20.143	0.006	-0.057
172.000	109.845	80.007	19.994	103.088	20.145	-0.098	-0.039
172.500	109.859	80.008	19.994	103.088	20.147	-0.273	-0.004
173.000	109.857	80.007	19.994	103.088	20.144	-0.063	0.005
173.500	109.849	80.009	19.994	103.088	20.148	-0.323	0.001
174.000	109.839	80.007	19.994	103.088	20.148	-0.329	-0.014
174.500	109.808	80.007	19.995	103.087	20.146	-0.165	-0.030
175.000	109.817	80.008	19.994	103.087	20.148	-0.349	-0.032
175.500	109.788	80.007	19.994	103.087	20.149	-0.401	-0.021
176.000	109.805	80.007	19.994	103.088	20.149	-0.403	-0.016
176.500	109.782	80.009	19.994	103.091	20.147	-0.230	-0.009
177.000	109.768	80.006	19.995	103.091	20.149	-0.386	-0.022
177.500	109.772	80.007	19.994	103.090	20.149	-0.385	-0.024
178.000	109.760	80.008	19.994	103.089	20.148	-0.347	-0.009
178.500	109.794	80.006	19.994	103.089	20.147	-0.251	0.007
179.000	109.740	80.005	19.995	103.087	20.149	-0.409	0.000
179.500	109.769	80.008	19.996	103.088	20.147	-0.258	-0.023
180.000	109.730	80.008	19.994	103.091	20.148	-0.359	-0.017
180.500	109.767	80.007	19.995	103.092	20.151	-0.552	-0.005
181.000	109.746	80.007	19.994	103.091	20.148	-0.347	0.007
181.500	109.762	80.007	19.995	103.091	20.146	-0.193	0.005
182.000	109.756	80.009	19.994	103.091	20.145	-0.104	0.003
182.500	109.716	80.008	19.994	103.090	20.146	-0.190	-0.018
183.000	109.723	80.007	19.994	103.090	20.147	-0.225	-0.039
183.500	109.710	80.006	19.995	103.092	20.146	-0.219	-0.020
184.000	109.698	80.006	19.994	103.092	20.149	-0.405	-0.016
184.500	109.682	80.008	19.993	103.092	20.148	-0.295	-0.026
185.000	109.700	80.007	19.995	103.092	20.148	-0.336	-0.013
185.500	109.692	80.008	19.994	103.092	20.147	-0.223	0.006
186.000	109.716	80.006	19.994	103.091	20.148	-0.340	0.013
186.500	109.712	80.007	19.993	103.091	20.144	-0.084	0.018
187.000	109.666	80.007	19.994	103.091	20.150	-0.429	-0.014
187.500	109.695	80.007	19.993	103.091	20.145	-0.128	-0.033
188.000	109.695	80.007	19.995	103.091	20.146	-0.173	0.006
188.500	109.681	80.006	19.996	103.092	20.149	-0.388	0.007
189.000	109.671	80.009	19.994	103.092	20.150	-0.446	-0.019
189.500	109.692	80.008	19.995	103.092	20.146	-0.216	-0.006
190.000	109.687	80.008	19.994	103.092	20.150	-0.440	0.014
190.500	109.648	80.006	19.994	103.092	20.149	-0.426	-0.014
191.001	109.617	80.008	19.993	103.091	20.148	-0.340	-0.057
191.501	109.643	80.008	19.993	103.090	20.152	-0.630	-0.037
192.000	109.643	80.008	19.994	103.091	20.148	-0.314	0.011
192.501	109.638	80.008	19.993	103.090	20.145	-0.145	0.011
193.001	109.615	80.010	19.994	103.091	20.147	-0.249	-0.016
193.500	109.617	80.009	19.994	103.091	20.146	-0.195	-0.025
194.000	109.637	80.010	19.994	103.091	20.150	-0.487	0.000
194.500	109.622	80.009	19.994	103.091	20.146	-0.195	0.014
195.000	109.594	80.010	19.994	103.092	20.146	-0.201	-0.019
195.500	109.602	80.007	19.994	103.092	20.147	-0.249	-0.032
196.000	109.571	80.010	19.994	103.093	20.146	-0.169	-0.022
196.500	109.574	80.008	19.994	103.093	20.147	-0.223	-0.026
197.000	109.566	80.009	19.994	103.093	20.144	-0.037	-0.016
197.500	109.570	80.010	19.994	103.093	20.147	-0.223	-0.004
198.000	109.562	80.009	19.994	103.092	20.149	-0.373	-0.004
198.500	109.588	80.008	19.994	103.091	20.146	-0.180	0.007
199.000	109.533	80.009	19.994	103.091	20.146	-0.191	-0.005
199.500	109.562	80.010	19.995	103.091	20.144	-0.065	-0.028
200.000	109.535	80.009	19.994	103.091	20.147	-0.230	-0.012
200.500	109.540	80.006	19.994	103.091	20.145	-0.136	-0.010
201.000	109.543	80.008	19.993	103.092	20.145	-0.152	-0.007
201.500	109.556	80.006	19.992	103.092	20.147	-0.230	0.012
202.000	109.550	80.007	19.994	103.092	20.147	-0.275	0.011
202.500	109.525	80.008	19.993	103.092	20.146	-0.165	-0.012
203.000	109.528	80.006	19.995	103.092	20.147	-0.223	-0.026
203.500	109.531	80.007	19.994	103.091	20.146	-0.199	-0.008
204.000	109.517	80.007	19.994	103.091	20.145	-0.147	-0.003
204.500	109.513	80.007	19.994	103.091	20.149	-0.373	-0.015
205.000	109.543	80.007	19.994	103.090	20.146	-0.156	0.004
205.501	109.489	80.007	19.993	103.090	20.149	-0.366	0.001
206.000	109.501	80.006	19.994	103.090	20.148	-0.320	-0.033
206.500	109.483	80.007	19.993	103.090	20.146	-0.182	-0.024
207.001	109.476	80.007	19.994	103.089	20.142	0.059	-0.016
207.501	109.448	80.007	19.993	103.090	20.145	-0.093	-0.030
208.000	109.479	80.007	19.994	103.088	20.146	-0.184	-0.016
208.500	109.485	80.006	19.995	103.088	20.146	-0.190	0.020
209.000	109.448	80.006	19.993	103.088	20.147	-0.260	0.003
209.500	109.464	80.007	19.994	103.088	20.146	-0.169	-0.026
210.000	109.449	80.006	19.994	103.087	20.148	-0.323	-0.010
210.500	109.414	80.008	19.994	103.090	20.146	-0.195	-0.025
211.000	109.445	80.007	19.994	103.091	20.147	-0.258	-0.027
211.500	109.436	80.007	19.994	103.091	20.145	-0.117	0.009
212.000	109.425	80.007	19.994	103.091	20.147	-0.243	0.001
212.500	109.443	80.006	19.994	103.091	20.144	-0.045	-0.007
213.000	109.370	80.007	19.994	103.090	20.147	-0.288	-0.024
213.500	109.409	80.006	19.993	103.088	20.146	-0.193	-0.044
214.000	109.365	80.006	19.994	103.088	20.144	-0.080	-0.019
214.500	109.412	80.005	19.994	103.088	20.141	0.125	-0.001
215.000	109.392	80.008	19.995	103.088	20.143	-0.004	0.015
215.500	109.361	80.008	19.995	103.088	20.142	0.066	-0.012
216.000	109.364	80.007	19.994	103.088	20.146	-0.157	-0.039
216.500	109.367	80.006	19.995	103.088	20.144	-0.064	-0.011
217.000	109.353	80.007	19.996	103.088	20.143	-0.013	-0.003
217.500	109.345	80.006	19.995	103.088	20.145	-0.098	-0.017
218.000	109.333	80.007	19.995	103.088	20.145	-0.096	-0.021
218.500	109.368	80.007	19.995	103.088	20.141	0.148	0.001
219.000	109.363	80.008	19.995	103.088	20.142	0.062	0.027
219.500	109.356	80.009	19.994	103.088	20.143	0.047	0.009
220.000	109.333	80.007	19.995	103.089	20.143	0.049	-0.021
220.500	109.332	80.006	19.993	103.089	20.143	-0.011	-0.027
221.000	109.366	80.007	19.996	103.088	20.142	0.109	0.004
221.500	109.316	80.007	19.996	103.089	20.138	0.351	0.008
222.000	109.313	80.007	19.994	103.088	20.131	0.822	-0.035
222.500	109.290	80.007	19.996	103.088	20.132	0.816	-0.039
223.001	109.355	80.008	19.996	103.088	20.120	1.627	0.008
223.500	109.287	80.008	19.995	103.089	20.109	2.371	0.019
224.000	109.288	80.007	19.996	103.108	20.101	2.958	-0.035
224.500	109.267	80.008	19.996	103.195	20.089	3.802	-0.043
225.000	109.294	80.006	19.995	103.332	20.073	4.862	-0.006
225.500	109.330	80.007	19.995	103.502	20.064	5.528	0.035
226.000	109.366	80.008	19.995	103.693	20.052	6.332	0.067
226.500	109.373	80.007	19.995	103.874	20.043	6.960	0.057
227.000	109.489	80.007	19.996	103.996	20.035	7.515	0.083
227.500	109.530	80.007	19.995	104.070	20.023	8.357	0.140
228.000	109.637	80.007	19.996	104.113	20.013	9.082	0.152
228.500	109.713	80.006	19.995	104.132	20.008	9.430	0.166
229.000	109.837	80.007	19.995	104.141	20.001	9.897	0.192
229.500	109.978	80.008	19.995	104.144	19.995	10.288	0.232
230.000	110.150	80.008	19.995	104.144	19.989	10.698	0.289
230.501	110.306	80.006	19.995	104.142	19.984	11.081	0.320
231.000	110.493	80.007	19.995	104.141	19.982	11.232	0.335
231.500	110.679	80.007	19.995	104.138	19.979	11.400	0.358
232.000	110.871	80.006	19.994	104.131	19.978	11.457	0.376
232.500	111.086	80.006	19.996	104.124	19.971	11.938	0.393
233.000	111.324	80.007	19.995	104.116	19.969	12.076	0.430
233.500	111.557	80.006	19.994	104.107	19.966	12.291	0.462
234.000	111.836	80.008	19.996	104.099	19.967	12.211	0.492
234.501	112.037	80.006	19.995	104.094	19.968	12.203	0.496
235.000	112.380	80.006	19.994	104.087	19.964	12.482	0.512
235.500	112.648	80.007	19.995	104.079	19.967	12.260	0.577
236.000	112.946	80.005	19.995	104.073	19.965	12.396	0.588
236.500	113.306	80.007	19.995	104.069	19.964	12.419	0.612
237.000	113.577	80.006	19.993	104.065	19.962	12.566	0.645
237.500	113.893	80.006	19.994	104.064	19.961	12.681	0.609
238.000	114.239	80.005	19.995	104.061	19.962	12.608	0.625
238.500	114.615	80.005	19.995	104.055	19.961	12.663	0.692
239.001	114.959	80.006	19.994	104.048	19.959	12.815	0.721
239.501	115.279	80.007	19.997	104.042	19.959	12.757	0.692
240.000	115.677	80.005	19.995	104.035	19.959	12.800	0.691
240.500	116.095	80.006	19.996	104.031	19.961	12.652	0.766
241.000	116.455	80.005	19.997	104.027	19.964	12.424	0.797
241.500	116.869	80.006	19.996	104.023	19.967	12.206	0.777
242.000	117.317	80.006	19.997	104.017	19.966	12.292	0.818
242.500	117.706	80.006	19.996	104.010	19.966	12.270	0.849
243.000	118.128	80.005	19.995	104.001	19.966	12.264	0.824
243.500	118.566	80.006	19.995	103.995	19.966	12.282	0.835
244.000	119.017	80.007	19.997	103.991	19.968	12.139	0.875
244.500	119.445	80.007	19.996	103.984	19.967	12.236	0.884
245.000	119.923	80.007	19.996	103.979	19.969	12.077	0.893
245.500	120.391	80.007	19.996	103.974	19.969	12.097	0.926
246.000	120.874	80.007	19.995	103.969	19.970	12.045	0.948
246.500	121.346	80.007	19.995	103.963	19.972	11.893	0.953
247.000	121.838	80.007	19.995	103.959	19.973	11.787	0.960
247.500	122.283	80.007	19.995	103.957	19.975	11.660	0.951
248.000	122.817	80.007	19.995	103.948	19.976	11.598	0.958
248.500	123.295	80.007	19.996	103.938	19.977	11.558	0.995
249.000	123.845	80.006	19.995	103.929	19.977	11.523	1.020
249.500	124.330	80.008	19.997	103.918	19.980	11.325	1.032
250.001	124.860	80.008	19.997	103.903	19.984	11.040	1.025
250.501	125.420	80.007	19.995	103.893	19.983	11.086	1.053
251.000	125.915	80.008	19.996	103.885	19.983	11.082	1.072
251.500	126.449	80.007	19.997	103.876	19.987	10.806	1.042
252.000	126.967	80.008	19.997	103.864	19.987	10.831	1.041
252.500	127.471	80.007	19.996	103.856	19.989	10.692	1.036
253.000	128.028	80.007	19.995	103.848	19.989	10.668	1.042
253.500	128.558	80.007	19.995	103.839	19.991	10.535	1.075
254.000	129.137	80.007	19.996	103.833	19.992	10.488	1.098
254.500	129.681	80.007	19.994	103.831	19.990	10.654	1.116
255.000	130.288	80.006	19.996	103.828	19.992	10.491	1.137
255.500	130.802	80.008	19.995	103.823	19.996	10.208	1.136
256.000	131.364	80.006	19.996	103.822	19.999	9.993	1.099
256.500	131.924	80.007	19.996	103.814	19.998	10.043	1.099
257.000	132.494	80.007	19.996	103.807	19.999	9.997	1.126
257.500	133.051	80.007	19.995	103.801	20.001	9.887	1.129
258.000	133.632	80.006	19.996	103.790	19.998	10.035	1.132
258.500	134.218	80.006	19.995	103.778	20.004	9.663	1.152
259.000	134.767	80.007	19.995	103.771	20.003	9.694	1.151
259.500	135.337	80.007	19.995	103.763	20.005	9.591	1.128
260.000	135.959	80.007	19.994	103.757	20.009	9.310	1.156
260.500	136.497	80.006	19.995	103.757	20.009	9.315	1.176
261.000	137.092	80.007	19.995	103.751	20.008	9.385	1.147
261.500	137.680	80.008	19.994	103.742	20.011	9.174	1.158
262.000	138.246	80.007	19.995	103.735	20.011	9.145	1.168
262.500	138.837	80.007	19.994	103.727	20.013	9.000	1.155
263.000	139.420	80.007	19.994	103.719	20.014	8.979	1.165
263.500	139.990	80.007	19.994	103.715	20.016	8.841	1.163
264.000	140.620	80.007	19.995	103.714	20.016	8.805	1.176
264.500	141.250	80.007	19.994	103.714	20.017	8.773	1.230
265.000	141.812	80.007	19.994	103.710	20.018	8.676	1.226
265.500	142.369	80.006	19.994	103.708	20.014	8.925	1.156
266.000	143.015	80.007	19.994	103.702	20.019	8.618	1.161
266.500	143.596	80.006	19.995	103.697	20.020	8.536	1.215
267.000	144.171	80.008	19.994	103.690	20.021	8.487	1.192
267.500	144.804	80.008	19.995	103.686	20.023	8.343	1.182
268.000	145.407	80.007	19.995	103.680	20.024	8.244	1.222
268.500	145.977	80.008	19.996	103.679	20.024	8.255	1.204
269.000	146.566	80.009	19.995	103.678	20.025	8.201	1.166
269.500	147.161	80.009	19.995	103.677	20.029	7.941	1.171
270.000	147.751	80.008	19.994	103.670	20.028	7.969	1.185
270.500	148.342	80.009	19.995	103.666	20.030	7.813	1.183
271.000	148.954	80.010	19.996	103.658	20.030	7.869	1.192
271.500	149.552	80.009	19.994	103.652	20.031	7.773	1.206
272.000	150.123	80.009	19.994	103.645	20.030	7.870	1.189
272.500	150.680	80.010	19.994	103.642	20.032	7.732	1.149
273.000	151.298	80.010	19.994	103.639	20.031	7.752	1.152
273.500	151.921	80.010	19.994	103.641	20.032	7.707	1.208
274.000	152.478	80.011	19.995	103.639	20.030	7.847	1.211
274.500	153.052	80.009	19.994	103.638	20.031	7.766	1.156
275.000	153.648	80.011	19.995	103.637	20.031	7.774	1.151
275.500	154.234	80.010	19.994	103.633	20.032	7.693	1.176
276.000	154.817	80.009	19.994	103.628	20.028	8.005	1.175
276.500	155.403	80.010	19.995	103.620	20.032	7.667	1.169
277.000	156.012	80.010	19.995	103.612	20.032	7.729	1.183
277.500	156.625	80.011	19.993	103.605	20.035	7.488	1.208
278.000	157.176	80.010	19.994	103.601	20.034	7.545	1.193
278.500	157.751	80.009	19.994	103.596	20.034	7.575	1.145
279.000	158.362	80.010	19.994	103.595	20.036	7.446	1.156
279.500	158.963	80.009	19.995	103.597	20.037	7.382	1.199
280.000	159.525	80.008	19.994	103.596	20.039	7.207	1.188
280.500	160.088	80.010	19.994	103.595	20.038	7.259	1.144
281.000	160.698	80.010	19.994	103.589	20.038	7.289	1.148
281.500	161.284	80.008	19.995	103.584	20.040	7.165	1.184
282.000	161.886	80.009	19.995	103.578	20.038	7.279	1.192
282.500	162.451	80.008	19.994	103.576	20.039	7.239	1.178
283.000	163.042	80.010	19.994	103.572	20.039	7.198	1.161
283.500	163.618	80.009	19.994	103.571	20.039	7.194	1.161
284.000	164.215	80.008	19.994	103.568	20.040	7.140	1.170
284.500	164.825	80.007	19.994	103.565	20.038	7.304	1.190
285.000	165.381	80.009	19.996	103.560	20.038	7.268	1.187
285.500	165.932	80.008	19.995	103.558	20.042	7.009	1.137
286.000	166.526	80.007	19.994	103.555	20.041	7.087	1.126
286.500	167.142	80.007	19.995	103.555	20.042	7.027	1.177
287.000	167.676	80.008	19.994	103.555	20.042	6.991	1.180
287.500	168.227	80.007	19.994	103.554	20.043	6.903	1.117
288.000	168.786	80.007	19.994	103.554	20.042	6.989	1.097
288.500	169.350	80.007	19.993	103.553	20.047	6.647	1.117
289.000	169.906	80.007	19.995	103.546	20.045	6.806	1.122
289.500	170.472	80.007	19.995	103.539	20.044	6.838	1.121
290.000	171.024	80.006	19.995	103.538	20.043	6.933	1.120
290.500	171.589	80.008	19.995	103.536	20.042	6.983	1.118
291.000	172.162	80.006	19.995	103.532	20.044	6.871	1.128
291.500	172.720	80.007	19.994	103.532	20.045	6.827	1.134
292.000	173.270	80.008	19.994	103.533	20.043	6.905	1.119
292.500	173.876	80.008	19.995	103.527	20.043	6.920	1.132
293.000	174.383	80.008	19.995	103.521	20.044	6.864	1.134
293.500	174.979	80.009	19.995	103.518	20.043	6.963	1.108
294.000	175.505	80.008	19.994	103.518	20.044	6.845	1.113
294.500	176.036	80.006	19.995	103.517	20.044	6.875	1.090
295.000	176.616	80.006	19.995	103.513	20.046	6.733	1.084
295.500	177.150	80.008	19.994	103.509	20.049	6.535	1.112
296.000	177.685	80.009	19.994	103.510	20.044	6.849	1.091
296.500	178.226	80.008	19.994	103.506	20.048	6.619	1.072
297.000	178.792	80.007	19.993	103.499	20.042	6.979	1.091
297.500	179.331	80.007	19.995	103.495	20.047	6.664	1.107
298.000	179.864	80.007	19.995	103.492	20.049	6.545	1.089
298.500	180.404	80.007	19.994	103.487	20.047	6.638	1.072
299.000	180.969	80.009	19.995	103.485	20.048	6.603	1.089
299.500	181.491	80.008	19.994	103.484	20.045	6.804	1.096
300.000	182.000	80.008	19.994	103.486	20.046	6.701	1.059
300.500	182.555	80.008	19.994	103.487	20.046	6.739	1.047
301.000	183.077	80.009	19.995	103.484	20.045	6.809	1.070
301.500	183.586	80.009	19.995	103.484	20.046	6.757	1.054
302.000	184.092	80.009	19.994	103.484	20.046	6.718	1.023
302.500	184.677	80.008	19.995	103.485	20.046	6.755	1.053
303.000	185.174	80.009	19.994	103.485	20.045	6.781	1.087
303.500	185.714	80.007	19.995	103.490	20.046	6.705	1.059
304.000	186.255	80.008	19.995	103.490	20.045	6.798	1.059
304.500	186.824	80.008	19.994	103.489	20.045	6.820	1.095
305.000	187.302	80.008	19.995	103.487	20.045	6.810	1.078
305.500	187.829	80.007	19.993	103.485	20.041	7.036	1.026
306.000	188.356	80.007	19.994	103.481	20.044	6.866	1.030
306.500	188.872	80.009	19.994	103.481	20.046	6.691	1.049
307.000	189.384	80.007	19.994	103.480	20.044	6.829	1.036
307.500	189.917	80.008	19.995	103.480	20.044	6.844	1.036
308.000	190.422	80.006	19.994	103.480	20.043	6.933	1.041
308.500	190.936	80.008	19.995	103.480	20.047	6.680	1.028
309.000	191.428	80.008	19.996	103.481	20.044	6.885	1.013
309.500	191.978	80.008	19.995	103.483	20.042	6.974	1.024
310.000	192.440	80.008	19.994	103.483	20.042	6.987	1.027
310.500	192.974	80.007	19.995	103.482	20.041	7.100	1.004
311.000	193.480	80.008	19.994	103.481	20.042	6.984	1.019
311.500	193.963	80.007	19.995	103.481	20.040	7.130	1.015
312.000	194.514	80.009	19.995	103.480	20.042	6.969	1.011
312.500	194.995	80.007	19.994	103.480	20.042	7.023	1.033
313.000	195.477	80.007	19.995	103.481	20.040	7.126	0.997
313.500	196.016	80.007	19.995	103.481	20.041	7.072	0.992
314.000	196.478	80.007	19.996	103.477	20.040	7.128	1.011
314.500	196.994	80.008	19.995	103.474	20.040	7.159	0.990
315.000	197.501	80.006	19.996	103.472	20.039	7.191	1.000
315.500	197.983	80.007	19.995	103.467	20.039	7.184	1.006
316.000	198.488	80.007	19.995	103.462	20.040	7.167	0.988
316.500	198.968	80.008	19.994	103.463	20.037	7.361	0.986
317.000	199.456	80.006	19.995	103.462	20.040	7.135	0.976
317.500	199.969	80.006	19.995	103.461	20.037	7.351	0.985
318.000	200.428	80.006	19.995	103.462	20.037	7.356	0.987
318.500	200.942	80.006	19.995	103.467	20.039	7.229	0.972
319.000	201.455	80.008	19.995	103.464	20.034	7.523	1.000
319.500	201.919	80.008	19.996	103.464	20.034	7.544	1.002
320.000	202.407	80.006	19.994	103.461	20.034	7.542	0.965
320.500	202.918	80.007	19.995	103.458	20.034	7.519	0.975
321.000	203.415	80.005	19.995	103.452	20.035	7.515	1.004
321.500	203.908	80.006	19.994	103.451	20.035	7.467	0.999
322.000	204.382	80.006	19.996	103.448	20.036	7.405	0.978
322.500	204.863	80.006	19.996	103.447	20.034	7.582	0.961
323.000	205.327	80.006	19.995	103.446	20.035	7.451	0.950
323.500	205.807	80.006	19.995	103.446	20.033	7.619	0.944
324.000	206.273	80.007	19.994	103.444	20.032	7.669	0.945
324.500	206.753	80.007	19.994	103.444	20.034	7.578	0.946
325.000	207.234	80.007	19.996	103.443	20.031	7.770	0.953
325.500	207.741	80.008	19.994	103.443	20.031	7.781	0.974
326.000	208.187	80.007	19.994	103.442	20.033	7.637	0.971
326.500	208.686	80.007	19.995	103.443	20.029	7.878	0.950
327.000	209.142	80.006	19.995	103.443	20.030	7.803	0.950
327.500	209.617	80.008	19.995	103.443	20.029	7.900	0.942
328.000	210.081	80.008	19.995	103.440	20.029	7.891	0.935
328.500	210.555	80.009	19.995	103.434	20.027	8.038	0.939
329.000	211.011	80.006	19.995	103.430	20.027	8.047	0.934
329.500	211.454	80.008	19.995	103.430	20.028	7.952	0.915
330.000	211.916	80.008	19.995	103.424	20.027	8.058	0.902
330.500	212.381	80.008	19.994	103.419	20.025	8.169	0.916
331.000	212.862	80.008	19.995	103.417	20.023	8.316	0.937
331.500	213.306	80.008	19.994	103.415	20.024	8.271	0.936
332.000	213.755	80.010	19.995	103.411	20.024	8.262	0.909
332.500	214.207	80.008	19.996	103.411	20.022	8.360	0.897
333.000	214.646	80.009	19.994	103.411	20.025	8.144	0.896
333.500	215.119	80.008	19.994	103.411	20.024	8.226	0.902
334.000	215.522	80.009	19.995	103.409	20.022	8.349	0.894
334.500	216.004	80.009	19.994	103.405	20.022	8.365	0.880
335.000	216.449	80.009	19.996	103.404	20.020	8.548	0.906
335.500	216.900	80.009	19.995	103.404	20.019	8.555	0.912
336.000	217.297	80.009	19.994	103.405	20.020	8.541	0.872
336.500	217.790	80.008	19.996	103.405	20.016	8.811	0.869
337.000	218.228	80.008	19.996	103.404	20.017	8.705	0.911
337.500	218.639	80.008	19.994	103.402	20.017	8.749	0.890
338.000	219.114	80.009	19.995	103.401	20.016	8.805	0.867
338.500	219.538	80.009	19.994	103.400	20.016	8.779	0.892
339.000	219.998	80.009	19.995	103.399	20.013	8.995	0.892
339.500	220.390	80.009	19.995	103.399	20.013	9.023	0.868
340.000	220.819	80.008	19.996	103.399	20.011	9.103	0.836
340.500	221.246	80.008	19.996	103.399	20.011	9.170	0.838
341.000	221.652	80.007	19.996	103.401	20.008	9.343	0.845
341.500	222.083	80.007	19.997	103.404	20.007	9.434	0.835
342.000	222.508	80.007	19.996	103.404	20.007	9.410	0.846
342.500	222.943	80.009	19.995	103.404	20.007	9.432	0.858
343.000	223.332	80.008	19.997	103.404	20.005	9.582	0.842
343.500	223.800	80.008	19.996	103.401	20.003	9.704	0.841
344.000	224.173	80.008	19.996	103.398	20.006	9.495	0.849
344.500	224.578	80.006	19.996	103.395	20.003	9.664	0.809
345.000	225.012	80.008	19.996	103.394	20.003	9.664	0.809
345.500	225.424	80.009	19.996	103.394	20.001	9.806	0.842
346.000	225.881	80.007	19.995	103.393	19.998	10.022	0.857
346.500	226.265	80.008	19.995	103.394	20.001	9.847	0.855
347.000	226.682	80.008	19.996	103.397	20.002	9.779	0.821
347.500	227.112	80.007	19.996	103.398	19.999	9.979	0.824
348.000	227.493	80.008	19.995	103.397	19.997	10.129	0.829
348.500	227.918	80.009	19.995	103.390	19.996	10.191	0.809
349.000	228.321	80.007	19.996	103.389	19.996	10.169	0.817
349.500	228.724	80.007	19.996	103.387	19.993	10.384	0.817
350.000	229.154	80.008	19.994	103.388	19.993	10.384	0.819
350.500	229.594	80.009	19.995	103.388	19.993	10.376	0.852
351.000	229.968	80.008	19.994	103.395	19.992	10.454	0.843
351.500	230.350	80.008	19.997	103.394	19.990	10.610	0.785
352.000	230.787	80.008	19.995	103.389	19.988	10.694	0.787
352.500	231.199	80.008	19.995	103.387	19.989	10.656	0.834
353.000	231.565	80.008	19.995	103.385	19.990	10.604	0.813
353.500	231.999	80.009	19.995	103.381	19.986	10.846	0.789
354.000	232.336	80.009	19.996	103.376	19.984	10.975	0.786
354.501	232.761	80.010	19.994	103.376	19.986	10.889	0.767
355.000	233.148	80.009	19.994	103.372	19.984	10.979	0.787
355.500	233.518	80.010	19.994	103.369	19.982	11.139	0.784
356.000	233.906	80.010	19.996	103.372	19.981	11.176	0.757
356.500	234.313	80.011	19.995	103.373	19.976	11.525	0.776
357.000	234.717	80.010	19.994	103.371	19.978	11.445	0.803
357.500	235.119	80.010	19.994	103.372	19.977	11.472	0.809
358.000	235.489	80.012	19.995	103.370	19.979	11.357	0.789
358.500	235.854	80.010	19.993	103.368	19.975	11.610	0.753
359.000	236.240	80.010	19.994	103.366	19.972	11.858	0.743
359.500	236.619	80.011	19.993	103.370	19.974	11.720	0.758
360.000	236.994	80.011	19.995	103.373	19.972	11.832	0.759
360.500	237.383	80.010	19.994	103.376	19.973	11.744	0.759
361.000	237.760	80.010	19.994	103.375	19.971	11.863	0.766
361.500	238.124	80.011	19.994	103.377	19.969	12.008	0.754
362.000	238.507	80.010	19.996	103.374	19.969	12.066	0.744
362.500	238.909	80.010	19.994	103.371	19.969	12.061	0.766
363.000	239.256	80.009	19.994	103.368	19.968	12.083	0.767
363.500	239.623	80.010	19.994	103.365	19.969	12.007	0.732
364.000	239.962	80.009	19.994	103.364	19.966	12.274	0.710
364.500	240.331	80.010	19.993	103.363	19.963	12.459	0.706
365.000	240.702	80.010	19.994	103.362	19.965	12.302	0.724
365.500	241.045	80.009	19.993	103.363	19.964	12.410	0.727
366.000	241.425	80.009	19.995	103.365	19.963	12.423	0.719
366.500	241.820	80.009	19.994	103.366	19.960	12.651	0.749
367.000	242.160	80.008	19.994	103.366	19.961	12.568	0.755
367.500	242.498	80.009	19.994	103.366	19.958	12.816	0.707
368.000	242.865	80.008	19.995	103.365	19.956	12.929	0.692
368.500	243.213	80.007	19.994	103.364	19.957	12.847	0.710
369.000	243.570	80.007	19.994	103.362	19.957	12.851	0.710
369.500	243.897	80.008	19.995	103.362	19.951	13.282	0.695
370.000	244.282	80.007	19.995	103.363	19.952	13.226	0.698
370.500	244.627	80.007	19.994	103.363	19.951	13.295	0.721
371.000	244.968	80.007	19.994	103.363	19.946	13.646	0.708
371.500	245.314	80.007	19.995	103.363	19.948	13.454	0.687
372.000	245.665	80.008	19.995	103.362	19.950	13.369	0.692
372.500	246.043	80.008	19.995	103.361	19.946	13.633	0.713
373.000	246.356	80.007	19.995	103.361	19.945	13.704	0.710
373.500	246.732	80.007	19.995	103.362	19.947	13.549	0.690
374.000	247.038	80.006	19.995	103.363	19.942	13.931	0.686
374.500	247.408	80.007	19.995	103.363	19.941	13.965	0.678
375.000	247.756	80.006	19.995	103.366	19.942	13.872	0.696
375.500	248.099	80.008	19.996	103.370	19.940	14.010	0.705
376.000	248.462	80.006	19.995	103.371	19.941	14.003	0.699
376.500	248.784	80.007	19.994	103.371	19.938	14.209	0.696
377.000	249.140	80.007	19.994	103.372	19.936	14.338	0.682
377.500	249.472	80.009	19.994	103.371	19.934	14.460	0.683
378.000	249.845	80.007	19.995	103.368	19.931	14.666	0.696
378.500	250.164	80.006	19.995	103.367	19.930	14.715	0.699
379.000	250.517	80.009	19.995	103.366	19.928	14.897	0.682
379.500	250.844	80.008	19.995	103.365	19.927	14.950	0.676
380.000	251.147	80.007	19.994	103.367	19.924	15.139	0.655
380.500	251.511	80.007	19.994	103.369	19.923	15.245	0.648
381.000	251.846	80.006	19.994	103.370	19.921	15.376	0.683
381.500	252.173	80.006	19.995	103.372	19.922	15.277	0.681
382.000	252.477	80.006	19.995	103.375	19.917	15.607	0.647
382.500	252.814	80.008	19.995	103.377	19.918	15.581	0.636
383.000	253.145	80.007	19.994	103.378	19.915	15.781	0.654
383.500	253.452	80.006	19.996	103.378	19.911	16.059	0.652
384.000	253.770	80.007	19.994	103.377	19.910	16.094	0.632
384.500	254.083	80.007	19.996	103.376	19.908	16.261	0.628
385.000	254.428	80.008	19.994	103.378	19.905	16.432	0.644
385.500	254.734	80.007	19.994	103.380	19.906	16.373	0.655
386.000	255.050	80.007	19.994	103.380	19.900	16.801	0.637
386.500	255.376	80.006	19.994	103.381	19.901	16.768	0.632
387.000	255.710	80.009	19.995	103.381	19.900	16.811	0.651
387.500	256.007	80.008	19.994	103.375	19.897	17.008	0.645
388.000	256.333	80.008	19.994	103.370	19.897	16.990	0.627
388.500	256.660	80.007	19.994	103.375	19.894	17.247	0.638
389.000	256.950	80.008	19.995	103.380	19.893	17.291	0.635
389.500	257.295	80.009	19.994	103.386	19.890	17.474	0.626
390.000	257.591	80.008	19.995	103.391	19.887	17.713	0.639
390.500	257.921	80.009	19.994	103.396	19.885	17.834	0.634
391.000	258.234	80.008	19.994	103.394	19.881	18.112	0.634
391.500	258.535	80.008	19.995	103.393	19.881	18.138	0.628
392.000	258.869	80.006	19.994	103.392	19.879	18.289	0.624
392.500	259.175	80.007	19.995	103.394	19.878	18.356	0.638
393.000	259.481	80.008	19.994	103.395	19.874	18.597	0.626
393.500	259.788	80.008	19.995	103.396	19.869	18.914	0.613
394.000	260.098	80.007	19.996	103.397	19.869	18.973	0.614
394.500	260.389	80.007	19.994	103.398	19.867	19.103	0.609
395.000	260.692	80.007	19.994	103.398	19.867	19.114	0.598
395.500	260.988	80.007	19.995	103.394	19.864	19.264	0.597
396.000	261.258	80.007	19.995	103.393	19.862	19.463	0.582
396.500	261.551	80.009	19.994	103.393	19.861	19.519	0.564
397.000	261.842	80.006	19.994	103.392	19.858	19.682	0.573
397.500	262.159	80.008	19.993	103.391	19.854	19.990	0.596
398.000	262.463	80.006	19.994	103.393	19.853	20.066	0.615
398.500	262.745	80.007	19.993	103.393	19.851	20.189	0.603
399.000	263.048	80.007	19.994	103.392	19.846	20.506	0.585
399.500	263.357	80.008	19.993	103.386	19.846	20.543	0.598
400.000	263.660	80.008	19.993	103.382	19.846	20.552	0.612
400.500	263.934	80.007	19.994	103.383	19.844	20.649	0.595
401.000	264.256	80.007	19.994	103.384	19.841	20.893	0.586
401.500	264.530	80.005	19.994	103.382	19.839	20.998	0.596
402.000	264.790	80.007	19.995	103.388	19.836	21.214	0.566
402.500	265.124	80.008	19.994	103.395	19.833	21.413	0.564
403.000	265.415	80.007	19.994	103.395	19.832	21.529	0.609
403.500	265.699	80.007	19.995	103.395	19.832	21.471	0.600
404.000	265.953	80.007	19.995	103.398	19.825	22.015	0.556
404.500	266.270	80.008	19.995	103.398	19.824	22.024	0.555
405.000	266.581	80.007	19.995	103.398	19.824	22.090	0.600
405.500	266.880	80.008	19.994	103.396	19.818	22.440	0.619
406.000	267.118	80.007	19.996	103.395	19.818	22.440	0.574
406.500	267.441	80.005	19.995	103.396	19.816	22.630	0.549
407.000	267.716	80.006	19.995	103.398	19.812	22.908	0.579
407.500	267.943	80.006	19.995	103.398	19.812	22.889	0.549
408.000	268.238	80.007	19.996	103.400	19.809	23.104	0.512
408.500	268.559	80.008	19.995	103.401	19.810	23.045	0.570
409.000	268.811	80.007	19.995	103.401	19.802	23.556	0.595
409.500	269.085	80.008	19.994	103.400	19.801	23.666	0.549
410.000	269.402	80.007	19.995	103.401	19.799	23.763	0.558
410.500	269.672	80.008	19.994	103.401	19.796	23.981	0.589
411.000	269.971	80.008	19.996	103.400	19.794	24.161	0.578
411.500	270.255	80.008	19.995	103.400	19.789	24.442	0.576
412.000	270.555	80.008	19.995	103.400	19.790	24.409	0.583
412.500	270.829	80.008	19.995	103.400	19.785	24.748	0.579
413.000	271.132	80.008	19.995	103.400	19.785	24.752	0.576
413.500	271.423	80.008	19.997	103.400	19.781	25.007	0.586
414.000	271.687	80.009	19.995	103.400	19.781	25.057	0.574
414.500	271.973	80.009	19.994	103.400	19.776	25.347	0.553
415.000	272.284	80.009	19.994	103.400	19.774	25.486	0.573
415.500	272.560	80.009	19.996	103.400	19.772	25.643	0.592
416.000	272.776	80.008	19.995	103.399	19.770	25.796	0.540
416.500	273.120	80.009	19.996	103.399	19.765	26.134	0.526
417.000	273.366	80.008	19.995	103.399	19.765	26.110	0.575
417.500	273.625	80.010	19.996	103.399	19.764	26.181	0.547
418.000	273.907	80.009	19.995	103.399	19.759	26.542	0.523
418.500	274.157	80.009	19.994	103.399	19.759	26.524	0.536
419.000	274.409	80.008	19.996	103.401	19.754	26.881	0.517
419.500	274.704	80.010	19.995	103.403	19.754	26.862	0.524
420.000	274.977	80.009	19.996	103.406	19.749	27.247	0.557
420.500	275.267	80.008	19.995	103.406	19.748	27.310	0.566
421.000	275.533	80.009	19.995	103.406	19.746	27.453	0.560
421.500	275.807	80.008	19.995	103.405	19.742	27.731	0.548
422.000	276.057	80.009	19.994	103.403	19.739	27.952	0.532
422.500	276.353	80.010	19.995	103.402	19.738	27.984	0.535
423.000	276.588	80.008	19.994	103.403	19.736	28.176	0.539
423.500	276.860	80.009	19.996	103.403	19.733	28.363	0.519
424.000	277.115	80.009	19.995	103.404	19.730	28.582	0.517
424.500	277.364	80.010	19.994	103.403	19.730	28.526	0.516
425.000	277.646	80.009	19.994	103.402	19.726	28.835	0.518
425.500	277.911	80.009	19.994	103.401	19.723	29.071	0.538
426.000	278.160	80.009	19.995	103.402	19.718	29.367	0.530
426.500	278.474	80.010	19.996	103.405	19.720	29.272	0.539
427.000	278.715	80.009	19.995	103.414	19.714	29.642	0.559
427.500	278.950	80.009	19.996	103.416	19.711	29.848	0.516
428.000	279.243	80.008	19.994	103.418	19.710	29.952	0.502
428.500	279.489	80.008	19.995	103.417	19.707	30.141	0.533
429.000	279.755	80.009	19.994	103.415	19.706	30.186	0.525
429.500	279.984	80.008	19.995	103.411	19.703	30.426	0.504
430.000	280.263	80.008	19.994	103.412	19.701	30.583	0.502
430.500	280.526	80.008	19.996	103.414	19.699	30.691	0.525
431.000	280.807	80.009	19.996	103.417	19.699	30.724	0.543
431.500	281.045	80.009	19.995	103.423	19.694	31.043	0.531
432.000	281.302	80.008	19.995	103.426	19.692	31.211	0.507
432.500	281.530	80.009	19.995	103.429	19.690	31.317	0.490
433.000	281.856	80.008	19.995	103.431	19.687	31.550	0.520
433.500	282.104	80.008	19.995	103.432	19.686	31.585	0.564
434.000	282.350	80.008	19.996	103.426	19.686	31.617	0.534
434.500	282.616	80.008	19.994	103.423	19.677	32.208	0.503
435.000	282.870	80.008	19.995	103.425	19.676	32.279	0.516
435.500	283.145	80.009	19.996	103.426	19.677	32.251	0.525
436.000	283.376	80.009	19.995	103.429	19.674	32.419	0.517
436.500	283.645	80.009	19.996	103.434	19.671	32.615	0.502
437.000	283.870	80.010	19.996	103.437	19.672	32.598	0.497
437.500	284.170	80.009	19.994	103.438	19.665	33.045	0.510
438.000	284.403	80.009	19.995	103.437	19.664	33.126	0.529
438.500	284.705	80.009	19.995	103.437	19.664	33.129	0.534
439.000	284.946	80.009	19.996	103.437	19.661	33.332	0.539
439.500	285.207	80.008	19.995	103.433	19.658	33.566	0.522
440.000	285.427	80.008	19.996	103.433	19.657	33.627	0.491
440.500	285.671	80.009	19.995	103.433	19.653	33.883	0.473
441.000	285.936	80.009	19.995	103.433	19.652	33.982	0.487
441.500	286.156	80.010	19.995	103.435	19.652	33.979	0.497
442.000	286.435	80.009	19.995	103.438	19.647	34.273	0.492
442.500	286.705	80.010	19.995	103.438	19.642	34.632	0.524
443.000	286.920	80.009	19.995	103.438	19.643	34.563	0.517
443.500	287.209	80.009	19.995	103.438	19.640	34.747	0.494
444.000	287.417	80.010	19.995	103.438	19.639	34.846	0.500
444.500	287.725	80.009	19.995	103.438	19.639	34.848	0.507
445.000	287.968	80.008	19.996	103.438	19.638	34.949	0.533
445.500	288.226	80.009	19.995	103.438	19.634	35.165	0.526
446.000	288.489	80.009	19.996	103.438	19.634	35.176	0.511
446.500	288.672	80.007	19.996	103.438	19.630	35.441	0.484
447.000	288.969	80.008	19.994	103.439	19.632	35.327	0.462
447.500	289.203	80.009	19.995	103.439	19.628	35.603	0.505
448.000	289.457	80.008	19.995	103.439	19.625	35.840	0.510
448.500	289.683	80.008	19.996	103.439	19.622	36.000	0.484
449.000	289.950	80.007	19.994	103.439	19.621	36.062	0.486
449.500	290.186	80.007	19.995	103.439	19.620	36.189	0.498
450.000	290.511	80.005	19.994	103.439	19.617	36.376	0.532
450.500	290.725	80.008	19.995	103.439	19.615	36.537	0.551
451.000	290.963	80.007	19.996	103.439	19.614	36.577	0.496
451.500	291.208	80.006	19.994	103.440	19.613	36.642	0.468
452.000	291.464	80.007	19.994	103.441	19.610	36.836	0.492
452.500	291.721	80.006	19.994	103.442	19.610	36.884	0.507
453.000	292.000	80.008	19.994	103.443	19.607	37.054	0.524
453.500	292.246	80.008	19.995	103.443	19.603	37.365	0.530
454.000	292.489	80.006	19.994	103.443	19.601	37.470	0.507
454.500	292.760	80.007	19.993	103.443	19.601	37.498	0.502
455.000	293.039	80.007	19.995	103.443	19.598	37.713	0.532
455.500	293.259	80.006	19.994	103.443	19.599	37.617	0.525
456.000	293.514	80.007	19.994	103.444	19.596	37.809	0.487
456.500	293.723	80.008	19.994	103.443	19.595	37.865	0.469
457.000	294.005	80.007	19.993	103.444	19.595	37.914	0.477
457.500	294.244	80.008	19.993	103.444	19.590	38.204	0.506
458.000	294.504	80.008	19.994	103.443	19.588	38.344	0.510
458.500	294.753	80.006	19.994	103.443	19.586	38.506	0.503
459.000	294.998	80.007	19.993	103.444	19.586	38.528	0.501
459.500	295.263	80.008	19.994	103.444	19.586	38.534	0.502
460.000	295.530	80.007	19.994	103.443	19.583	38.711	0.521
460.500	295.725	80.008	19.993	103.444	19.580	38.898	0.497
461.000	295.996	80.006	19.994	103.446	19.580	38.939	0.464
461.500	296.238	80.008	19.994	103.448	19.576	39.193	0.489
462.000	296.514	80.007	19.995	103.450	19.575	39.287	0.516
462.500	296.766	80.008	19.995	103.450	19.576	39.175	0.523
463.000	297.000	80.009	19.994	103.450	19.574	39.364	0.507
463.500	297.245	80.008	19.994	103.448	19.574	39.353	0.482
464.000	297.476	80.008	19.994	103.449	19.572	39.477	0.478
464.500	297.724	80.007	19.995	103.450	19.569	39.658	0.478
465.000	297.998	80.007	19.995	103.450	19.569	39.660	0.500
465.500	298.222	80.009	19.995	103.449	19.570	39.620	0.510
466.000	298.491	80.009	19.993	103.446	19.570	39.650	0.495
466.500	298.741	80.007	19.995	103.444	19.568	39.736	0.506
467.000	299.011	80.007	19.994	103.440	19.567	39.800	0.519
467.500	299.202	80.009	19.996	103.440	19.568	39.766	0.491
468.000	299.509	80.008	19.995	103.442	19.567	39.852	0.480
468.500	299.737	80.010	19.995	103.445	19.565	39.964	0.516
469.000	299.950	80.007	19.996	103.445	19.563	40.096	0.488
469.500	300.183	80.008	19.993	103.449	19.560	40.304	0.443
470.000	300.474	80.007	19.994	103.452	19.562	40.177	0.485
470.500	300.709	80.008	19.994	103.450	19.562	40.185	0.525
471.000	300.938	80.008	19.995	103.449	19.560	40.344	0.495
471.500	301.191	80.008	19.995	103.449	19.555	40.624	0.473
472.000	301.467	80.008	19.994	103.445	19.556	40.622	0.506
472.500	301.692	80.009	19.996	103.441	19.556	40.554	0.516
473.000	301.928	80.008	19.994	103.442	19.557	40.511	0.481
473.500	302.195	80.008	19.994	103.442	19.550	40.985	0.481
474.000	302.443	80.008	19.995	103.441	19.552	40.873	0.509
474.500	302.686	80.007	19.995	103.445	19.551	40.929	0.503
475.000	302.924	80.008	19.994	103.448	19.552	40.882	0.486
475.500	303.165	80.008	19.995	103.447	19.548	41.134	0.480
476.000	303.414	80.008	19.995	103.449	19.549	41.107	0.485
476.500	303.645	80.009	19.996	103.451	19.547	41.211	0.485
477.000	303.914	80.009	19.994	103.452	19.546	41.309	0.489
477.500	304.132	80.009	19.996	103.452	19.544	41.446	0.493
478.000	304.401	80.009	19.995	103.452	19.541	41.595	0.487
478.500	304.650	80.007	19.995	103.457	19.543	41.510	0.503
479.000	304.894	80.007	19.995	103.459	19.538	41.805	0.506
479.500	305.161	80.009	19.994	103.457	19.544	41.444	0.502
480.000	305.393	80.007	19.995	103.462	19.545	41.379	0.505
480.500	305.658	80.007	19.995	103.465	19.542	41.530	0.498
481.000	305.915	80.008	19.996	103.459	19.539	41.748	0.510
481.500	306.151	80.007	19.995	103.456	19.540	41.727	0.507
482.000	306.425	80.008	19.995	103.452	19.540	41.710	0.501
482.500	306.647	80.007	19.993	103.449	19.538	41.838	0.503
483.000	306.906	80.007	19.994	103.447	19.533	42.151	0.489
483.500	307.161	80.009	19.994	103.446	19.537	41.931	0.498
484.000	307.368	80.006	19.994	103.447	19.534	42.114	0.488
484.500	307.666	80.008	19.995	103.452	19.537	41.915	0.484
485.000	307.878	80.007	19.995	103.455	19.534	42.107	0.508
485.500	308.131	80.007	19.995	103.457	19.531	42.327	0.488
486.000	308.373	80.008	19.995	103.459	19.535	42.073	0.480
486.500	308.613	80.008	19.995	103.459	19.532	42.262	0.488
487.000	308.869	80.008	19.995	103.458	19.531	42.338	0.489
487.500	309.128	80.009	19.995	103.453	19.530	42.353	0.505
488.000	309.352	80.008	19.995	103.451	19.529	42.462	0.499
488.500	309.591	80.008	19.995	103.452	19.526	42.687	0.473
489.000	309.863	80.009	19.995	103.451	19.527	42.600	0.487
489.500	310.092	80.008	19.994	103.449	19.525	42.703	0.506
490.000	310.313	80.008	19.996	103.451	19.525	42.757	0.475
490.500	310.595	80.009	19.995	103.452	19.527	42.579	0.477
491.000	310.826	80.008	19.995	103.449	19.524	42.771	0.508
491.500	311.077	80.008	19.995	103.449	19.524	42.828	0.497
492.000	311.325	80.008	19.995	103.448	19.522	42.951	0.490
492.500	311.589	80.009	19.995	103.447	19.523	42.853	0.505
493.000	311.834	80.010	19.993	103.447	19.522	42.948	0.511
493.500	312.100	80.007	19.994	103.449	19.523	42.854	0.510
494.000	312.352	80.010	19.993	103.452	19.521	43.027	0.515
494.500	312.588	80.008	19.994	103.454	19.523	42.902	0.503
495.000	312.828	80.010	19.992	103.454	19.521	43.010	0.482
495.500	313.082	80.009	19.995	103.455	19.520	43.066	0.485
496.000	313.349	80.009	19.993	103.451	19.519	43.124	0.507
496.500	313.576	80.009	19.993	103.449	19.520	43.095	0.508
497.000	313.815	80.009	19.994	103.445	19.519	43.124	0.480
497.500	314.101	80.009	19.994	103.443	19.517	43.255	0.495
498.000	314.352	80.010	19.995	103.442	19.516	43.371	0.531
498.500	314.624	80.011	19.995	103.445	19.519	43.148	0.530
499.000	314.848	80.010	19.995	103.447	19.519	43.125	0.510
499.500	315.085	80.010	19.994	103.451	19.517	43.284	0.478
500.000	315.320	80.010	19.996	103.453	19.518	43.208	0.466
500.500	315.566	80.009	19.995	103.453	19.518	43.215	0.476
501.000	315.799	80.009	19.993	103.450	19.518	43.252	0.480
501.500	316.073	80.009	19.993	103.445	19.516	43.335	0.493
502.000	316.295	80.010	19.994	103.442	19.516	43.371	0.501
502.500	316.537	80.009	19.995	103.440	19.517	43.320	0.480
503.000	316.803	80.009	19.994	103.441	19.513	43.577	0.486
503.500	317.012	80.008	19.994	103.442	19.515	43.425	0.491
504.000	317.248	80.008	19.995	103.443	19.514	43.467	0.460
504.500	317.504	80.009	19.995	103.444	19.515	43.418	0.469
505.000	317.744	80.008	19.995	103.449	19.514	43.520	0.494
505.500	318.003	80.008	19.995	103.453	19.513	43.567	0.497
506.000	318.274	80.009	19.994	103.453	19.509	43.831	0.515
506.500	318.491	80.009	19.994	103.453	19.509	43.826	0.509
507.000	318.778	80.007	19.996	103.452	19.509	43.812	0.496
507.500	318.998	80.009	19.995	103.450	19.510	43.800	0.505
508.000	319.245	80.008	19.996	103.449	19.509	43.835	0.487
508.500	319.494	80.008	19.995	103.453	19.511	43.732	0.482
509.000	319.721	80.007	19.995	103.453	19.509	43.853	0.486
509.500	319.973	80.007	19.994	103.455	19.509	43.875	0.478
510.000	320.201	80.007	19.996	103.454	19.511	43.682	0.479
510.500	320.502	80.008	19.994	103.455	19.507	43.983	0.504
511.000	320.739	80.007	19.996	103.452	19.510	43.784	0.533
511.500	320.974	80.008	19.994	103.456	19.510	43.762	0.505
512.000	321.229	80.007	19.995	103.458	19.509	43.831	0.481
512.500	321.469	80.008	19.994	103.462	19.507	43.962	0.492
513.000	321.751	80.008	19.994	103.463	19.507	43.994	0.509
513.500	321.984	80.009	19.995	103.467	19.507	43.960	0.519
514.000	322.229	80.008	19.996	103.465	19.504	44.171	0.497
514.500	322.507	80.007	19.995	103.463	19.510	43.806	0.501
515.000	322.727	80.009	19.995	103.465	19.508	43.899	0.510
515.500	322.935	80.008	19.995	103.464	19.504	44.170	0.463
516.000	323.220	80.008	19.995	103.464	19.501	44.418	0.461
516.500	323.467	80.007	19.995	103.465	19.501	44.366	0.512
517.000	323.698	80.008	19.993	103.467	19.501	44.378	0.505
517.500	323.967	80.009	19.994	103.464	19.502	44.353	0.489
518.000	324.200	80.009	19.994	103.465	19.502	44.328	0.501
518.500	324.471	80.008	19.995	103.459	19.497	44.684	0.503
519.000	324.695	80.009	19.995	103.459	19.499	44.565	0.500
519.500	324.945	80.010	19.994	103.462	19.496	44.766	0.485
520.000	325.198	80.007	19.994	103.466	19.497	44.696	0.489
520.500	325.435	80.009	19.996	103.470	19.493	44.923	0.497
521.000	325.684	80.010	19.995	103.475	19.492	45.035	0.488
521.500	325.972	80.008	19.996	103.477	19.490	45.177	0.511
522.000	326.185	80.010	19.994	103.473	19.493	44.951	0.519
522.500	326.448	80.009	19.995	103.470	19.490	45.140	0.489
523.000	326.727	80.010	19.995	103.466	19.488	45.291	0.509
523.500	326.942	80.009	19.995	103.468	19.486	45.446	0.518
524.000	327.235	80.009	19.994	103.469	19.485	45.474	0.501
524.500	327.488	80.009	19.996	103.470	19.484	45.564	0.527
525.000	327.721	80.010	19.995	103.471	19.485	45.536	0.516
525.500	327.927	80.009	19.994	103.474	19.480	45.854	0.462
526.000	328.215	80.008	19.994	103.473	19.480	45.828	0.467
526.500	328.445	80.009	19.994	103.473	19.478	45.985	0.506
527.000	328.697	80.009	19.994	103.470	19.475	46.186	0.500
527.500	328.958	80.009	19.995	103.471	19.475	46.230	0.497
528.000	329.237	80.009	19.995	103.468	19.473	46.366	0.526
528.500	329.466	80.008	19.995	103.465	19.470	46.517	0.524
529.000	329.684	80.010	19.996	103.464	19.468	46.671	0.478
529.500	329.974	80.008	19.995	103.468	19.470	46.541	0.477
530.000	330.204	80.008	19.996	103.469	19.470	46.584	0.514
530.500	330.459	80.009	19.995	103.471	19.470	46.539	0.502
531.000	330.729	80.008	19.996	103.474	19.467	46.786	0.505
531.500	330.949	80.007	19.996	103.473	19.464	46.954	0.508
532.000	331.198	80.007	19.996	103.474	19.463	47.020	0.480
532.500	331.469	80.007	19.996	103.474	19.457	47.437	0.495
533.000	331.686	80.007	19.995	103.474	19.455	47.557	0.504
533.500	331.923	80.007	19.995	103.474	19.457	47.466	0.471
534.000	332.197	80.007	19.995	103.475	19.454	47.653	0.482
534.500	332.463	80.007	19.996	103.475	19.452	47.802	0.525
535.000	332.702	80.006	19.995	103.475	19.451	47.863	0.522
535.500	332.991	80.006	19.996	103.475	19.450	47.978	0.516
536.000	333.233	80.007	19.996	103.477	19.446	48.198	0.530
536.500	333.473	80.006	19.996	103.477	19.443	48.461	0.507
537.000	333.700	80.006	19.996	103.478	19.443	48.452	0.475
537.500	333.996	80.008	19.996	103.478	19.439	48.720	0.495
538.000	334.240	80.008	19.996	103.479	19.437	48.873	0.531
538.500	334.477	80.007	19.994	103.480	19.433	49.151	0.510
539.000	334.735	80.006	19.995	103.480	19.431	49.293	0.488
539.500	335.001	80.007	19.997	103.480	19.428	49.440	0.510
540.000	335.219	80.006	19.995	103.482	19.425	49.684	0.504
540.500	335.489	80.006	19.997	103.484	19.417	50.214	0.486
541.000	335.720	80.007	19.995	103.488	19.419	50.067	0.494
541.500	335.991	80.007	19.996	103.492	19.417	50.263	0.501
542.000	336.240	80.008	19.996	103.494	19.414	50.436	0.511
542.500	336.469	80.007	19.995	103.495	19.411	50.645	0.499
543.000	336.730	80.007	19.995	103.495	19.407	50.952	0.484
543.500	337.016	80.007	19.995	103.494	19.405	51.046	0.518
544.000	337.253	80.008	19.995	103.495	19.402	51.279	0.535
544.500	337.487	80.008	19.997	103.499	19.398	51.566	0.497
545.000	337.792	80.009	19.994	103.504	19.396	51.703	0.505
545.500	337.977	80.009	19.996	103.507	19.392	51.991	0.514
546.000	338.264	80.005	19.995	103.511	19.387	52.342	0.481
546.500	338.511	80.007	19.995	103.513	19.386	52.415	0.503
547.000	338.782	80.008	19.995	103.514	19.379	52.899	0.526
547.500	339.039	80.007	19.995	103.514	19.379	52.901	0.524
548.000	339.279	80.009	19.994	103.514	19.373	53.323	0.513
548.500	339.517	80.006	19.994	103.516	19.370	53.473	0.487
549.000	339.768	80.007	19.994	103.516	19.367	53.733	0.483
549.500	340.014	80.008	19.995	103.517	19.361	54.104	0.493
550.000	340.242	80.007	19.995	103.517	19.358	54.326	0.486
550.500	340.528	80.007	19.994	103.519	19.353	54.662	0.494
551.000	340.777	80.008	19.994	103.518	19.346	55.148	0.524
551.500	341.003	80.008	19.994	103.519	19.346	55.189	0.505
552.000	341.268	80.008	19.993	103.520	19.342	55.460	0.483
552.500	341.524	80.007	19.994	103.520	19.336	55.849	0.506
553.000	341.771	80.007	19.993	103.519	19.333	56.057	0.512
553.500	341.983	80.008	19.993	103.520	19.327	56.519	0.481
554.000	342.227	80.007	19.994	103.522	19.322	56.855	0.458
554.500	342.493	80.007	19.995	103.526	19.318	57.082	0.483
555.000	342.762	80.007	19.995	103.534	19.314	57.383	0.522
555.500	343.016	80.008	19.995	103.540	19.310	57.660	0.529
556.000	343.272	80.008	19.995	103.545	19.303	58.177	0.517
556.500	343.471	80.007	19.995	103.544	19.300	58.397	0.482
557.000	343.774	80.008	19.995	103.544	19.294	58.800	0.478
557.500	344.016	80.007	19.995	103.544	19.284	59.456	0.524
558.000	344.234	80.008	19.995	103.545	19.281	59.684	0.503
558.500	344.512	80.007	19.995	103.546	19.276	60.063	0.477
559.000	344.765	80.008	19.995	103.553	19.268	60.628	0.513
559.500	345.027	80.007	19.995	103.555	19.264	60.859	0.523
560.000	345.274	80.007	19.995	103.556	19.257	61.358	0.512
560.500	345.506	80.007	19.995	103.558	19.252	61.726	0.494
561.000	345.787	80.008	19.994	103.558	19.244	62.297	0.496
561.500	346.010	80.007	19.995	103.559	19.241	62.463	0.508
562.000	346.278	80.007	19.996	103.559	19.235	62.857	0.498
562.500	346.524	80.006	19.995	103.559	19.226	63.497	0.502
563.000	346.782	80.005	19.994	103.563	19.219	63.998	0.509
563.500	347.010	80.007	19.995	103.568	19.213	64.385	0.495
564.000	347.271	80.007	19.996	103.573	19.206	64.882	0.487
564.500	347.479	80.007	19.994	103.581	19.201	65.231	0.479
565.000	347.764	80.007	19.994	103.589	19.197	65.493	0.482
565.500	348.009	80.007	19.994	103.591	19.187	66.224	0.512
566.000	348.279	80.007	19.994	103.595	19.183	66.514	0.522
566.500	348.529	80.006	19.994	103.598	19.176	66.987	0.517
567.000	348.808	80.005	19.994	103.598	19.168	67.527	0.524
567.500	349.044	80.007	19.994	103.599	19.158	68.238	0.522
568.000	349.276	80.005	19.995	103.601	19.152	68.662	0.492
568.500	349.563	80.005	19.995	103.603	19.147	68.998	0.494
569.000	349.797	80.005	19.995	103.609	19.141	69.420	0.520
569.500	350.058	80.006	19.995	103.614	19.134	69.909	0.508
570.000	350.332	80.005	19.995	103.621	19.125	70.483	0.514
570.500	350.547	80.007	19.995	103.626	19.118	71.008	0.512
571.000	350.799	80.007	19.993	103.632	19.114	71.243	0.478
571.500	351.063	80.007	19.996	103.632	19.105	71.899	0.491
572.000	351.309	80.008	19.994	103.635	19.098	72.380	0.513
572.500	351.552	80.007	19.995	103.637	19.089	73.015	0.500
573.000	351.816	80.006	19.995	103.638	19.082	73.510	0.498
573.500	352.079	80.007	19.994	103.632	19.073	74.105	0.517
574.000	352.328	80.008	19.994	103.631	19.065	74.637	0.520
574.500	352.559	80.008	19.996	103.631	19.059	75.093	0.496
575.000	352.837	80.007	19.995	103.631	19.053	75.497	0.494
575.500	353.114	80.007	19.995	103.631	19.043	76.154	0.533
576.000	353.348	80.008	19.996	103.638	19.038	76.547	0.533
576.500	353.598	80.009	19.994	103.639	19.031	77.020	0.497
577.000	353.827	80.008	19.996	103.639	19.026	77.343	0.481
577.500	354.091	80.008	19.993	103.640	19.019	77.840	0.486
578.000	354.392	80.009	19.995	103.640	19.011	78.373	0.529
578.500	354.598	80.008	19.994	103.639	19.004	78.876	0.536
579.000	354.852	80.008	19.994	103.639	18.999	79.196	0.484
579.500	355.111	80.008	19.994	103.638	18.992	79.696	0.487
580.000	355.365	80.009	19.994	103.638	18.989	79.857	0.513
580.500	355.629	80.008	19.994	103.638	18.984	80.245	0.516
581.000	355.841	80.009	19.994	103.638	18.975	80.864	0.497
581.500	356.078	80.010	19.995	103.639	18.972	81.069	0.462
582.000	356.329	80.008	19.994	103.641	18.964	81.574	0.468
582.500	356.631	80.008	19.995	103.646	18.962	81.749	0.521
583.000	356.889	80.009	19.994	103.651	18.954	82.294	0.557
583.500	357.147	80.009	19.993	103.651	18.951	82.474	0.538
584.000	357.338	80.009	19.995	103.651	18.949	82.602	0.482
584.500	357.631	80.007	19.995	103.649	18.945	82.915	0.467
585.000	357.891	80.008	19.995	103.644	18.942	83.052	0.518
585.500	358.169	80.008	19.993	103.639	18.940	83.206	0.546
586.000	358.427	80.007	19.993	103.639	18.941	83.147	0.537
586.500	358.632	80.008	19.994	103.638	18.937	83.384	0.499
587.000	358.881	80.008	19.993	103.635	18.935	83.510	0.458
587.500	359.123	80.008	19.995	103.628	18.935	83.518	0.472
588.000	359.387	80.008	19.995	103.620	18.936	83.455	0.499
588.500	359.607	80.009	19.994	103.612	18.941	83.101	0.495
589.000	359.854	80.007	19.995	103.604	18.939	83.239	0.475
589.500	360.103	80.007	19.995	103.599	18.939	83.223	0.482
590.000	360.377	80.007	19.994	103.599	18.941	83.070	0.510
590.500	360.595	80.007	19.995	103.597	18.941	83.056	0.507
591.000	360.871	80.008	19.994	103.593	18.942	82.983	0.492
591.500	361.108	80.007	19.996	103.588	18.953	82.252	0.503
592.000	361.384	80.008	19.993	103.580	18.951	82.388	0.514
592.500	361.646	80.007	19.995	103.572	18.959	81.821	0.526
593.000	361.897	80.008	19.995	103.564	18.962	81.600	0.525
593.500	362.157	80.009	19.992	103.559	18.969	81.117	0.512
594.000	362.395	80.008	19.995	103.551	18.975	80.696	0.504
594.500	362.645	80.008	19.995	103.548	18.984	80.089	0.493
595.000	362.859	80.007	19.995	103.541	18.989	79.726	0.476
595.500	363.131	80.008	19.994	103.532	18.999	79.056	0.475
596.000	363.389	80.008	19.996	103.525	19.009	78.314	0.508
596.500	363.638	80.008	19.996	103.521	19.016	77.875	0.519
597.000	363.891	80.008	19.995	103.510	19.028	77.002	0.504
597.500	364.126	80.009	19.995	103.501	19.040	76.171	0.495
598.000	364.385	80.008	19.995	103.493	19.051	75.446	0.491
598.500	364.679	80.007	19.995	103.484	19.063	74.563	0.524
599.000	364.861	80.009	19.996	103.476	19.077	73.631	0.514
599.500	365.119	80.009	19.996	103.467	19.090	72.722	0.458
600.000	365.376	80.009	19.996	103.459	19.102	71.910	0.477
600.500	365.646	80.009	19.995	103.451	19.114	71.099	0.521
601.000	365.873	80.008	19.995	103.444	19.132	69.797	0.512
601.500	366.171	80.009	19.996	103.439	19.147	68.808	0.511
602.000	366.393	80.009	19.996	103.436	19.163	67.693	0.523
602.500	366.670	80.009	19.996	103.431	19.178	66.622	0.510
603.000	366.924	80.010	19.993	103.424	19.192	65.658	0.515
603.500	367.182	80.010	19.995	103.416	19.208	64.592	0.521
604.000	367.399	80.010	19.995	103.408	19.222	63.589	0.493
604.500	367.647	80.011	19.995	103.400	19.239	62.423	0.470
605.000	367.913	80.010	19.996	103.396	19.257	61.189	0.489
605.500	368.156	80.010	19.995	103.392	19.271	60.210	0.511
606.000	368.414	80.010	19.994	103.387	19.289	58.951	0.505
606.500	368.678	80.010	19.994	103.381	19.307	57.700	0.511
607.000	368.919	80.011	19.995	103.374	19.326	56.423	0.514
607.500	369.148	80.009	19.995	103.367	19.337	55.632	0.488
608.000	369.453	80.010	19.996	103.363	19.355	54.398	0.502
608.500	369.678	80.010	19.995	103.358	19.373	53.125	0.532
609.000	369.953	80.009	19.995	103.356	19.390	52.002	0.515
609.500	370.178	80.010	19.994	103.357	19.410	50.614	0.500
610.000	370.424	80.010	19.994	103.354	19.426	49.510	0.485
610.500	370.687	80.009	19.996	103.354	19.441	48.441	0.490
611.000	370.919	80.009	19.993	103.355	19.459	47.210	0.502
611.500	371.208	80.008	19.994	103.351	19.475	46.131	0.508
612.000	371.438	80.009	19.994	103.345	19.489	45.179	0.520
612.500	371.710	80.008	19.994	103.340	19.507	43.926	0.510
613.000	371.977	80.009	19.994	103.332	19.524	42.697	0.520
613.500	372.206	80.007	19.993	103.325	19.538	41.763	0.517
614.000	372.488	80.008	19.995	103.322	19.553	40.704	0.503
614.500	372.737	80.007	19.995	103.320	19.571	39.456	0.521
615.000	372.971	80.007	19.995	103.318	19.586	38.486	0.507
615.500	373.285	80.007	19.995	103.317	19.600	37.491	0.516
616.000	373.521	80.008	19.995	103.311	19.614	36.488	0.549
616.500	373.790	80.006	19.997	103.304	19.628	35.544	0.527
617.000	374.033	80.007	19.994	103.297	19.640	34.704	0.508
617.500	374.311	80.007	19.996	103.293	19.652	33.896	0.516
618.000	374.525	80.008	19.995	103.287	19.667	32.877	0.506
618.500	374.806	80.008	19.994	103.287	19.680	31.964	0.494
619.000	375.046	80.007	19.996	103.287	19.692	31.151	0.508
619.500	375.318	80.008	19.996	103.291	19.704	30.291	0.517
620.000	375.517	80.008	19.996	103.295	19.713	29.679	0.492
620.500	375.816	80.006	19.995	103.300	19.727	28.711	0.484
621.000	376.069	80.007	19.996	103.301	19.736	28.084	0.525
621.500	376.283	80.006	19.995	103.304	19.748	27.303	0.509
622.000	376.552	80.007	19.994	103.299	19.759	26.541	0.475
622.500	376.788	80.008	19.995	103.293	19.770	25.768	0.494
623.000	377.091	80.007	19.996	103.287	19.779	25.162	0.522
623.500	377.310	80.007	19.996	103.286	19.789	24.463	0.530
624.000	377.566	80.005	19.997	103.282	19.797	23.920	0.498
624.500	377.840	80.007	19.996	103.281	19.805	23.335	0.502
625.000	378.082	80.006	19.995	103.281	19.811	22.935	0.523
625.500	378.336	80.006	19.995	103.280	19.820	22.281	0.506
626.000	378.628	80.007	19.996	103.279	19.826	21.919	0.521
626.500	378.863	80.007	19.994	103.278	19.836	21.175	0.536
627.000	379.106	80.007	19.995	103.278	19.843	20.687	0.502
627.500	379.355	80.006	19.996	103.276	19.847	20.427	0.485
628.000	379.633	80.006	19.995	103.277	19.855	19.857	0.509
628.500	379.869	80.006	19.997	103.277	19.861	19.467	0.521
629.000	380.166	80.008	19.997	103.278	19.866	19.126	0.524
629.500	380.374	80.007	19.996	103.276	19.873	18.669	0.519
630.000	380.683	80.008	19.996	103.277	19.879	18.247	0.511
630.500	380.881	80.007	19.996	103.277	19.882	18.039	0.512
631.000	381.165	80.007	19.996	103.273	19.888	17.616	0.495
631.500	381.412	80.007	19.995	103.271	19.892	17.326	0.506
632.000	381.687	80.006	19.996	103.272	19.898	16.920	0.527
632.500	381.943	80.008	19.995	103.268	19.901	16.727	0.527
633.000	382.158	80.007	19.995	103.267	19.907	16.312	0.501
633.500	382.434	80.006	19.996	103.272	19.910	16.059	0.481
634.000	382.658	80.007	19.996	103.272	19.913	15.854	0.495
634.500	382.921	80.007	19.995	103.268	19.914	15.796	0.494
635.000	383.172	80.006	19.995	103.265	19.921	15.319	0.501
635.500	383.427	80.006	19.995	103.260	19.924	15.135	0.510
636.000	383.695	80.007	19.996	103.253	19.929	14.800	0.514
636.500	383.925	80.008	19.995	103.251	19.932	14.554	0.510
637.000	384.223	80.008	19.995	103.254	19.937	14.241	0.513
637.500	384.511	80.007	19.995	103.258	19.940	14.012	0.557
638.000	384.672	80.007	19.994	103.262	19.941	13.928	0.518
638.500	384.964	80.006	19.995	103.264	19.948	13.461	0.451
639.000	385.210	80.008	19.993	103.263	19.948	13.485	0.495
639.500	385.448	80.007	19.994	103.260	19.950	13.304	0.511
640.000	385.670	80.007	19.994	103.258	19.952	13.224	0.472
640.500	385.949	80.008	19.994	103.259	19.955	12.971	0.481
641.000	386.191	80.007	19.994	103.262	19.959	12.738	0.511
641.500	386.451	80.006	19.995	103.264	19.959	12.696	0.511
642.000	386.702	80.006	19.995	103.264	19.962	12.536	0.506
642.500	386.939	80.008	19.995	103.265	19.962	12.514	0.500
643.000	387.186	80.007	19.995	103.262	19.966	12.218	0.486
643.500	387.420	80.008	19.994	103.258	19.968	12.069	0.482
644.000	387.655	80.006	19.995	103.257	19.970	11.978	0.475
644.500	387.940	80.007	19.994	103.257	19.972	11.827	0.495
645.000	388.191	80.007	19.995	103.257	19.971	11.868	0.528
645.500	388.429	80.008	19.994	103.261	19.971	11.865	0.512
646.000	388.659	80.006	19.994	103.264	19.977	11.455	0.479
646.500	388.899	80.006	19.994	103.264	19.973	11.723	0.470
647.000	389.168	80.006	19.995	103.263	19.976	11.524	0.490
647.500	389.409	80.006	19.995	103.263	19.976	11.517	0.509
648.000	389.650	80.007	19.994	103.258	19.981	11.176	0.496
648.500	389.863	80.008	19.993	103.254	19.980	11.259	0.468
649.000	390.144	80.006	19.993	103.254	19.979	11.345	0.474
649.500	390.397	80.006	19.995	103.255	19.983	11.068	0.514
650.000	390.641	80.007	19.993	103.253	19.983	11.075	0.515
650.500	390.902	80.006	19.995	103.253	19.984	11.008	0.501
651.000	391.143	80.006	19.994	103.253	19.984	11.020	0.504
651.500	391.403	80.005	19.994	103.253	19.985	10.906	0.502
652.000	391.682	80.007	19.993	103.252	19.984	10.976	0.520
652.500	391.888	80.007	19.994	103.255	19.988	10.680	0.512
653.000	392.173	80.006	19.994	103.257	19.993	10.364	0.487
653.500	392.401	80.007	19.994	103.259	19.988	10.712	0.502
654.000	392.623	80.007	19.994	103.258	19.988	10.705	0.482
654.500	392.889	80.008	19.994	103.259	19.988	10.701	0.469
655.000	393.158	80.005	19.994	103.257	19.992	10.464	0.511
655.500	393.422	80.007	19.995	103.256	19.991	10.505	0.534
656.000	393.687	80.008	19.995	103.261	19.994	10.332	0.531
656.500	393.966	80.008	19.995	103.267	19.993	10.356	0.536
657.000	394.201	80.007	19.995	103.271	19.992	10.466	0.529
657.500	394.467	80.009	19.994	103.274	19.994	10.274	0.508
658.000	394.725	80.007	19.994	103.273	19.993	10.352	0.513
658.500	394.971	80.007	19.994	103.268	19.995	10.198	0.514
659.000	395.225	80.008	19.994	103.261	19.996	10.136	0.502
659.500	395.465	80.009	19.997	103.253	19.999	9.980	0.497
660.000	395.679	80.008	19.996	103.255	19.998	10.013	0.474
660.500	395.958	80.010	19.995	103.257	19.996	10.157	0.473
661.000	396.238	80.009	19.995	103.258	20.000	9.911	0.526
661.500	396.471	80.009	19.996	103.258	20.002	9.768	0.536
662.000	396.747	80.010	19.994	103.259	20.002	9.740	0.511
662.500	396.960	80.009	19.994	103.255	20.001	9.796	0.499
663.000	397.203	80.009	19.995	103.253	20.001	9.781	0.473
663.500	397.470	80.009	19.995	103.255	20.002	9.768	0.483
664.000	397.683	80.008	19.995	103.253	19.999	9.922	0.495
664.500	397.971	80.009	19.994	103.254	20.000	9.868	0.490
665.000	398.205	80.011	19.994	103.255	20.001	9.839	0.511
665.500	398.460	80.009	19.993	103.258	20.003	9.699	0.506
666.000	398.700	80.009	19.995	103.254	20.002	9.757	0.492
666.500	398.943	80.009	19.995	103.255	20.004	9.622	0.489
667.000	399.252	80.009	19.994	103.252	20.002	9.759	0.517
667.500	399.463	80.009	19.994	103.250	20.003	9.672	0.536
668.000	399.743	80.009	19.994	103.248	20.004	9.629	0.506
668.500	399.960	80.010	19.995	103.249	20.004	9.577	0.494
669.000	400.233	80.010	19.994	103.249	20.003	9.694	0.494
669.500	400.485	80.009	19.994	103.248	20.005	9.551	0.508
670.000	400.745	80.009	19.993	103.248	20.004	9.611	0.519
670.500	400.974	80.009	19.994	103.246	20.005	9.518	0.500
671.000	401.212	80.008	19.995	103.243	20.006	9.473	0.477
671.500	401.457	80.009	19.994	103.246	20.003	9.692	0.475
672.000	401.713	80.009	19.997	103.251	20.004	9.575	0.492
672.500	401.942	80.008	19.995	103.252	20.002	9.718	0.494
673.000	402.242	80.008	19.995	103.253	20.007	9.392	0.507
673.500	402.472	80.008	19.994	103.254	20.004	9.608	0.529
674.000	402.757	80.008	19.995	103.251	20.008	9.355	0.522
674.500	403.037	80.010	19.993	103.246	20.009	9.238	0.540
675.000	403.255	80.007	19.994	103.245	20.012	9.060	0.531
675.500	403.497	80.008	19.994	103.246	20.012	9.064	0.479
676.000	403.686	80.008	19.994	103.248	20.010	9.186	0.445
676.500	403.984	80.008	19.995	103.250	20.008	9.316	0.459
677.000	404.268	80.009	19.994	103.256	20.011	9.113	0.535
677.500	404.479	80.009	19.994	103.258	20.007	9.392	0.539
678.000	404.757	80.008	19.993	103.256	20.008	9.327	0.493
678.500	404.982	80.007	19.994	103.255	20.012	9.084	0.496
679.000	405.206	80.009	19.995	103.255	20.014	8.916	0.476
679.500	405.479	80.008	19.994	103.254	20.009	9.294	0.473
680.000	405.699	80.008	19.994	103.255	20.011	9.125	0.494
680.500	405.962	80.009	19.995	103.260	20.013	9.002	0.488
681.000	406.221	80.009	19.995	103.264	20.014	8.945	0.503
681.500	406.465	80.010	19.994	103.263	20.012	9.041	0.513
682.000	406.747	80.009	19.994	103.259	20.013	8.987	0.514
682.500	406.982	80.009	19.993	103.256	20.013	9.002	0.521
683.000	407.259	80.010	19.994	103.253	20.015	8.825	0.515
683.500	407.472	80.009	19.994	103.249	20.017	8.698	0.501
684.000	407.750	80.010	19.994	103.251	20.018	8.646	0.491
684.500	408.027	80.009	19.995	103.252	20.017	8.698	0.522
685.000	408.237	80.009	19.994	103.254	20.015	8.854	0.521
685.500	408.503	80.009	19.994	103.257	20.018	8.668	0.482
686.000	408.830	80.010	19.995	103.261	20.018	8.616	0.534
686.500	409.045	80.009	19.995	103.259	20.014	8.893	0.568
687.000	409.299	80.011	19.994	103.258	20.018	8.612	0.506
687.500	409.516	80.010	19.994	103.255	20.018	8.651	0.470
688.000	409.789	80.010	19.994	103.253	20.016	8.780	0.480
688.500	410.053	80.009	19.995	103.251	20.020	8.471	0.514
689.000	410.326	80.010	19.994	103.251	20.019	8.593	0.537
689.500	410.608	80.011	19.995	103.255	20.020	8.472	0.546
690.000	410.814	80.009	19.995	103.258	20.019	8.592	0.521
690.500	411.111	80.009	19.995	103.259	20.023	8.301	0.495
691.000	411.354	80.010	19.994	103.258	20.022	8.345	0.522
691.500	411.629	80.010	19.994	103.261	20.019	8.583	0.529
692.000	411.854	80.009	19.995	103.260	20.020	8.524	0.509
692.500	412.151	80.010	19.995	103.259	20.025	8.163	0.511
693.000	412.392	80.009	19.994	103.256	20.016	8.811	0.530
693.500	412.628	80.008	19.995	103.257	20.024	8.232	0.507
694.000	412.865	80.007	19.995	103.251	20.028	7.937	0.475
694.500	413.128	80.007	19.993	103.248	20.015	8.881	0.486
695.000	413.421	80.009	19.996	103.247	20.027	8.055	0.528
695.500	413.621	80.008	19.994	103.246	20.032	7.656	0.524
696.000	413.880	80.007	19.994	103.244	20.029	7.894	0.476
696.500	414.167	80.008	19.995	103.246	20.023	8.293	0.502
697.000	414.416	80.006	19.994	103.246	20.016	8.761	0.541
697.500	414.648	80.007	19.995	103.246	20.024	8.251	0.509
698.000	414.882	80.006	19.995	103.247	20.022	8.389	0.473
698.500	415.181	80.007	19.994	103.247	20.023	8.296	0.499
699.000	415.419	80.008	19.995	103.246	20.025	8.177	0.535
699.500	415.653	80.007	19.994	103.245	20.026	8.099	0.504
700.000	415.955	80.007	19.995	103.246	20.025	8.164	0.505
700.500	416.146	80.008	19.994	103.246	20.024	8.219	0.515
701.000	416.395	80.008	19.995	103.248	20.024	8.232	0.467
701.500	416.784	80.005	19.995	103.248	20.023	8.268	0.539
702.000	417.030	80.007	19.995	103.252	20.023	8.279	0.636
702.500	417.223	80.006	19.994	103.254	20.025	8.139	0.537
703.000	417.420	80.007	19.995	103.259	20.023	8.273	0.415
703.500	417.780	80.008	19.995	103.258	20.023	8.281	0.473
704.000	418.013	80.007	19.995	103.260	20.026	8.084	0.575
704.500	418.410	80.007	19.994	103.258	20.023	8.264	0.611
705.000	418.548	80.006	19.995	103.256	20.025	8.130	0.582
705.500	418.706	80.007	19.995	103.254	20.024	8.210	0.416
706.000	419.178	80.005	19.996	103.255	20.026	8.095	0.463
706.500	419.040	80.006	19.995	103.257	20.025	8.171	0.482
707.000	419.453	80.006	19.995	103.255	20.024	8.225	0.305
707.500	419.764	80.006	19.995	103.255	20.024	8.259	0.499
708.000	420.129	80.007	19.995	103.252	20.026	8.080	0.700
708.500	420.239	80.008	19.995	103.250	20.026	8.056	0.576
709.000	420.955	80.007	19.995	103.248	20.026	8.069	0.651
709.500	421.023	80.008	19.997	103.247	20.029	7.898	0.805
710.000	421.375	80.007	19.997	103.247	20.025	8.129	0.602
710.500	421.653	80.006	19.997	103.246	20.027	8.009	0.525
711.000	421.347	80.007	19.995	103.246	20.029	7.853	0.301
711.500	421.622	80.006	19.996	103.246	20.027	8.018	-0.029
712.000	422.114	80.006	19.997	103.246	20.028	7.933	0.368
712.500	422.382	80.007	19.997	103.246	20.027	8.011	0.763
713.000	422.637	80.007	19.996	103.247	20.029	7.896	0.641
713.500	422.938	80.007	19.996	103.247	20.030	7.805	0.540
714.000	422.982	80.006	19.995	103.246	20.028	7.946	0.451
714.500	423.379	80.007	19.995	103.246	20.027	7.987	0.393
715.000	423.605	80.007	19.995	103.249	20.029	7.895	0.532
715.500	423.856	80.005	19.995	103.249	20.027	8.046	0.550
716.000	424.072	80.007	19.994	103.250	20.031	7.752	0.472
716.500	424.405	80.006	19.994	103.249	20.028	7.935	0.508
717.000	424.586	80.007	19.996	103.249	20.031	7.719	0.532
717.500	424.865	80.006	19.995	103.246	20.029	7.914	0.487
718.000	425.150	80.006	19.995	103.246	20.032	7.685	0.511
718.500	425.339	80.005	19.995	103.247	20.032	7.700	0.519
719.000	425.635	80.007	19.996	103.249	20.033	7.641	0.479
719.500	425.906	80.006	19.996	103.252	20.032	7.667	0.526
720.000	426.160	80.007	19.995	103.254	20.033	7.629	0.547
720.500	426.342	80.008	19.995	103.254	20.033	7.592	0.481
721.000	426.674	80.008	19.996	103.252	20.036	7.430	0.475
721.500	426.880	80.008	19.995	103.250	20.035	7.492	0.526
722.000	427.175	80.007	19.996	103.247	20.032	7.657	0.520
722.500	427.425	80.007	19.995	103.245	20.036	7.384	0.523
723.000	427.703	80.007	19.996	103.248	20.034	7.548	0.536
723.500	427.946	80.007	19.995	103.248	20.031	7.723	0.525
724.000	428.138	80.007	19.995	103.248	20.035	7.488	0.478
724.500	428.472	80.008	19.996	103.248	20.035	7.469	0.480
725.000	428.727	80.008	19.996	103.247	20.036	7.408	0.557
725.500	428.946	80.007	19.995	103.243	20.038	7.281	0.531
726.000	429.219	80.008	19.995	103.243	20.034	7.538	0.483
726.500	429.430	80.007	19.996	103.243	20.038	7.287	0.488
727.000	429.707	80.007	19.996	103.243	20.036	7.434	0.486
727.500	429.940	80.007	19.995	103.244	20.033	7.613	0.499
728.000	430.212	80.007	19.996	103.244	20.035	7.447	0.507
728.500	430.432	80.006	19.996	103.244	20.035	7.453	0.499
729.000	430.742	80.007	19.995	103.244	20.035	7.456	0.511
729.500	430.982	80.006	19.995	103.244	20.039	7.228	0.540
730.000	431.221	80.006	19.996	103.244	20.038	7.268	0.515
730.500	431.491	80.005	19.994	103.244	20.040	7.105	0.494
731.000	431.770	80.007	19.995	103.244	20.042	6.999	0.529
731.500	432.020	80.006	19.996	103.244	20.042	6.958	0.539
732.000	432.312	80.006	19.995	103.244	20.041	7.071	0.535
732.500	432.555	80.007	19.995	103.245	20.039	7.224	0.538
733.000	432.798	80.008	19.996	103.245	20.041	7.067	0.511
733.500	433.053	80.007	19.996	103.245	20.041	7.086	0.492
734.000	433.271	80.006	19.994	103.246	20.043	6.920	0.486
734.500	433.565	80.007	19.995	103.246	20.040	7.129	0.492
735.000	433.794	80.007	19.995	103.245	20.036	7.410	0.517
735.500	434.122	80.007	19.994	103.245	20.043	6.939	0.540
736.000	434.321	80.007	19.995	103.245	20.040	7.153	0.542
736.500	434.576	80.007	19.995	103.244	20.041	7.022	0.490
737.000	434.853	80.007	19.996	103.243	20.040	7.113	0.492
737.500	435.100	80.008	19.994	103.243	20.042	7.007	0.528
738.000	435.339	80.008	19.995	103.244	20.042	6.957	0.506
738.500	435.623	80.007	19.995	103.244	20.041	7.082	0.505
739.000	435.903	80.008	19.995	103.245	20.043	6.894	0.543
739.500	436.100	80.008	19.994	103.245	20.044	6.849	0.521
740.000	436.371	80.008	19.994	103.245	20.043	6.890	0.473
740.500	436.672	80.009	19.994	103.245	20.042	7.010	0.520
741.000	436.890	80.010	19.994	103.244	20.043	6.917	0.545
741.500	437.133	80.009	19.994	103.244	20.043	6.927	0.490
742.000	437.393	80.009	19.995	103.243	20.044	6.817	0.482
742.500	437.656	80.008	19.994	103.243	20.048	6.570	0.513
743.000	437.929	80.008	19.994	103.243	20.042	7.000	0.530
743.500	438.193	80.008	19.995	103.245	20.044	6.875	0.536
744.000	438.473	80.009	19.995	103.245	20.043	6.918	0.540
744.500	438.694	80.009	19.995	103.245	20.047	6.669	0.522
745.000	439.011	80.008	19.996	103.245	20.046	6.706	0.519
745.500	439.241	80.009	19.995	103.246	20.046	6.738	0.542
746.000	439.467	80.009	19.995	103.245	20.047	6.654	0.501
746.500	439.698	80.008	19.993	103.245	20.045	6.794	0.457
747.000	439.986	80.008	19.995	103.243	20.043	6.892	0.488
747.500	440.233	80.009	19.995	103.239	20.044	6.838	0.527
748.000	440.494	80.008	19.995	103.235	20.047	6.608	0.521
748.500	440.734	80.008	19.994	103.234	20.046	6.676	0.505
749.000	440.991	80.008	19.995	103.231	20.046	6.682	0.499
749.500	441.252	80.008	19.995	103.233	20.046	6.684	0.508
750.000	441.495	80.010	19.994	103.236	20.044	6.822	0.511
750.500	441.742	80.008	19.994	103.240	20.044	6.826	0.497
751.000	442.004	80.009	19.994	103.241	20.044	6.870	0.499
751.500	442.272	80.008	19.994	103.244	20.046	6.697	0.519
752.000	442.502	80.007	19.994	103.243	20.048	6.605	0.514
752.500	442.770	80.008	19.995	103.238	20.047	6.628	0.498
753.000	443.024	80.009	19.995	103.234	20.046	6.713	0.510
753.500	443.319	80.009	19.994	103.235	20.047	6.650	0.535
754.000	443.538	80.008	19.995	103.233	20.048	6.552	0.531
754.500	443.784	80.008	19.994	103.233	20.048	6.567	0.489
755.000	444.102	80.008	19.995	103.237	20.049	6.504	0.514
755.500	444.317	80.007	19.995	103.237	20.047	6.656	0.549
756.000	444.574	80.008	19.996	103.236	20.050	6.403	0.503
756.500	444.822	80.008	19.994	103.237	20.050	6.448	0.489
757.000	445.072	80.007	19.995	103.238	20.051	6.346	0.502
757.500	445.359	80.008	19.995	103.238	20.048	6.600	0.517
758.000	445.574	80.008	19.994	103.241	20.053	6.221	0.519
758.500	445.835	80.009	19.995	103.242	20.050	6.409	0.489
759.000	446.124	80.009	19.995	103.242	20.049	6.498	0.513
759.500	446.335	80.008	19.993	103.242	20.051	6.371	0.525
760.000	446.595	80.008	19.994	103.243	20.049	6.483	0.486
760.500	446.858	80.010	19.994	103.244	20.055	6.103	0.497
761.000	447.082	80.009	19.994	103.245	20.052	6.295	0.505
761.500	447.346	80.008	19.994	103.245	20.050	6.405	0.487
762.000	447.608	80.009	19.995	103.242	20.052	6.321	0.508
762.500	447.870	80.008	19.993	103.241	20.052	6.312	0.525
763.000	448.114	80.009	19.995	103.237	20.055	6.109	0.515
763.500	448.358	80.009	19.995	103.236	20.052	6.293	0.497
764.000	448.615	80.008	19.994	103.234	20.054	6.124	0.494
764.500	448.888	80.011	19.994	103.238	20.055	6.061	0.515
765.000	449.147	80.010	19.994	103.239	20.053	6.227	0.530
765.500	449.348	80.009	19.994	103.243	20.055	6.119	0.496
766.000	449.642	80.009	19.994	103.244	20.055	6.061	0.478
766.500	449.906	80.010	19.994	103.246	20.055	6.055	0.527
767.000	450.153	80.009	19.995	103.246	20.054	6.170	0.535
767.500	450.408	80.009	19.994	103.246	20.058	5.906	0.506
768.000	450.651	80.010	19.994	103.246	20.053	6.204	0.500
768.500	450.916	80.009	19.994	103.246	20.055	6.081	0.503
769.000	451.142	80.009	19.994	103.245	20.058	5.882	0.499
769.500	451.442	80.011	19.994	103.245	20.056	6.014	0.509
770.000	451.739	80.009	19.994	103.245	20.056	6.010	0.562
770.500	451.978	80.011	19.994	103.243	20.058	5.884	0.566
771.000	452.209	80.010	19.993	103.242	20.058	5.895	0.503
771.500	452.467	80.010	19.993	103.243	20.054	6.161	0.479
772.000	452.697	80.010	19.994	103.242	20.057	5.962	0.488
772.500	452.945	80.010	19.993	103.242	20.055	6.119	0.483
773.000	453.210	80.009	19.994	103.243	20.056	6.020	0.495
773.500	453.431	80.008	19.994	103.244	20.054	6.126	0.500
774.000	453.703	80.010	19.993	103.245	20.059	5.826	0.490
774.500	453.983	80.009	19.994	103.246	20.059	5.837	0.522
775.000	454.199	80.008	19.993	103.246	20.060	5.765	0.524
775.500	454.495	80.008	19.995	103.246	20.058	5.849	0.504
776.000	454.750	80.009	19.993	103.247	20.056	6.007	0.532
776.500	454.987	80.008	19.995	103.247	20.061	5.670	0.522
777.000	455.266	80.009	19.993	103.246	20.060	5.759	0.504
777.500	455.488	80.007	19.994	103.244	20.060	5.726	0.508
778.000	455.783	80.008	19.993	103.243	20.059	5.780	0.509
778.500	456.012	80.006	19.994	103.243	20.060	5.720	0.520
779.000	456.308	80.007	19.995	103.243	20.057	5.938	0.525
779.500	456.548	80.007	19.995	103.244	20.059	5.807	0.531
780.000	456.791	80.006	19.995	103.247	20.061	5.709	0.509
780.500	457.033	80.007	19.995	103.247	20.063	5.556	0.484
781.000	457.291	80.007	19.995	103.242	20.060	5.749	0.493
781.500	457.539	80.007	19.995	103.242	20.061	5.691	0.503
782.000	457.800	80.006	19.996	103.242	20.061	5.684	0.508
782.500	458.034	80.007	19.995	103.241	20.065	5.383	0.502
783.000	458.298	80.006	19.994	103.241	20.064	5.476	0.497
783.500	458.554	80.006	19.996	103.246	20.064	5.485	0.509
784.000	458.827	80.006	19.996	103.243	20.064	5.482	0.524
784.500	459.067	80.007	19.995	103.242	20.063	5.545	0.521
785.000	459.318	80.006	19.996	103.243	20.065	5.432	0.502
785.500	459.552	80.005	19.995	103.243	20.065	5.428	0.488
786.000	459.826	80.007	19.996	103.240	20.067	5.296	0.496
786.500	460.055	80.007	19.996	103.243	20.063	5.510	0.506
787.000	460.302	80.007	19.996	103.244	20.066	5.329	0.490
787.500	460.591	80.006	19.996	103.242	20.063	5.554	0.506
788.000	460.812	80.007	19.996	103.242	20.063	5.560	0.523
788.500	461.072	80.006	19.995	103.243	20.065	5.396	0.496
789.000	461.330	80.006	19.996	103.243	20.066	5.359	0.500
789.500	461.528	80.007	19.996	103.243	20.065	5.429	0.487
790.000	461.802	80.006	19.996	103.242	20.065	5.400	0.464
790.500	462.067	80.006	19.996	103.240	20.064	5.469	0.506
791.000	462.358	80.007	19.996	103.238	20.066	5.316	0.548
791.500	462.580	80.007	19.995	103.233	20.067	5.296	0.534
792.000	462.819	80.007	19.996	103.230	20.067	5.259	0.487
792.500	463.060	80.008	19.996	103.228	20.066	5.329	0.470
793.000	463.283	80.008	19.996	103.228	20.070	5.048	0.472
793.500	463.591	80.006	19.995	103.229	20.067	5.284	0.498
794.000	463.875	80.007	19.996	103.232	20.067	5.294	0.561
794.500	464.069	80.007	19.996	103.234	20.067	5.234	0.535
795.000	464.321	80.007	19.995	103.236	20.064	5.478	0.463
795.500	464.607	80.008	19.995	103.239	20.066	5.348	0.492
796.000	464.814	80.007	19.995	103.241	20.065	5.402	0.516
796.500	465.102	80.008	19.996	103.242	20.064	5.457	0.494
797.000	465.333	80.006	19.994	103.244	20.064	5.470	0.507
797.500	465.576	80.008	19.996	103.244	20.065	5.431	0.497
798.000	465.838	80.009	19.996	103.244	20.065	5.426	0.489
798.500	466.096	80.008	19.995	103.242	20.066	5.297	0.512
799.000	466.346	80.008	19.995	103.236	20.062	5.584	0.514
799.500	466.616	80.006	19.995	103.235	20.066	5.334	0.514
800.000	466.852	80.009	19.994	103.236	20.068	5.197	0.513
800.500	467.080	80.007	19.995	103.235	20.063	5.552	0.485
801.000	467.351	80.007	19.996	103.236	20.064	5.478	0.482
801.500	467.601	80.007	19.996	103.243	20.066	5.359	0.510
802.000	467.838	80.008	19.996	103.244	20.065	5.417	0.504
802.500	468.066	80.007	19.996	103.243	20.068	5.216	0.476
803.000	468.332	80.006	19.995	103.243	20.066	5.303	0.480
803.500	468.615	80.007	19.996	103.243	20.068	5.203	0.522
804.000	468.852	80.007	19.996	103.239	20.067	5.229	0.535
804.500	469.106	80.006	19.995	103.238	20.072	4.948	0.506
805.000	469.358	80.008	19.996	103.238	20.068	5.210	0.499
805.500	469.607	80.005	19.995	103.237	20.062	5.594	0.504
806.000	469.876	80.008	19.995	103.237	20.068	5.208	0.510
806.500	470.097	80.007	19.996	103.237	20.066	5.361	0.504
807.000	470.391	80.007	19.996	103.236	20.068	5.203	0.502
807.500	470.618	80.006	19.997	103.236	20.067	5.295	0.518
808.000	470.909	80.006	19.996	103.238	20.071	4.988	0.519
808.500	471.133	80.005	19.995	103.237	20.073	4.835	0.517
809.000	471.336	80.005	19.995	103.237	20.069	5.144	0.471
809.500	471.598	80.006	19.995	103.239	20.068	5.174	0.446
810.000	471.833	80.006	19.996	103.236	20.068	5.191	0.481
810.500	472.109	80.006	19.996	103.234	20.070	5.046	0.504
811.000	472.381	80.006	19.996	103.233	20.069	5.091	0.529
811.500	472.608	80.007	19.995	103.235	20.068	5.171	0.523
812.000	472.881	80.005	19.996	103.236	20.069	5.137	0.500
812.500	473.155	80.006	19.995	103.239	20.068	5.161	0.524
813.000	473.376	80.006	19.996	103.240	20.066	5.301	0.521
813.500	473.648	80.005	19.996	103.241	20.069	5.116	0.493
814.000	473.902	80.007	19.996	103.238	20.068	5.221	0.509
814.500	474.178	80.005	19.997	103.239	20.068	5.163	0.529
815.000	474.438	80.005	19.996	103.239	20.066	5.324	0.533
815.500	474.669	80.006	19.996	103.238	20.068	5.188	0.513
816.000	474.968	80.007	19.997	103.239	20.068	5.186	0.510
816.500	475.182	80.007	19.997	103.242	20.065	5.383	0.522
817.000	475.437	80.006	19.995	103.241	20.067	5.283	0.491
817.500	475.687	80.007	19.996	103.240	20.069	5.151	0.487
818.000	475.984	80.006	19.997	103.239	20.068	5.180	0.526
818.500	476.203	80.007	19.995	103.235	20.069	5.143	0.532
819.000	476.481	80.008	19.996	103.230	20.070	5.069	0.506
819.500	476.708	80.007	19.996	103.224	20.069	5.123	0.501
820.000	476.960	80.006	19.997	103.224	20.068	5.186	0.492
820.500	477.229	80.006	19.997	103.226	20.068	5.193	0.500
821.000	477.463	80.007	19.996	103.229	20.070	5.048	0.512
821.500	477.733	80.007	19.996	103.234	20.068	5.188	0.504
822.000	478.003	80.007	19.994	103.240	20.067	5.262	0.522
822.500	478.240	80.008	19.995	103.239	20.069	5.125	0.523
823.000	478.513	80.006	19.996	103.232	20.071	5.013	0.508
823.500	478.777	80.008	19.994	103.225	20.070	5.020	0.524
824.000	479.051	80.008	19.995	103.225	20.071	4.981	0.538
824.500	479.302	80.009	19.994	103.226	20.070	5.084	0.531
825.000	479.516	80.009	19.996	103.229	20.067	5.262	0.494
825.500	479.763	80.009	19.995	103.236	20.069	5.095	0.463
826.000	480.047	80.008	19.996	103.243	20.070	5.024	0.497
826.500	480.292	80.009	19.995	103.245	20.067	5.229	0.530
827.000	480.537	80.010	19.995	103.245	20.068	5.203	0.509
827.500	480.780	80.009	19.995	103.244	20.067	5.279	0.489
828.000	481.047	80.008	19.995	103.244	20.071	5.004	0.499
828.500	481.295	80.007	19.994	103.241	20.070	5.069	0.513
829.000	481.550	80.008	19.995	103.241	20.070	5.065	0.509
829.500	481.826	80.009	19.995	103.241	20.069	5.156	0.517
830.000	482.078	80.008	19.994	103.242	20.069	5.102	0.529
830.500	482.352	80.009	19.995	103.243	20.070	5.082	0.526
831.000	482.577	80.009	19.995	103.241	20.069	5.140	0.512
831.500	482.838	80.009	19.995	103.240	20.070	5.039	0.493
832.000	483.079	80.009	19.994	103.239	20.069	5.118	0.494
832.500	483.356	80.008	19.995	103.237	20.069	5.135	0.510
833.000	483.592	80.008	19.994	103.236	20.066	5.301	0.515
833.500	483.873	80.008	19.994	103.240	20.066	5.340	0.514
834.000	484.099	80.008	19.994	103.241	20.069	5.151	0.512
834.500	484.366	80.008	19.995	103.240	20.071	5.004	0.500
835.000	484.659	80.008	19.995	103.241	20.070	5.063	0.527
835.500	484.883	80.007	19.994	103.241	20.069	5.149	0.539
836.000	485.124	80.009	19.995	103.241	20.070	5.039	0.491
836.500	485.398	80.007	19.994	103.240	20.069	5.150	0.490
837.000	485.679	80.009	19.995	103.241	20.071	4.998	0.535
837.500	485.894	80.009	19.994	103.242	20.072	4.905	0.525
838.000	486.168	80.009	19.995	103.244	20.068	5.178	0.492
838.500	486.407	80.008	19.994	103.244	20.066	5.309	0.501
839.000	486.699	80.008	19.995	103.246	20.070	5.074	0.522
839.500	486.937	80.008	19.996	103.246	20.069	5.143	0.531
840.000	487.213	80.008	19.997	103.246	20.070	5.052	0.522
840.500	487.467	80.007	19.995	103.246	20.069	5.149	0.522
841.000	487.692	80.007	19.996	103.245	20.070	5.020	0.504
841.500	487.938	80.008	19.995	103.246	20.071	5.014	0.475
842.000	488.223	80.008	19.996	103.243	20.070	5.078	0.501
842.500	488.495	80.008	19.995	103.235	20.071	4.985	0.544
843.000	488.754	80.007	19.996	103.230	20.070	5.072	0.544
843.500	488.982	80.007	19.994	103.229	20.069	5.101	0.509
844.000	489.242	80.008	19.995	103.228	20.070	5.036	0.487
844.500	489.514	80.008	19.995	103.231	20.070	5.031	0.510
845.000	489.790	80.008	19.994	103.239	20.072	4.906	0.540
845.500	490.076	80.007	19.994	103.245	20.068	5.172	0.555
846.000	490.302	80.008	19.995	103.244	20.069	5.109	0.538
846.500	490.567	80.009	19.994	103.241	20.070	5.063	0.502
847.000	490.826	80.008	19.994	103.238	20.068	5.221	0.507
847.500	491.057	80.008	19.994	103.237	20.069	5.150	0.507
848.000	491.307	80.008	19.994	103.236	20.070	5.063	0.486
848.500	491.578	80.009	19.995	103.235	20.070	5.063	0.501
849.000	491.864	80.009	19.994	103.238	20.071	4.968	0.539
849.500	492.114	80.009	19.994	103.240	20.069	5.126	0.546
850.000	492.353	80.009	19.994	103.239	20.070	5.085	0.512
850.500	492.611	80.010	19.994	103.237	20.072	4.895	0.493
851.000	492.902	80.010	19.994	103.237	20.070	5.055	0.523
851.500	493.165	80.010	19.994	103.236	20.070	5.071	0.552
852.000	493.399	80.009	19.995	103.236	20.071	4.973	0.526
852.500	493.688	80.009	19.994	103.231	20.072	4.919	0.510
853.000	493.952	80.009	19.995	103.232	20.071	4.969	0.538
853.500	494.209	80.011	19.995	103.233	20.069	5.137	0.537
854.000	494.464	80.010	19.994	103.228	20.073	4.847	0.516
854.500	494.746	80.009	19.995	103.223	20.073	4.873	0.524
855.000	495.025	80.011	19.994	103.225	20.069	5.092	0.549
855.500	495.287	80.010	19.994	103.224	20.073	4.833	0.551
856.000	495.531	80.009	19.994	103.224	20.071	5.003	0.523
856.500	495.786	80.009	19.994	103.226	20.074	4.759	0.503
857.000	496.009	80.009	19.994	103.228	20.071	4.993	0.489
857.500	496.267	80.010	19.993	103.232	20.073	4.830	0.480
858.000	496.555	80.009	19.994	103.233	20.073	4.852	0.513
858.500	496.795	80.009	19.994	103.231	20.076	4.651	0.537
859.000	497.086	80.009	19.994	103.235	20.074	4.759	0.530
859.500	497.330	80.009	19.995	103.237	20.072	4.893	0.533
860.000	497.535	80.009	19.993	103.237	20.072	4.945	0.491
860.500	497.849	80.009	19.994	103.237	20.070	5.019	0.484
861.000	498.144	80.008	19.994	103.237	20.071	4.980	0.564
861.500	498.399	80.008	19.995	103.232	20.072	4.915	0.580
862.000	498.643	80.009	19.994	103.226	20.071	5.002	0.525
862.500	498.873	80.008	19.995	103.221	20.069	5.132	0.486
863.000	499.134	80.008	19.994	103.219	20.070	5.021	0.482
863.500	499.424	80.007	19.994	103.221	20.071	4.969	0.521
864.000	499.677	80.007	19.994	103.227	20.070	5.038	0.547
864.500	499.944	80.008	19.993	103.233	20.070	5.073	0.531
865.000	500.205	80.008	19.994	103.235	20.068	5.170	0.524
865.500	500.475	80.007	19.994	103.233	20.069	5.114	0.529
866.000	500.740	80.007	19.995	103.228	20.069	5.124	0.533
866.500	500.991	80.008	19.995	103.224	20.073	4.877	0.526
867.000	501.261	80.007	19.996	103.221	20.070	5.046	0.519
867.500	501.519	80.007	19.993	103.219	20.072	4.940	0.524
868.000	501.792	80.007	19.994	103.221	20.072	4.893	0.530
868.500	502.056	80.007	19.995	103.221	20.076	4.657	0.534
869.000	502.285	80.007	19.995	103.221	20.073	4.841	0.515
869.500	502.565	80.007	19.995	103.221	20.069	5.127	0.501
870.000	502.790	80.008	19.994	103.221	20.070	5.034	0.507
870.500	503.067	80.008	19.996	103.221	20.071	4.999	0.503
871.000	503.319	80.008	19.994	103.222	20.070	5.053	0.515
871.500	503.572	80.007	19.995	103.221	20.071	4.969	0.517
872.000	503.846	80.007	19.995	103.220	20.073	4.867	0.516
872.500	504.096	80.008	19.995	103.218	20.077	4.601	0.526
873.000	504.349	80.008	19.996	103.217	20.072	4.902	0.514
873.500	504.589	80.009	19.995	103.213	20.070	5.028	0.498
874.000	504.860	80.009	19.995	103.215	20.069	5.114	0.502
874.500	505.081	80.008	19.996	103.214	20.071	4.995	0.502
875.000	505.372	80.008	19.996	103.216	20.072	4.899	0.503
875.500	505.623	80.008	19.995	103.221	20.073	4.849	0.527
876.000	505.860	80.007	19.995	103.226	20.074	4.745	0.514
876.500	506.142	80.007	19.996	103.225	20.070	5.033	0.503
877.000	506.383	80.007	19.995	103.226	20.073	4.826	0.521
877.500	506.638	80.007	19.994	103.229	20.076	4.644	0.509
878.000	506.930	80.007	19.994	103.226	20.074	4.810	0.521
878.500	507.164	80.008	19.996	103.227	20.076	4.646	0.537
879.000	507.423	80.008	19.995	103.226	20.076	4.618	0.510
879.500	507.656	80.008	19.995	103.229	20.075	4.741	0.493
880.000	507.919	80.008	19.995	103.227	20.076	4.613	0.494
880.500	508.201	80.008	19.995	103.223	20.075	4.726	0.520
881.000	508.482	80.007	19.995	103.224	20.072	4.934	0.554
881.500	508.730	80.007	19.996	103.229	20.073	4.871	0.546
882.000	508.991	80.006	19.997	103.230	20.074	4.778	0.519
882.500	509.215	80.007	19.995	103.223	20.072	4.934	0.497
883.000	509.475	80.008	19.995	103.222	20.073	4.834	0.485
883.500	509.731	80.008	19.996	103.217	20.070	5.033	0.500
884.000	509.955	80.007	19.995	103.209	20.072	4.919	0.497
884.500	510.243	80.008	19.996	103.203	20.071	4.967	0.496
885.000	510.479	80.007	19.997	103.213	20.074	4.781	0.518
885.500	510.721	80.007	19.997	103.221	20.073	4.842	0.501
886.000	510.990	80.006	19.998	103.228	20.073	4.848	0.495
886.500	511.233	80.008	19.997	103.233	20.073	4.861	0.511
887.000	511.490	80.007	19.995	103.232	20.075	4.738	0.506
887.500	511.705	80.006	19.996	103.234	20.074	4.751	0.486
888.000	511.979	80.007	19.995	103.233	20.076	4.651	0.481
888.500	512.201	80.007	19.996	103.230	20.073	4.872	0.492
889.000	512.491	80.007	19.996	103.231	20.075	4.703	0.504
889.500	512.736	80.007	19.996	103.238	20.075	4.694	0.523
890.000	513.023	80.007	19.995	103.239	20.077	4.554	0.533
890.500	513.276	80.007	19.995	103.238	20.074	4.761	0.536
891.000	513.509	80.007	19.995	103.240	20.073	4.813	0.513
891.500	513.809	80.007	19.995	103.239	20.075	4.720	0.510
892.000	514.075	80.009	19.995	103.235	20.075	4.704	0.550
892.500	514.291	80.007	19.995	103.230	20.076	4.611	0.524
893.000	514.588	80.006	19.996	103.229	20.077	4.549	0.497
893.500	514.813	80.008	19.995	103.224	20.074	4.791	0.518
894.000	515.087	80.007	19.994	103.225	20.073	4.817	0.511
894.500	515.304	80.008	19.994	103.225	20.075	4.679	0.495
895.000	515.581	80.007	19.995	103.223	20.076	4.629	0.492
895.500	515.816	80.007	19.995	103.219	20.077	4.584	0.503
896.000	516.101	80.008	19.996	103.217	20.076	4.616	0.516
896.500	516.340	80.007	19.994	103.212	20.075	4.698	0.522
897.000	516.595	80.007	19.994	103.211	20.080	4.352	0.509
897.500	516.821	80.005	19.996	103.214	20.079	4.424	0.488
898.000	517.100	80.007	19.995	103.216	20.075	4.718	0.493
898.500	517.344	80.007	19.994	103.218	20.076	4.672	0.514
899.000	517.592	80.006	19.995	103.219	20.078	4.482	0.507
899.500	517.881	80.005	19.998	103.218	20.077	4.551	0.515
900.000	518.099	80.006	19.995	103.219	20.076	4.674	0.522
900.500	518.379	80.006	19.995	103.220	20.080	4.391	0.503
901.000	518.630	80.006	19.996	103.223	20.079	4.437	0.514
901.500	518.876	80.007	19.996	103.230	20.081	4.301	0.514
902.000	519.153	80.007	19.995	103.232	20.081	4.307	0.510
902.500	519.416	80.006	19.996	103.233	20.078	4.536	0.531
903.000	519.612	80.007	19.995	103.234	20.079	4.428	0.499
903.500	519.892	80.007	19.996	103.232	20.079	4.441	0.467
904.000	520.177	80.006	19.995	103.231	20.080	4.369	0.520
904.500	520.382	80.006	19.995	103.234	20.081	4.311	0.527
905.000	520.675	80.008	19.995	103.231	20.081	4.307	0.494
905.500	520.926	80.007	19.995	103.227	20.079	4.462	0.521
906.000	521.157	80.007	19.994	103.227	20.081	4.279	0.513
906.500	521.449	80.006	19.996	103.226	20.080	4.385	0.503
907.000	521.679	80.008	19.996	103.222	20.077	4.551	0.523
907.500	521.983	80.009	19.996	103.222	20.079	4.428	0.528
908.000	522.163	80.008	19.996	103.225	20.081	4.324	0.509
908.500	522.483	80.007	19.995	103.229	20.082	4.240	0.492
909.000	522.668	80.008	19.995	103.230	20.077	4.542	0.502
909.500	522.985	80.008	19.996	103.234	20.078	4.471	0.504
910.000	523.236	80.008	19.995	103.238	20.079	4.408	0.535
910.500	523.476	80.008	19.995	103.237	20.076	4.612	0.530
911.000	523.736	80.008	19.997	103.231	20.079	4.437	0.495
911.500	523.992	80.007	19.996	103.228	20.079	4.459	0.508
912.000	524.226	80.009	19.995	103.223	20.076	4.649	0.503
912.500	524.523	80.009	19.996	103.222	20.078	4.514	0.510
913.000	524.758	80.008	19.996	103.225	20.079	4.460	0.532
913.500	525.014	80.008	19.997	103.226	20.077	4.538	0.512
914.000	525.266	80.007	19.996	103.227	20.079	4.466	0.499
914.500	525.544	80.009	19.996	103.233	20.078	4.531	0.519
915.000	525.760	80.008	19.997	103.236	20.076	4.659	0.512
915.500	526.076	80.007	19.995	103.237	20.079	4.453	0.513
916.000	526.282	80.008	19.996	103.236	20.081	4.324	0.527
916.500	526.535	80.007	19.996	103.231	20.079	4.408	0.491
917.000	526.804	80.008	19.996	103.228	20.079	4.428	0.490
917.500	527.050	80.009	19.995	103.227	20.078	4.497	0.519
918.000	527.283	80.007	19.995	103.224	20.079	4.437	0.497
918.500	527.551	80.007	19.995	103.222	20.078	4.513	0.490
919.000	527.812	80.008	19.996	103.226	20.080	4.389	0.515
919.500	528.038	80.009	19.996	103.228	20.083	4.132	0.508
920.000	528.339	80.009	19.996	103.228	20.081	4.276	0.507
920.500	528.567	80.009	19.995	103.227	20.081	4.280	0.528
921.000	528.786	80.007	19.995	103.228	20.082	4.250	0.488
921.500	529.069	80.009	19.995	103.229	20.081	4.319	0.475
922.000	529.316	80.007	19.996	103.224	20.082	4.198	0.516
922.500	529.593	80.008	19.995	103.222	20.080	4.393	0.527
923.000	529.877	80.007	19.994	103.226	20.085	4.004	0.542
923.500	530.095	80.008	19.995	103.229	20.084	4.104	0.531
924.000	530.350	80.008	19.995	103.229	20.081	4.326	0.488
924.500	530.638	80.007	19.994	103.232	20.077	4.562	0.508
925.000	530.873	80.008	19.994	103.234	20.078	4.475	0.533
925.500	531.122	80.008	19.995	103.235	20.075	4.731	0.503
926.000	531.447	80.008	19.994	103.237	20.079	4.445	0.529
926.500	531.662	80.007	19.995	103.236	20.081	4.291	0.557
927.000	531.944	80.008	19.995	103.233	20.080	4.361	0.519
927.500	532.200	80.008	19.995	103.227	20.080	4.388	0.518
928.000	532.462	80.008	19.995	103.221	20.081	4.315	0.528
928.500	532.737	80.010	19.995	103.220	20.081	4.291	0.527
929.000	532.951	80.009	19.995	103.219	20.081	4.321	0.513
929.500	533.286	80.009	19.996	103.221	20.077	4.577	0.519
930.000	533.539	80.007	19.995	103.227	20.080	4.332	0.569
930.500	533.795	80.009	19.995	103.232	20.080	4.344	0.549
931.000	534.068	80.009	19.994	103.234	20.077	4.582	0.519
931.500	534.355	80.009	19.995	103.238	20.079	4.428	0.544
932.000	534.595	80.009	19.995	103.240	20.077	4.580	0.544
932.500	534.870	80.010	19.995	103.238	20.077	4.556	0.521
933.000	535.157	80.010	19.994	103.236	20.078	4.482	0.539
933.500	535.428	80.010	19.995	103.232	20.077	4.564	0.560
934.000	535.720	80.011	19.995	103.228	20.079	4.433	0.561
934.500	535.970	80.010	19.995	103.228	20.076	4.620	0.552
935.000	536.308	80.011	19.995	103.227	20.077	4.538	0.564
935.500	536.541	80.012	19.995	103.227	20.077	4.595	0.579
936.000	536.784	80.011	19.994	103.226	20.076	4.638	0.524
936.500	537.042	80.010	19.995	103.230	20.077	4.587	0.489
937.000	537.335	80.011	19.994	103.232	20.074	4.786	0.526
937.500	537.636	80.011	19.995	103.233	20.078	4.523	0.572
938.000	537.865	80.010	19.994	103.237	20.080	4.399	0.562
938.500	538.215	80.010	19.994	103.241	20.079	4.415	0.554
939.000	538.445	80.009	19.996	103.237	20.082	4.205	0.579
939.500	538.713	80.008	19.994	103.237	20.078	4.486	0.539
940.000	539.022	80.011	19.994	103.238	20.081	4.315	0.538
940.500	539.273	80.009	19.995	103.236	20.079	4.458	0.569
941.000	539.570	80.011	19.995	103.232	20.078	4.478	0.554
941.500	539.832	80.009	19.994	103.231	20.075	4.694	0.554
942.000	540.123	80.011	19.995	103.224	20.075	4.735	0.556
942.500	540.399	80.009	19.994	103.218	20.078	4.523	0.560
943.000	540.674	80.008	19.995	103.213	20.075	4.739	0.559
943.500	540.931	80.008	19.995	103.215	20.077	4.583	0.541
944.000	541.225	80.007	19.996	103.219	20.075	4.704	0.541
944.500	541.521	80.008	19.995	103.223	20.074	4.745	0.571
945.000	541.820	80.008	19.995	103.224	20.078	4.477	0.593
945.500	542.063	80.009	19.996	103.228	20.076	4.667	0.568
946.000	542.356	80.009	19.994	103.228	20.079	4.457	0.539
946.500	542.612	80.008	19.995	103.227	20.076	4.656	0.543
947.000	542.920	80.007	19.995	103.230	20.076	4.635	0.556
947.500	543.179	80.009	19.996	103.234	20.076	4.672	0.565
948.000	543.462	80.008	19.994	103.237	20.077	4.564	0.554
948.500	543.769	80.008	19.996	103.239	20.079	4.406	0.566
949.000	544.026	80.007	19.994	103.234	20.076	4.625	0.577
949.500	544.320	80.008	19.994	103.233	20.075	4.715	0.558
950.000	544.566	80.009	19.996	103.232	20.075	4.709	0.546
950.500	544.887	80.008	19.995	103.231	20.077	4.547	0.554
951.000	545.136	80.008	19.995	103.228	20.078	4.534	0.569
951.500	545.415	80.008	19.996	103.234	20.079	4.435	0.548
952.000	545.680	80.009	19.994	103.229	20.077	4.562	0.536
952.500	545.967	80.009	19.995	103.227	20.078	4.486	0.548
953.000	546.263	80.008	19.995	103.228	20.074	4.755	0.567
953.500	546.541	80.009	19.995	103.232	20.075	4.694	0.578
954.000	546.863	80.007	19.995	103.232	20.076	4.662	0.587
954.500	547.122	80.009	19.995	103.236	20.078	4.530	0.591
955.000	547.408	80.008	19.995	103.239	20.074	4.808	0.564
955.500	547.665	80.008	19.995	103.239	20.078	4.531	0.544
956.000	547.962	80.007	19.995	103.238	20.076	4.622	0.548
956.500	548.241	80.009	19.996	103.240	20.075	4.689	0.565
957.000	548.546	80.007	19.995	103.241	20.074	4.788	0.581
957.500	548.788	80.007	19.995	103.242	20.076	4.637	0.566
958.000	549.102	80.008	19.995	103.239	20.074	4.769	0.552
958.500	549.366	80.007	19.993	103.236	20.076	4.672	0.567
959.000	549.648	80.006	19.996	103.232	20.074	4.809	0.562
959.500	549.950	80.007	19.997	103.231	20.076	4.653	0.565
960.000	550.218	80.009	19.995	103.228	20.074	4.778	0.577
960.500	550.529	80.007	19.994	103.228	20.077	4.567	0.574
961.000	550.777	80.008	19.994	103.225	20.075	4.712	0.569
961.500	551.060	80.007	19.996	103.224	20.074	4.803	0.545
962.000	551.329	80.009	19.995	103.219	20.075	4.683	0.542
962.500	551.607	80.007	19.994	103.217	20.074	4.763	0.550
963.000	551.916	80.008	19.995	103.220	20.078	4.491	0.567
963.500	552.160	80.009	19.994	103.222	20.077	4.560	0.570
964.000	552.475	80.007	19.994	103.222	20.076	4.651	0.556
964.500	552.761	80.009	19.994	103.224	20.076	4.653	0.580
965.000	553.036	80.008	19.995	103.226	20.076	4.672	0.581
965.500	553.330	80.007	19.995	103.224	20.077	4.538	0.565
966.000	553.626	80.007	19.994	103.227	20.078	4.521	0.580
966.500	553.883	80.008	19.994	103.233	20.078	4.497	0.572
967.000	554.160	80.008	19.994	103.236	20.077	4.553	0.543
967.500	554.417	80.009	19.995	103.239	20.076	4.646	0.534
968.000	554.770	80.007	19.996	103.240	20.078	4.486	0.572
968.500	555.001	80.007	19.995	103.234	20.077	4.590	0.597
969.000	555.281	80.007	19.994	103.228	20.075	4.722	0.547
969.500	555.588	80.008	19.994	103.222	20.073	4.815	0.549
970.000	555.854	80.008	19.995	103.222	20.075	4.731	0.580
970.500	556.160	80.007	19.995	103.221	20.077	4.541	0.572
971.000	556.405	80.007	19.995	103.221	20.072	4.939	0.561
971.500	556.683	80.008	19.994	103.221	20.078	4.506	0.537
972.000	556.966	80.007	19.994	103.222	20.078	4.517	0.542
972.500	557.242	80.007	19.994	103.218	20.079	4.435	0.560
973.000	557.526	80.007	19.994	103.218	20.077	4.560	0.559
973.500	557.779	80.007	19.994	103.221	20.079	4.454	0.548
974.000	558.061	80.008	19.994	103.224	20.079	4.422	0.536
974.500	558.358	80.006	19.996	103.227	20.075	4.738	0.557
975.000	558.633	80.008	19.995	103.227	20.076	4.665	0.576
975.500	558.893	80.006	19.995	103.227	20.076	4.625	0.553
976.000	559.179	80.007	19.995	103.229	20.077	4.569	0.540
976.500	559.442	80.007	19.995	103.228	20.078	4.531	0.548
977.000	559.744	80.007	19.995	103.230	20.077	4.578	0.557
977.500	560.016	80.006	19.995	103.235	20.075	4.683	0.569
978.000	560.277	80.006	19.995	103.236	20.077	4.571	0.553
978.500	560.595	80.007	19.995	103.238	20.073	4.829	0.556
979.000	560.882	80.007	19.997	103.240	20.076	4.634	0.592
979.500	561.152	80.007	19.996	103.235	20.076	4.660	0.581
980.000	561.431	80.006	19.996	103.228	20.076	4.658	0.553
980.500	561.678	80.007	19.995	103.224	20.073	4.838	0.538
981.000	561.962	80.007	19.996	103.221	20.074	4.764	0.529
981.500	562.237	80.006	19.994	103.222	20.075	4.710	0.545
982.000	562.498	80.007	19.996	103.222	20.078	4.487	0.547
982.500	562.747	80.008	19.996	103.224	20.075	4.688	0.523
983.000	563.012	80.008	19.995	103.225	20.073	4.844	0.512
983.500	563.321	80.007	19.995	103.221	20.077	4.556	0.544
984.000	563.570	80.008	19.994	103.215	20.076	4.626	0.566
984.500	563.832	80.009	19.994	103.217	20.076	4.628	0.534
985.000	564.129	80.008	19.995	103.215	20.075	4.742	0.535
985.500	564.403	80.010	19.995	103.212	20.074	4.753	0.565
986.000	564.660	80.007	19.996	103.211	20.077	4.578	0.551
986.500	564.935	80.010	19.995	103.212	20.075	4.701	0.531
987.000	565.210	80.010	19.995	103.209	20.079	4.457	0.541
987.500	565.494	80.010	19.995	103.208	20.076	4.617	0.555
988.000	565.782	80.009	19.995	103.212	20.077	4.585	0.566
988.500	566.016	80.010	19.995	103.218	20.077	4.542	0.547
989.000	566.275	80.010	19.996	103.217	20.078	4.502	0.508
989.500	566.542	80.011	19.994	103.218	20.078	4.492	0.509
990.000	566.844	80.010	19.995	103.218	20.079	4.459	0.547
990.500	567.132	80.010	19.995	103.214	20.076	4.621	0.579
991.000	567.371	80.010	19.994	103.207	20.079	4.416	0.558
991.500	567.641	80.009	19.994	103.210	20.076	4.639	0.518
992.000	567.884	80.009	19.996	103.212	20.077	4.546	0.511
992.500	568.199	80.011	19.995	103.212	20.076	4.649	0.536
993.000	568.418	80.010	19.995	103.213	20.075	4.695	0.546
993.500	568.712	80.009	19.994	103.214	20.076	4.615	0.523
994.000	568.970	80.010	19.994	103.209	20.078	4.503	0.532
994.500	569.252	80.010	19.994	103.207	20.077	4.587	0.546
995.000	569.498	80.009	19.995	103.206	20.077	4.574	0.534
995.500	569.824	80.009	19.996	103.205	20.081	4.271	0.550
996.000	570.055	80.008	19.995	103.206	20.080	4.349	0.565
996.500	570.340	80.010	19.996	103.206	20.078	4.534	0.537
997.000	570.596	80.008	19.997	103.207	20.079	4.454	0.529
997.500	570.918	80.009	19.997	103.208	20.080	4.391	0.559
998.000	571.147	80.009	19.996	103.208	20.079	4.458	0.564
998.500	571.387	80.009	19.997	103.206	20.075	4.690	0.510
999.000	571.649	80.008	19.996	103.206	20.073	4.874	0.485
999.500	571.932	80.009	19.996	103.206	20.074	4.779	0.524
1000.000	572.185	80.008	19.995	103.205	20.073	4.855	0.541
1000.500	572.459	80.008	19.996	103.205	20.077	4.537	0.531
1001.000	572.718	80.008	19.996	103.205	20.074	4.794	0.530
1001.500	572.991	80.009	19.996	103.207	20.073	4.851	0.532
1002.000	573.293	80.009	19.996	103.206	20.073	4.851	0.554
1002.500	573.545	80.008	19.995	103.206	20.076	4.649	0.565
1003.000	573.818	80.007	19.995	103.207	20.074	4.768	0.540
1003.500	574.100	80.007	19.996	103.208	20.078	4.491	0.540
1004.000	574.396	80.007	19.995	103.206	20.076	4.661	0.566
1004.500	574.628	80.008	19.996	103.206	20.075	4.731	0.553
1005.000	574.925	80.007	19.996	103.206	20.078	4.493	0.528
1005.500	575.212	80.009	19.996	103.205	20.078	4.536	0.556
1006.000	575.437	80.008	19.996	103.204	20.077	4.543	0.548
1006.500	575.724	80.008	19.996	103.205	20.072	4.881	0.512
1007.000	575.971	80.008	19.995	103.210	20.076	4.648	0.523
1007.500	576.242	80.007	19.997	103.215	20.076	4.632	0.526
1008.000	576.546	80.008	19.996	103.220	20.078	4.535	0.546
1008.500	576.788	80.008	19.996	103.224	20.073	4.844	0.561
1009.000	577.043	80.009	19.996	103.222	20.075	4.738	0.522
1009.500	577.295	80.008	19.996	103.217	20.074	4.766	0.502
1010.000	577.554	80.009	19.996	103.214	20.074	4.764	0.509
1010.500	577.842	80.009	19.996	103.209	20.073	4.827	0.529
1011.000	578.095	80.009	19.996	103.206	20.074	4.747	0.544
1011.500	578.311	80.010	19.995	103.205	20.071	4.969	0.505
1012.000	578.600	80.009	19.995	103.207	20.072	4.920	0.487
1012.500	578.811	80.010	19.995	103.208	20.076	4.647	0.503
1013.000	579.065	80.010	19.995	103.211	20.073	4.829	0.483
1013.500	579.318	80.008	19.996	103.213	20.072	4.896	0.486
1014.000	579.593	80.009	19.995	103.218	20.074	4.805	0.518
1014.500	579.879	80.010	19.994	103.224	20.072	4.943	0.545
1015.000	580.078	80.009	19.996	103.230	20.074	4.744	0.523
1015.500	580.320	80.010	19.995	103.228	20.073	4.830	0.462
1016.000	580.597	80.010	19.995	103.227	20.075	4.727	0.480
1016.500	580.874	80.011	19.995	103.223	20.074	4.796	0.536
1017.000	581.108	80.009	19.994	103.214	20.073	4.814	0.532
1017.500	581.388	80.011	19.995	103.206	20.073	4.846	0.513
1018.000	581.625	80.010	19.995	103.204	20.072	4.889	0.516
1018.500	581.889	80.011	19.993	103.203	20.075	4.684	0.509
1019.000	582.163	80.011	19.995	103.201	20.072	4.892	0.520
1019.500	582.383	80.011	19.995	103.202	20.072	4.916	0.516
1020.000	582.666	80.010	19.995	103.202	20.074	4.769	0.499
1020.500	582.878	80.009	19.995	103.202	20.072	4.907	0.499
1021.000	583.145	80.009	19.994	103.203	20.072	4.939	0.487
1021.500	583.363	80.010	19.995	103.206	20.075	4.684	0.482
1022.000	583.606	80.010	19.994	103.206	20.072	4.942	0.473
1022.500	583.848	80.009	19.994	103.210	20.074	4.770	0.473
1023.000	584.131	80.009	19.993	103.210	20.070	5.028	0.505
1023.500	584.379	80.009	19.994	103.211	20.074	4.784	0.528
1024.000	584.595	80.008	19.994	103.214	20.073	4.857	0.498
1024.499	584.831	80.009	19.995	103.216	20.073	4.868	0.458
1024.999	585.074	80.008	19.995	103.219	20.073	4.875	0.466
1025.499	585.319	80.009	19.995	103.221	20.071	4.995	0.483
1026.000	585.591	80.009	19.995	103.224	20.071	4.970	0.502
1026.500	585.843	80.008	19.995	103.221	20.072	4.928	0.520
1026.999	586.042	80.008	19.995	103.223	20.070	5.052	0.487
1027.499	586.339	80.008	19.994	103.218	20.072	4.909	0.474
1027.999	586.558	80.008	19.995	103.215	20.070	5.045	0.506
1028.499	586.805	80.007	19.994	103.213	20.072	4.907	0.491
1029.000	587.073	80.008	19.994	103.212	20.069	5.090	0.490
1029.500	587.284	80.008	19.994	103.208	20.073	4.837	0.497
1030.000	587.533	80.008	19.994	103.208	20.074	4.746	0.469
1030.500	587.784	80.008	19.994	103.208	20.076	4.649	0.480
1030.999	588.058	80.008	19.995	103.207	20.075	4.742	0.513
1031.499	588.285	80.007	19.995	103.207	20.075	4.712	0.513
1032.000	588.513	80.007	19.995	103.208	20.076	4.650	0.478
1032.501	588.804	80.007	19.995	103.207	20.074	4.784	0.487
1033.001	589.043	80.007	19.996	103.208	20.075	4.714	0.524
1033.500	589.285	80.007	19.995	103.209	20.074	4.758	0.505
1033.999	589.530	80.007	19.995	103.209	20.074	4.773	0.484
1034.499	589.811	80.006	19.996	103.209	20.071	4.976	0.507
1035.000	590.020	80.008	19.994	103.209	20.072	4.898	0.508
1035.500	590.292	80.007	19.995	103.208	20.070	5.019	0.486
1035.999	590.462	80.007	19.994	103.207	20.072	4.916	0.461
1036.499	590.748	80.007	19.995	103.207	20.072	4.898	0.449
1036.999	590.945	80.006	19.994	103.208	20.070	5.039	0.470
1037.500	591.217	80.007	19.995	103.208	20.070	5.058	0.476
1038.000	591.492	80.007	19.994	103.210	20.073	4.812	0.508
1038.499	591.737	80.007	19.995	103.211	20.073	4.872	0.533
1039.000	591.950	80.007	19.995	103.214	20.075	4.699	0.490
1039.500	592.197	80.006	19.994	103.214	20.073	4.868	0.459
1039.999	592.447	80.007	19.994	103.214	20.073	4.853	0.478
1040.499	592.710	80.006	19.994	103.213	20.074	4.762	0.505
1041.000	592.946	80.008	19.994	103.213	20.071	4.952	0.506
1041.500	593.172	80.008	19.994	103.210	20.071	5.004	0.480
1041.999	593.450	80.008	19.994	103.210	20.074	4.799	0.483
1042.499	593.690	80.006	19.994	103.210	20.074	4.747	0.511
1043.000	593.956	80.007	19.995	103.208	20.073	4.827	0.512
1043.500	594.205	80.007	19.994	103.208	20.071	4.970	0.511
1043.999	594.461	80.007	19.993	103.208	20.072	4.896	0.510
1044.499	594.684	80.007	19.994	103.207	20.073	4.820	0.492
1045.000	594.959	80.007	19.994	103.205	20.072	4.914	0.489
1045.500	595.205	80.008	19.995	103.206	20.072	4.901	0.509
1045.999	595.482	80.008	19.995	103.206	20.072	4.883	0.522
1046.499	595.698	80.008	19.994	103.206	20.070	5.074	0.508
1046.999	595.951	80.008	19.994	103.208	20.076	4.665	0.481
1047.499	596.206	80.008	19.996	103.210	20.072	4.931	0.488
1048.000	596.424	80.009	19.994	103.209	20.074	4.747	0.490
1048.500	596.660	80.007	19.995	103.209	20.072	4.905	0.464
1048.999	596.945	80.008	19.993	103.207	20.073	4.842	0.488
1049.499	597.168	80.008	19.994	103.205	20.076	4.648	0.514
1050.000	597.398	80.009	19.995	103.204	20.074	4.758	0.480
1050.501	597.597	80.008	19.994	103.204	20.077	4.572	0.441
1051.000	597.832	80.008	19.994	103.204	20.075	4.719	0.432
1051.499	598.122	80.008	19.995	103.204	20.076	4.645	0.480
1051.999	598.332	80.008	19.995	103.204	20.076	4.647	0.513
1052.499	598.598	80.009	19.995	103.204	20.077	4.596	0.488
1053.000	598.845	80.008	19.995	103.204	20.076	4.645	0.494
1053.500	599.073	80.008	19.994	103.204	20.077	4.559	0.494
1054.000	599.279	80.008	19.995	103.204	20.075	4.730	0.454
1054.501	599.555	80.006	19.995	103.205	20.075	4.734	0.459
1055.000	599.812	80.007	19.995	103.205	20.078	4.516	0.508
1055.499	600.010	80.007	19.994	103.205	20.074	4.782	0.494
1055.999	600.265	80.007	19.994	103.205	20.076	4.643	0.454
1056.499	600.526	80.007	19.995	103.205	20.076	4.615	0.484
1056.999	600.770	80.007	19.995	103.205	20.077	4.596	0.510
1057.499	600.967	80.006	19.995	103.205	20.073	4.874	0.473
1057.999	601.226	80.007	19.994	103.204	20.072	4.915	0.449
1058.499	601.487	80.008	19.994	103.202	20.072	4.902	0.488
1058.999	601.694	80.008	19.994	103.202	20.074	4.758	0.494
1059.500	601.941	80.007	19.995	103.201	20.070	5.020	0.460
1060.000	602.172	80.007	19.994	103.202	20.073	4.857	0.466
1060.499	602.427	80.007	19.995	103.202	20.072	4.913	0.483
1060.999	602.653	80.008	19.994	103.203	20.073	4.816	0.484
1061.499	602.896	80.007	19.994	103.204	20.072	4.904	0.475
1061.999	603.168	80.008	19.995	103.206	20.072	4.904	0.492
1062.499	603.386	80.008	19.994	103.205	20.076	4.653	0.502
1062.999	603.628	80.007	19.995	103.206	20.075	4.688	0.476
1063.499	603.897	80.007	19.994	103.206	20.075	4.736	0.485
1063.999	604.138	80.006	19.994	103.206	20.075	4.690	0.510
1064.499	604.369	80.008	19.995	103.205	20.073	4.829	0.491
1064.999	604.574	80.007	19.994	103.203	20.075	4.716	0.454
1065.500	604.824	80.006	19.995	103.203	20.076	4.613	0.446
1066.000	605.084	80.009	19.995	103.203	20.076	4.669	0.482
1066.500	605.300	80.007	19.995	103.202	20.073	4.816	0.493
1067.001	605.559	80.006	19.995	103.203	20.077	4.598	0.476
1067.501	605.768	80.006	19.997	103.207	20.073	4.864	0.471
1068.000	606.029	80.007	19.995	103.207	20.074	4.762	0.468
1068.499	606.261	80.008	19.995	103.207	20.074	4.770	0.481
1068.999	606.538	80.008	19.996	103.207	20.077	4.569	0.501
1069.499	606.723	80.008	19.995	103.207	20.076	4.669	0.486
1070.000	606.990	80.008	19.996	103.205	20.075	4.708	0.457
1070.500	607.228	80.009	19.995	103.205	20.075	4.740	0.478
1070.999	607.479	80.009	19.996	103.208	20.074	4.794	0.497
1071.499	607.737	80.009	19.996	103.214	20.075	4.710	0.499
1072.000	607.919	80.009	19.996	103.216	20.074	4.753	0.475
1072.500	608.186	80.008	19.996	103.216	20.074	4.743	0.445
1072.999	608.427	80.010	19.995	103.216	20.076	4.650	0.478
1073.500	608.673	80.009	19.995	103.218	20.077	4.559	0.497
1074.000	608.935	80.008	19.996	103.212	20.074	4.751	0.498
1074.500	609.138	80.009	19.995	103.212	20.073	4.875	0.486
1075.000	609.401	80.008	19.994	103.212	20.075	4.740	0.465
1075.499	609.632	80.010	19.995	103.213	20.074	4.786	0.480
1076.000	609.875	80.009	19.996	103.208	20.071	4.950	0.484
1076.501	610.152	80.010	19.995	103.206	20.072	4.894	0.497
1077.001	610.393	80.009	19.995	103.205	20.073	4.870	0.519
1077.501	610.647	80.010	19.996	103.208	20.077	4.546	0.507
1078.001	610.850	80.009	19.995	103.207	20.076	4.637	0.476
1078.500	611.106	80.009	19.994	103.207	20.074	4.769	0.458
1078.999	611.359	80.010	19.994	103.209	20.074	4.781	0.484
1079.499	611.588	80.009	19.994	103.212	20.075	4.740	0.495
1079.999	611.815	80.009	19.997	103.213	20.073	4.844	0.469
1080.499	612.064	80.008	19.995	103.214	20.072	4.939	0.466
1080.999	612.309	80.010	19.995	103.214	20.072	4.909	0.485
1081.499	612.593	80.009	19.995	103.213	20.074	4.784	0.511
1081.999	612.809	80.009	19.995	103.211	20.074	4.788	0.514
1082.499	613.044	80.008	19.994	103.207	20.071	5.006	0.476
1083.000	613.322	80.008	19.995	103.207	20.074	4.799	0.482
1083.500	613.563	80.008	19.994	103.208	20.072	4.894	0.516
1083.999	613.789	80.008	19.996	103.208	20.074	4.756	0.493
1084.500	614.043	80.008	19.994	103.208	20.074	4.771	0.474
1085.000	614.297	80.008	19.995	103.207	20.072	4.931	0.494
1085.500	614.543	80.008	19.995	103.207	20.073	4.862	0.504
1086.000	614.780	80.007	19.994	103.207	20.072	4.896	0.491
1086.499	615.016	80.007	19.994	103.207	20.076	4.611	0.478
1087.000	615.318	80.009	19.995	103.208	20.072	4.933	0.505
1087.501	615.558	80.006	19.994	103.207	20.071	4.963	0.540
1088.001	615.789	80.008	19.995	103.207	20.073	4.879	0.507
1088.501	616.025	80.008	19.994	103.207	20.072	4.900	0.469
1089.000	616.301	80.008	19.995	103.207	20.074	4.786	0.490
1089.499	616.503	80.008	19.994	103.207	20.078	4.489	0.495
1089.999	616.778	80.008	19.996	103.207	20.072	4.931	0.478
1090.499	617.023	80.008	19.994	103.208	20.074	4.810	0.499
1090.999	617.239	80.009	19.994	103.209	20.073	4.872	0.490
1091.500	617.499	80.009	19.994	103.209	20.073	4.814	0.468
1092.000	617.769	80.009	19.995	103.208	20.073	4.820	0.503
1092.499	618.001	80.007	19.995	103.208	20.072	4.903	0.516
1093.000	618.238	80.010	19.995	103.208	20.072	4.911	0.486
1093.500	618.473	80.008	19.995	103.207	20.072	4.902	0.471
1093.999	618.723	80.008	19.995	103.206	20.071	5.000	0.479
1094.500	618.991	80.009	19.995	103.206	20.072	4.924	0.501
1095.001	619.237	80.009	19.995	103.205	20.072	4.924	0.516
1095.500	619.451	80.008	19.994	103.205	20.074	4.766	0.487
1095.999	619.684	80.009	19.995	103.205	20.071	4.965	0.453
1096.500	619.915	80.009	19.995	103.205	20.074	4.792	0.455
1097.001	620.194	80.008	19.995	103.205	20.070	5.046	0.488
1097.500	620.442	80.010	19.995	103.207	20.070	5.069	0.519
1097.999	620.722	80.009	19.995	103.207	20.071	4.978	0.527
1098.500	620.958	80.009	19.995	103.207	20.075	4.725	0.522
1099.001	621.212	80.008	19.995	103.207	20.072	4.890	0.503
1099.500	621.428	80.009	19.995	103.208	20.070	5.036	0.480
1099.999	621.698	80.011	19.995	103.207	20.072	4.900	0.478
1100.499	621.897	80.009	19.995	103.206	20.069	5.130	0.478
1100.999	622.183	80.009	19.995	103.206	20.067	5.259	0.476
1101.499	622.428	80.010	19.995	103.206	20.068	5.192	0.508
1101.999	622.657	80.010	19.997	103.205	20.070	5.067	0.503
1102.499	622.910	80.010	19.994	103.205	20.070	5.067	0.478
1102.999	623.132	80.007	19.995	103.206	20.071	4.957	0.479
1103.499	623.384	80.009	19.993	103.206	20.070	5.034	0.475
1104.000	623.635	80.007	19.995	103.206	20.067	5.266	0.489
1104.501	623.880	80.008	19.996	103.207	20.069	5.143	0.499
1105.001	624.165	80.008	19.996	103.208	20.069	5.099	0.513
1105.501	624.372	80.006	19.995	103.209	20.067	5.286	0.511
1106.000	624.626	80.007	19.995	103.209	20.066	5.335	0.476
1106.499	624.886	80.006	19.995	103.208	20.066	5.316	0.487
1106.999	625.112	80.007	19.995	103.206	20.067	5.257	0.500
1107.499	625.334	80.007	19.994	103.204	20.068	5.180	0.467
1107.999	625.588	80.006	19.996	103.203	20.070	5.065	0.462
1108.500	625.791	80.006	19.995	103.203	20.069	5.102	0.466
1109.000	626.097	80.006	19.996	103.204	20.070	5.059	0.483
1109.499	626.358	80.009	19.994	103.206	20.070	5.048	0.538
1110.000	626.593	80.007	19.994	103.208	20.071	4.993	0.531
1110.500	626.863	80.005	19.996	103.209	20.067	5.229	0.500
1110.999	627.054	80.007	19.994	103.209	20.067	5.264	0.483
1111.499	627.312	80.007	19.995	103.210	20.069	5.106	0.455
1111.999	627.558	80.007	19.994	103.208	20.067	5.259	0.476
1112.499	627.824	80.008	19.995	103.207	20.070	5.084	0.507
1112.999	628.067	80.007	19.995	103.206	20.067	5.240	0.511
1113.499	628.291	80.007	19.995	103.206	20.065	5.404	0.489
1113.999	628.514	80.008	19.995	103.205	20.068	5.223	0.457
1114.499	628.741	80.010	19.996	103.206	20.067	5.244	0.448
1114.999	629.038	80.008	19.996	103.206	20.066	5.333	0.487
1115.499	629.247	80.009	19.994	103.205	20.068	5.156	0.515
1115.999	629.533	80.007	19.994	103.205	20.068	5.173	0.501
1116.499	629.777	80.008	19.996	103.205	20.068	5.180	0.512
1116.999	630.027	80.008	19.994	103.205	20.066	5.307	0.512
1117.500	630.265	80.007	19.994	103.205	20.067	5.247	0.491
1118.001	630.517	80.009	19.994	103.204	20.071	5.011	0.489
1118.500	630.773	80.007	19.994	103.204	20.071	4.991	0.499
1118.999	630.987	80.008	19.995	103.204	20.072	4.916	0.489
1119.499	631.243	80.008	19.995	103.204	20.067	5.236	0.470
1119.999	631.489	80.009	19.996	103.204	20.068	5.221	0.487
1120.499	631.735	80.004	19.994	103.204	20.068	5.195	0.497
1121.000	631.986	80.009	19.995	103.205	20.068	5.177	0.495
1121.500	632.250	80.008	19.994	103.205	20.066	5.357	0.506
1121.999	632.504	80.008	19.995	103.206	20.068	5.171	0.516
1122.499	632.786	80.009	19.995	103.206	20.069	5.125	0.527
1122.999	632.997	80.008	19.996	103.207	20.068	5.181	0.515
1123.499	633.236	80.007	19.996	103.206	20.069	5.138	0.471
1124.000	633.516	80.009	19.995	103.205	20.068	5.205	0.484
1124.500	633.763	80.008	19.995	103.205	20.069	5.104	0.523
1124.999	634.000	80.009	19.996	103.205	20.068	5.190	0.505
1125.500	634.267	80.007	19.995	103.205	20.068	5.201	0.494
1126.001	634.501	80.009	19.994	103.205	20.069	5.110	0.502
1126.501	634.760	80.006	19.994	103.205	20.068	5.158	0.497
1127.000	635.022	80.010	19.995	103.205	20.066	5.322	0.508
1127.499	635.282	80.009	19.995	103.205	20.069	5.097	0.522
1127.999	635.537	80.009	19.995	103.205	20.068	5.177	0.518
1128.499	635.784	80.009	19.995	103.205	20.071	5.002	0.508
1128.999	636.031	80.007	19.994	103.205	20.067	5.253	0.497
1129.499	636.303	80.008	19.997	103.205	20.069	5.138	0.506
1129.999	636.549	80.009	19.993	103.204	20.068	5.186	0.518
1130.499	636.816	80.007	19.997	103.204	20.068	5.173	0.516
1131.000	637.043	80.007	19.994	103.204	20.066	5.331	0.503
1131.500	637.357	80.008	19.998	103.204	20.068	5.220	0.518
1131.999	637.572	80.008	19.995	103.205	20.072	4.885	0.536
1132.499	637.835	80.007	19.994	103.206	20.068	5.180	0.504
1132.999	638.059	80.009	19.994	103.205	20.066	5.320	0.482
1133.500	638.337	80.008	19.995	103.205	20.066	5.339	0.494
1134.000	638.594	80.008	19.996	103.206	20.067	5.275	0.518
1134.499	638.802	80.008	19.994	103.207	20.068	5.175	0.501
1134.999	639.086	80.009	19.995	103.206	20.066	5.322	0.479
1135.499	639.331	80.008	19.995	103.207	20.066	5.318	0.510
1135.999	639.543	80.008	19.995	103.207	20.067	5.244	0.493
1136.500	639.825	80.009	19.994	103.207	20.064	5.447	0.476
1137.000	640.106	80.009	19.995	103.205	20.064	5.467	0.528
1137.499	640.346	80.007	19.994	103.204	20.067	5.235	0.542
1138.000	640.619	80.008	19.996	103.204	20.067	5.233	0.517
1138.500	640.873	80.006	19.997	103.205	20.064	5.467	0.520
1138.999	641.107	80.007	19.995	103.205	20.063	5.510	0.508
1139.499	641.361	80.008	19.997	103.205	20.063	5.530	0.488
1139.999	641.641	80.006	19.994	103.206	20.066	5.343	0.511
1140.499	641.871	80.009	19.995	103.207	20.065	5.372	0.522
1140.999	642.151	80.008	19.995	103.207	20.062	5.579	0.510
1141.499	642.402	80.008	19.994	103.207	20.064	5.439	0.520
1142.000	642.662	80.007	19.993	103.207	20.065	5.367	0.521
1142.500	642.911	80.005	19.994	103.207	20.065	5.428	0.510
1142.999	643.152	80.008	19.996	103.206	20.064	5.439	0.500
1143.499	643.437	80.009	19.994	103.205	20.064	5.471	0.508
1143.999	643.671	80.008	19.996	103.206	20.064	5.475	0.522
1144.499	643.888	80.007	19.995	103.207	20.067	5.253	0.484
1144.999	644.155	80.007	19.995	103.206	20.065	5.397	0.467
1145.499	644.440	80.008	19.994	103.207	20.062	5.618	0.519
1145.999	644.686	80.009	19.996	103.209	20.067	5.276	0.542
1146.499	644.953	80.006	19.995	103.209	20.062	5.575	0.522
1146.999	645.175	80.007	19.993	103.209	20.065	5.425	0.501
1147.499	645.415	80.008	19.996	103.210	20.064	5.490	0.475
1147.999	645.660	80.008	19.993	103.212	20.066	5.360	0.473
1148.499	645.916	80.007	19.995	103.211	20.065	5.428	0.493
1149.000	646.188	80.008	19.994	103.211	20.062	5.633	0.514
1149.500	646.450	80.008	19.995	103.211	20.067	5.253	0.531
1149.999	646.686	80.006	19.994	103.210	20.065	5.393	0.516
1150.499	646.948	80.008	19.993	103.209	20.063	5.529	0.498
1151.000	647.209	80.008	19.994	103.209	20.062	5.627	0.510
1151.500	647.449	80.011	19.996	103.209	20.066	5.363	0.512
1151.999	647.727	80.007	19.993	103.209	20.063	5.566	0.509
1152.500	648.000	80.008	19.993	103.210	20.063	5.503	0.535
1153.000	648.228	80.009	19.994	103.209	20.066	5.326	0.526
1153.499	648.483	80.009	19.994	103.209	20.062	5.595	0.492
1153.999	648.726	80.009	19.995	103.208	20.065	5.393	0.491
1154.499	648.979	80.009	19.994	103.208	20.063	5.519	0.497
1154.999	649.269	80.010	19.994	103.208	20.066	5.359	0.519
1155.499	649.475	80.009	19.994	103.209	20.059	5.806	0.519
1155.999	649.723	80.008	19.996	103.211	20.064	5.501	0.475
1156.499	650.001	80.010	19.995	103.212	20.064	5.486	0.490
1156.999	650.270	80.009	19.996	103.214	20.061	5.642	0.536
1157.499	650.507	80.010	19.994	103.215	20.063	5.511	0.526
1157.999	650.789	80.009	19.995	103.215	20.059	5.792	0.513
1158.500	651.051	80.009	19.996	103.215	20.061	5.644	0.532
1159.001	651.264	80.009	19.995	103.215	20.063	5.538	0.510
1159.501	651.559	80.011	19.994	103.212	20.062	5.584	0.492
1160.000	651.805	80.011	19.996	103.211	20.061	5.698	0.524
1160.500	652.058	80.012	19.994	103.210	20.063	5.514	0.519
1161.000	652.311	80.008	19.996	103.209	20.064	5.435	0.503
1161.500	652.544	80.008	19.994	103.213	20.064	5.434	0.496
1162.000	652.847	80.010	19.996	103.214	20.060	5.776	0.511
1162.499	653.083	80.008	19.996	103.213	20.061	5.674	0.537
1162.999	653.278	80.008	19.996	103.211	20.064	5.495	0.485
1163.499	653.586	80.009	19.996	103.210	20.059	5.826	0.468
1163.999	653.912	80.007	19.996	103.206	20.062	5.608	0.569
1164.499	654.210	80.009	19.996	103.207	20.062	5.620	0.629
1164.999	654.351	80.008	19.995	103.209	20.061	5.666	0.531
1165.500	654.588	80.008	19.996	103.212	20.060	5.713	0.409
1166.000	654.800	80.007	19.994	103.212	20.061	5.659	0.413
1166.500	655.162	80.009	19.996	103.212	20.057	5.932	0.511
1167.001	655.335	80.008	19.997	103.210	20.057	5.932	0.554
1167.501	655.650	80.007	19.995	103.207	20.059	5.792	0.512
1168.001	655.892	80.008	19.996	103.204	20.057	5.921	0.523
1168.500	656.172	80.008	19.995	103.203	20.059	5.817	0.540
1168.999	656.409	80.009	19.995	103.203	20.060	5.714	0.520
1169.499	656.640	80.006	19.994	103.205	20.058	5.863	0.493
1169.999	656.935	80.008	19.996	103.205	20.060	5.709	0.497
1170.499	657.158	80.008	19.995	103.209	20.058	5.898	0.522
1171.000	657.425	80.010	19.996	103.209	20.058	5.872	0.504
1171.501	657.694	80.009	19.996	103.209	20.058	5.885	0.513
1172.000	657.919	80.009	19.995	103.209	20.061	5.666	0.515
1172.500	658.205	80.008	19.992	103.208	20.061	5.675	0.503
1173.000	658.438	80.008	19.995	103.208	20.060	5.733	0.515
1173.499	658.696	80.008	19.994	103.208	20.061	5.698	0.505
1173.999	658.953	80.010	19.994	103.208	20.058	5.865	0.502
1174.499	659.199	80.009	19.995	103.208	20.061	5.686	0.508
1174.999	659.464	80.010	19.994	103.208	20.057	5.971	0.507
1175.499	659.719	80.009	19.997	103.208	20.058	5.889	0.516
1175.999	659.953	80.010	19.996	103.208	20.059	5.837	0.505
1176.499	660.220	80.011	19.995	103.207	20.061	5.653	0.495
1176.999	660.459	80.008	19.996	103.207	20.056	5.991	0.504
1177.499	660.726	80.011	19.994	103.207	20.057	5.952	0.506
1177.999	661.027	80.010	19.995	103.206	20.057	5.917	0.537
1178.499	661.226	80.010	19.994	103.205	20.059	5.835	0.534
1178.999	661.506	80.010	19.994	103.205	20.060	5.718	0.490
1179.500	661.791	80.011	19.995	103.204	20.060	5.718	0.522
1180.000	662.037	80.010	19.996	103.204	20.060	5.766	0.548
1180.500	662.208	80.013	19.995	103.203	20.058	5.889	0.474
1181.000	662.477	80.009	19.993	103.203	20.061	5.660	0.429
1181.499	662.797	80.011	19.993	103.203	20.062	5.580	0.514
1181.999	663.026	80.011	19.994	103.204	20.056	5.999	0.568
1182.500	663.334	80.012	19.995	103.205	20.058	5.868	0.543
1183.000	663.542	80.011	19.994	103.205	20.056	6.036	0.527
1183.499	663.815	80.011	19.994	103.206	20.055	6.107	0.498
1184.000	664.072	80.011	19.996	103.206	20.056	6.016	0.505
1184.500	664.322	80.010	19.995	103.206	20.056	6.049	0.519
1184.999	664.606	80.011	19.994	103.206	20.054	6.157	0.521
1185.499	664.809	80.010	19.996	103.204	20.054	6.148	0.511
1186.000	665.043	80.010	19.991	103.203	20.059	5.789	0.462
1186.501	665.329	80.011	19.995	103.202	20.057	5.924	0.478
1187.000	665.587	80.007	19.997	103.202	20.057	5.971	0.532
1187.499	665.836	80.007	19.995	103.201	20.057	5.928	0.526
1187.999	666.133	80.007	19.994	103.203	20.056	6.047	0.527
1188.499	666.321	80.007	19.994	103.202	20.057	5.982	0.516
1188.999	666.602	80.010	19.995	103.201	20.058	5.885	0.477
1189.499	666.908	80.007	19.995	103.202	20.056	5.995	0.528
1190.000	667.127	80.006	19.996	103.202	20.058	5.894	0.556
1190.500	667.399	80.009	19.996	103.202	20.062	5.623	0.507
1190.999	667.628	80.007	19.994	103.201	20.059	5.798	0.496
1191.499	667.889	80.009	19.997	103.201	20.056	6.015	0.496
1192.000	668.127	80.008	19.994	103.200	20.057	5.956	0.494
1192.500	668.434	80.008	19.994	103.200	20.059	5.837	0.522
1192.999	668.658	80.007	19.994	103.200	20.056	6.047	0.538
1193.499	668.913	80.007	19.995	103.201	20.057	5.967	0.505
1194.000	669.189	80.008	19.995	103.202	20.054	6.159	0.505
1194.501	669.442	80.008	19.996	103.204	20.054	6.185	0.530
1195.000	669.695	80.006	19.995	103.206	20.056	6.045	0.517
1195.500	669.900	80.007	19.997	103.207	20.059	5.803	0.482
1196.000	670.174	80.007	19.994	103.207	20.056	6.019	0.469
1196.499	670.424	80.007	19.997	103.207	20.059	5.807	0.501
1196.999	670.733	80.008	19.996	103.206	20.057	5.921	0.541
1197.499	670.939	80.007	19.995	103.204	20.057	5.963	0.537
1198.000	671.225	80.006	19.994	103.203	20.056	6.023	0.504
1198.501	671.462	80.008	19.996	103.204	20.055	6.112	0.507
1199.000	671.709	80.006	19.996	103.204	20.056	5.995	0.503
1199.499	671.981	80.009	19.994	103.203	20.059	5.837	0.501
1199.999	672.246	80.006	19.996	103.204	20.058	5.893	0.528
1200.499	672.493	80.008	19.998	103.204	20.061	5.649	0.525
1201.000	672.753	80.006	19.994	103.200	20.056	6.001	0.510
1201.500	672.970	80.008	19.995	103.201	20.059	5.796	0.492
1201.999	673.296	80.006	19.994	103.201	20.062	5.629	0.510
1202.499	673.517	80.009	19.994	103.200	20.057	5.924	0.545
1202.999	673.805	80.010	19.996	103.200	20.057	5.975	0.528
1203.499	674.063	80.007	19.995	103.203	20.057	5.952	0.528
1203.999	674.302	80.010	19.996	103.201	20.053	6.209	0.521
1204.499	674.570	80.008	19.996	103.201	20.056	6.027	0.502
1204.999	674.840	80.009	19.995	103.202	20.054	6.126	0.522
1205.499	675.051	80.008	19.993	103.201	20.056	6.036	0.509
1205.999	675.318	80.008	19.995	103.201	20.056	6.021	0.480
1206.499	675.595	80.008	19.995	103.202	20.055	6.068	0.512
1206.999	675.839	80.008	19.996	103.202	20.056	5.995	0.533
1207.499	676.102	80.009	19.992	103.201	20.057	5.915	0.514
1207.999	676.332	80.008	19.993	103.202	20.056	5.999	0.500
1208.500	676.579	80.009	19.994	103.203	20.054	6.168	0.485
1209.000	676.852	80.008	19.996	103.204	20.057	5.956	0.498
1209.500	677.096	80.008	19.995	103.202	20.054	6.187	0.518
1210.000	677.379	80.010	19.993	103.200	20.054	6.136	0.522
1210.499	677.641	80.007	19.996	103.199	20.054	6.144	0.536
1210.999	677.880	80.007	19.994	103.199	20.055	6.053	0.523
1211.499	678.122	80.010	19.996	103.199	20.054	6.138	0.491
1211.999	678.376	80.008	19.994	103.201	20.059	5.845	0.489
1212.499	678.618	80.008	19.994	103.203	20.055	6.064	0.496
1212.999	678.906	80.008	19.994	103.203	20.055	6.088	0.513
1213.499	679.128	80.009	19.994	103.203	20.054	6.133	0.520
1213.999	679.396	80.008	19.994	103.203	20.055	6.079	0.500
1214.499	679.642	80.007	19.995	103.204	20.054	6.159	0.502
1214.999	679.869	80.007	19.994	103.206	20.053	6.226	0.494
1215.499	680.151	80.008	19.995	103.207	20.051	6.337	0.491
1216.000	680.409	80.010	19.996	103.208	20.052	6.298	0.524
1216.500	680.669	80.008	19.994	103.208	20.056	6.014	0.529
1216.999	680.911	80.009	19.996	103.209	20.054	6.124	0.510
1217.499	681.158	80.008	19.994	103.209	20.054	6.127	0.496
1218.000	681.442	80.010	19.993	103.209	20.055	6.075	0.510
1218.500	681.648	80.007	19.995	103.208	20.055	6.059	0.510
1218.999	681.908	80.008	19.995	103.208	20.054	6.146	0.478
1219.499	682.183	80.008	19.993	103.204	20.054	6.125	0.500
1219.999	682.431	80.006	19.995	103.203	20.054	6.181	0.529
1220.500	682.642	80.008	19.994	103.203	20.053	6.233	0.491
1221.000	682.909	80.007	19.995	103.203	20.058	5.902	0.469
1221.499	683.179	80.007	19.996	103.203	20.054	6.155	0.508
1221.999	683.431	80.007	19.994	103.206	20.057	5.969	0.529
1222.499	683.673	80.005	19.994	103.206	20.057	5.941	0.508
1222.999	683.906	80.008	19.997	103.206	20.057	5.919	0.485
1223.499	684.161	80.006	19.994	103.207	20.057	5.938	0.482
1223.999	684.464	80.008	19.994	103.206	20.056	6.003	0.523
1224.499	684.691	80.008	19.995	103.206	20.054	6.129	0.544
1224.999	684.965	80.007	19.995	103.207	20.057	5.980	0.515
1225.499	685.206	80.008	19.994	103.206	20.055	6.090	0.508
1225.999	685.469	80.007	19.996	103.206	20.055	6.112	0.509
1226.499	685.716	80.008	19.996	103.206	20.055	6.112	0.507
1226.999	685.962	80.006	19.992	103.206	20.055	6.078	0.501
1227.499	686.247	80.008	19.994	103.207	20.054	6.167	0.512
1227.999	686.439	80.006	19.994	103.207	20.052	6.305	0.504
1228.499	686.693	80.007	19.994	103.207	20.055	6.077	0.461
1228.999	686.987	80.008	19.994	103.208	20.055	6.082	0.497
1229.499	687.221	80.008	19.994	103.207	20.052	6.272	0.538
1229.999	687.487	80.008	19.995	103.204	20.052	6.267	0.514
1230.499	687.716	80.009	19.995	103.204	20.055	6.112	0.498
1231.000	687.997	80.007	19.995	103.204	20.053	6.198	0.503
1231.501	688.221	80.007	19.994	103.204	20.055	6.071	0.508
1232.001	688.486	80.007	19.995	103.203	20.056	6.051	0.497
1232.500	688.744	80.008	19.994	103.205	20.054	6.144	0.506
1232.999	689.041	80.007	19.994	103.206	20.054	6.123	0.539
1233.499	689.243	80.009	19.994	103.206	20.052	6.263	0.527
1234.000	689.494	80.006	19.994	103.207	20.054	6.173	0.476
1234.501	689.747	80.008	19.993	103.209	20.055	6.082	0.479
1235.001	689.979	80.010	19.994	103.207	20.053	6.209	0.494
1235.501	690.247	80.009	19.994	103.206	20.056	6.021	0.492
1236.001	690.490	80.009	19.994	103.203	20.057	5.969	0.505
1236.501	690.741	80.010	19.993	103.201	20.052	6.318	0.502
1237.001	691.042	80.010	19.993	103.194	20.057	5.976	0.523
1237.500	691.280	80.013	19.994	103.193	20.055	6.090	0.546
1238.000	691.515	80.009	19.995	103.189	20.054	6.153	0.506
1238.500	691.736	80.009	19.992	103.192	20.054	6.166	0.464
1239.000	691.997	80.010	19.994	103.195	20.056	5.991	0.469
1239.501	692.263	80.010	19.994	103.198	20.060	5.727	0.505
1240.000	692.488	80.010	19.994	103.198	20.052	6.287	0.509
1240.500	692.755	80.010	19.994	103.202	20.063	5.552	0.492
1241.000	692.981	80.009	19.993	103.201	20.054	6.121	0.493
1241.499	693.241	80.010	19.994	103.200	20.051	6.381	0.489
1242.000	693.492	80.010	19.994	103.201	20.049	6.487	0.498
1242.500	693.732	80.009	19.992	103.204	20.050	6.418	0.501
1242.999	693.975	80.010	19.995	103.201	20.051	6.355	0.487
1243.499	694.193	80.010	19.994	103.199	20.051	6.340	0.472
1243.999	694.491	80.009	19.994	103.198	20.052	6.307	0.488
1244.499	694.706	80.008	19.994	103.198	20.051	6.348	0.514
1244.999	694.948	80.009	19.993	103.196	20.048	6.570	0.485
1245.499	695.217	80.011	19.994	103.197	20.048	6.562	0.484
1245.999	695.483	80.009	19.994	103.196	20.050	6.408	0.523
1246.499	695.737	80.010	19.994	103.196	20.051	6.393	0.528
1246.999	695.984	80.008	19.996	103.197	20.053	6.215	0.511
1247.500	696.243	80.008	19.994	103.198	20.054	6.151	0.503
1248.000	696.460	80.008	19.996	103.196	20.050	6.450	0.491
1248.499	696.728	80.009	19.995	103.197	20.053	6.238	0.481
1248.999	697.003	80.010	19.994	103.197	20.050	6.413	0.514
1249.499	697.272	80.009	19.995	103.197	20.049	6.519	0.543
1249.999	697.499	80.008	19.994	103.197	20.051	6.362	0.521
1250.499	697.743	80.009	19.994	103.198	20.050	6.407	0.484
1250.999	697.997	80.008	19.995	103.198	20.048	6.567	0.485
1251.499	698.235	80.010	19.994	103.193	20.049	6.494	0.495
1252.000	698.489	80.009	19.993	103.191	20.050	6.442	0.491
1252.500	698.744	80.009	19.995	103.192	20.050	6.420	0.500
1252.999	698.971	80.008	19.996	103.189	20.049	6.520	0.496
1253.500	699.250	80.010	19.996	103.188	20.050	6.459	0.494
1254.000	699.507	80.008	19.994	103.188	20.048	6.567	0.522
1254.499	699.739	80.009	19.995	103.191	20.050	6.457	0.512
1254.999	699.998	80.010	19.996	103.191	20.050	6.429	0.490
1255.499	700.216	80.009	19.995	103.195	20.048	6.541	0.484
1256.000	700.515	80.009	19.994	103.198	20.044	6.810	0.497
1256.500	700.771	80.008	19.995	103.205	20.048	6.553	0.536
1256.999	701.014	80.010	19.995	103.205	20.049	6.468	0.527
1257.500	701.265	80.010	19.994	103.206	20.048	6.539	0.496
1258.001	701.581	80.010	19.995	103.205	20.049	6.526	0.530
1258.500	701.721	80.009	19.993	103.203	20.048	6.545	0.512
1259.000	702.185	80.009	19.994	103.196	20.051	6.368	0.530
1259.500	702.278	80.011	19.994	103.192	20.048	6.552	0.581
1260.000	702.577	80.010	19.994	103.190	20.050	6.414	0.474
1260.501	702.798	80.010	19.994	103.189	20.048	6.539	0.456
1261.001	703.072	80.011	19.995	103.188	20.047	6.615	0.507
1261.500	703.307	80.011	19.995	103.190	20.050	6.408	0.502
1261.999	703.558	80.011	19.994	103.189	20.048	6.592	0.497
1262.499	703.815	80.010	19.993	103.188	20.047	6.658	0.497
1262.999	704.066	80.010	19.994	103.183	20.047	6.643	0.508
1263.499	704.316	80.010	19.994	103.180	20.043	6.893	0.505
1263.999	704.533	80.009	19.995	103.181	20.047	6.614	0.484
1264.499	704.828	80.011	19.993	103.183	20.049	6.527	0.490
1265.000	705.043	80.010	19.993	103.187	20.045	6.774	0.511
1265.500	705.301	80.011	19.995	103.187	20.043	6.882	0.491
1265.999	705.542	80.010	19.994	103.187	20.049	6.527	0.486
1266.499	705.805	80.012	19.995	103.184	20.045	6.756	0.501
1266.999	706.056	80.011	19.993	103.181	20.051	6.378	0.509
1267.499	706.294	80.011	19.994	103.179	20.050	6.444	0.502
1268.000	706.541	80.009	19.994	103.184	20.050	6.408	0.487
1268.500	706.772	80.011	19.994	103.186	20.046	6.724	0.481
1268.999	707.016	80.010	19.995	103.186	20.049	6.510	0.476
1269.499	707.237	80.009	19.994	103.188	20.046	6.695	0.470
1269.999	707.523	80.009	19.996	103.187	20.048	6.572	0.487
1270.500	707.780	80.010	19.994	103.184	20.048	6.578	0.525
1271.000	708.024	80.011	19.994	103.184	20.048	6.584	0.521
1271.499	708.270	80.009	19.995	103.188	20.051	6.346	0.495
1272.000	708.507	80.009	19.995	103.183	20.051	6.350	0.486
1272.500	708.768	80.009	19.994	103.179	20.044	6.826	0.491
1272.999	708.998	80.007	19.995	103.178	20.049	6.534	0.495
1273.499	709.263	80.009	19.995	103.180	20.049	6.497	0.493
1273.999	709.544	80.007	19.995	103.182	20.050	6.464	0.521
1274.499	709.747	80.009	19.995	103.188	20.048	6.553	0.515
1274.999	710.010	80.007	19.996	103.196	20.049	6.529	0.475
1275.499	710.273	80.007	19.994	103.201	20.048	6.570	0.496
1275.999	710.505	80.008	19.994	103.203	20.049	6.495	0.511
1276.499	710.759	80.007	19.996	103.204	20.046	6.692	0.491
1276.999	711.027	80.008	19.994	103.205	20.047	6.668	0.504
1277.499	711.243	80.007	19.995	103.205	20.046	6.709	0.503
1278.000	711.533	80.009	19.995	103.206	20.046	6.692	0.495
1278.500	711.777	80.008	19.995	103.206	20.045	6.753	0.520
1278.999	712.050	80.008	19.995	103.205	20.046	6.708	0.525
1279.499	712.210	80.004	19.997	103.198	20.042	6.976	0.475
1279.999	712.565	80.007	19.994	103.192	20.046	6.712	0.474
1280.500	712.804	80.006	19.996	103.190	20.050	6.457	0.555
1281.001	713.068	80.009	19.996	103.186	20.045	6.746	0.549
1281.500	713.298	80.006	19.997	103.187	20.048	6.556	0.498
1281.999	713.593	80.008	19.995	103.193	20.045	6.801	0.509
1282.500	713.778	80.005	19.995	103.195	20.045	6.795	0.503
1283.000	714.094	80.007	19.995	103.195	20.044	6.826	0.491
1283.499	714.322	80.007	19.995	103.198	20.047	6.658	0.523
1283.999	714.584	80.008	19.995	103.198	20.046	6.707	0.517
1284.499	714.848	80.008	19.996	103.200	20.047	6.618	0.508
1285.000	715.100	80.006	19.995	103.201	20.046	6.719	0.520
1285.501	715.372	80.008	19.995	103.203	20.046	6.708	0.520
1286.001	715.650	80.007	19.998	103.201	20.043	6.916	0.537
1286.500	715.915	80.008	19.997	103.199	20.043	6.880	0.546
1287.000	716.166	80.007	19.995	103.199	20.047	6.638	0.529
1287.500	716.420	80.007	19.998	103.197	20.046	6.690	0.511
1287.999	716.704	80.008	19.995	103.195	20.045	6.767	0.521
1288.499	716.949	80.008	19.995	103.194	20.044	6.862	0.533
1289.000	717.179	80.006	19.996	103.191	20.043	6.935	0.502
1289.501	717.481	80.007	19.994	103.186	20.044	6.851	0.504
1290.000	717.662	80.007	19.994	103.184	20.045	6.776	0.508
1290.499	717.944	80.007	19.995	103.183	20.043	6.884	0.473
1290.999	718.223	80.008	19.996	103.186	20.044	6.822	0.512
1291.499	718.451	80.007	19.994	103.186	20.042	6.999	0.534
1291.999	718.705	80.008	19.994	103.188	20.043	6.886	0.494
1292.499	718.983	80.007	19.993	103.188	20.042	6.988	0.507
1292.999	719.253	80.007	19.996	103.187	20.042	6.958	0.540
1293.500	719.481	80.008	19.995	103.183	20.040	7.111	0.523
1294.001	719.742	80.006	19.995	103.188	20.042	6.983	0.493
1294.500	719.994	80.008	19.994	103.190	20.041	7.050	0.501
1294.999	720.244	80.008	19.995	103.195	20.044	6.821	0.508
1295.499	720.479	80.007	19.997	103.202	20.043	6.882	0.494
1295.999	720.733	80.006	19.995	103.205	20.042	6.997	0.487
1296.499	721.026	80.007	19.994	103.205	20.039	7.170	0.518
1296.999	721.263	80.007	19.993	103.203	20.041	7.047	0.539
1297.499	721.551	80.007	19.996	103.197	20.040	7.115	0.527
1297.999	721.790	80.007	19.994	103.197	20.039	7.210	0.526
1298.499	722.039	80.007	19.994	103.197	20.042	6.990	0.507
1299.000	722.280	80.007	19.995	103.197	20.042	6.959	0.489
1299.500	722.507	80.008	19.994	103.199	20.043	6.899	0.479
1299.999	722.754	80.008	19.994	103.205	20.040	7.127	0.471
1300.500	723.059	80.007	19.995	103.202	20.042	6.960	0.513
1301.001	723.273	80.007	19.995	103.202	20.041	7.032	0.535
1301.500	723.520	80.007	19.995	103.203	20.040	7.098	0.490
1301.999	723.793	80.007	19.994	103.198	20.039	7.159	0.490
1302.499	724.012	80.008	19.994	103.196	20.040	7.113	0.506
1303.000	724.263	80.008	19.994	103.196	20.041	7.042	0.481
1303.500	724.546	80.007	19.995	103.195	20.041	7.067	0.502
1303.999	724.791	80.007	19.995	103.193	20.038	7.266	0.531
1304.499	725.074	80.007	19.995	103.199	20.040	7.152	0.528
1305.000	725.330	80.007	19.995	103.202	20.040	7.119	0.534
1305.500	725.535	80.006	19.994	103.204	20.040	7.091	0.500
1306.000	725.795	80.006	19.996	103.200	20.041	7.071	0.463
1306.500	726.067	80.006	19.994	103.198	20.041	7.049	0.499
1306.999	726.299	80.007	19.996	103.197	20.039	7.181	0.518
1307.499	726.571	80.008	19.995	103.197	20.038	7.280	0.504
1307.999	726.806	80.007	19.993	103.197	20.041	7.080	0.505
1308.499	727.036	80.008	19.996	103.201	20.040	7.143	0.486
1308.999	727.309	80.006	19.996	103.204	20.040	7.150	0.484
1309.499	727.530	80.006	19.995	103.205	20.040	7.115	0.499
1309.999	727.793	80.008	19.994	103.205	20.038	7.281	0.489
1310.500	727.993	80.007	19.995	103.199	20.041	7.054	0.474
1311.000	728.250	80.007	19.995	103.196	20.039	7.187	0.460
1311.499	728.554	80.007	19.994	103.196	20.038	7.267	0.509
1311.999	728.769	80.009	19.994	103.195	20.042	6.996	0.540
1312.500	729.070	80.008	19.994	103.195	20.041	7.085	0.518
1313.000	729.308	80.008	19.995	103.200	20.041	7.057	0.528
1313.499	729.535	80.007	19.995	103.198	20.039	7.205	0.502
1313.999	729.784	80.007	19.993	103.193	20.039	7.170	0.470
1314.499	730.019	80.008	19.995	103.188	20.039	7.193	0.480
1314.999	730.277	80.007	19.994	103.182	20.042	6.976	0.488
1315.499	730.489	80.008	19.996	103.178	20.039	7.200	0.481
1315.999	730.751	80.008	19.993	103.178	20.039	7.210	0.472
1316.499	731.004	80.008	19.994	103.183	20.040	7.110	0.495
1316.999	731.241	80.009	19.996	103.187	20.040	7.132	0.502
1317.499	731.492	80.007	19.996	103.193	20.039	7.161	0.489
1318.000	731.735	80.009	19.996	103.192	20.042	6.973	0.491
1318.500	732.017	80.009	19.994	103.191	20.038	7.274	0.509
1318.999	732.208	80.009	19.996	103.185	20.039	7.211	0.499
1319.499	732.436	80.008	19.994	103.181	20.038	7.279	0.446
1319.999	732.736	80.007	19.996	103.176	20.037	7.301	0.474
1320.499	732.976	80.009	19.995	103.179	20.038	7.244	0.534
1320.999	733.168	80.009	19.994	103.182	20.039	7.223	0.486
1321.499	733.443	80.009	19.996	103.189	20.035	7.493	0.450
1321.999	733.684	80.008	19.993	103.194	20.035	7.443	0.492
1322.500	733.884	80.009	19.994	103.199	20.039	7.198	0.478
1323.001	734.146	80.010	19.993	103.202	20.042	7.003	0.452
1323.500	734.403	80.010	19.995	103.203	20.039	7.187	0.491
1324.000	734.668	80.011	19.994	103.202	20.037	7.306	0.520
1324.500	734.908	80.010	19.994	103.196	20.035	7.464	0.513
1324.999	735.140	80.009	19.995	103.191	20.036	7.394	0.488
1325.499	735.350	80.010	19.995	103.184	20.040	7.139	0.457
1325.999	735.618	80.009	19.994	103.178	20.037	7.316	0.460
1326.499	735.863	80.010	19.995	103.175	20.037	7.319	0.495
1327.000	736.102	80.009	19.994	103.176	20.039	7.165	0.498
1327.501	736.332	80.010	19.994	103.181	20.037	7.321	0.476
1328.000	736.598	80.009	19.996	103.188	20.040	7.118	0.483
1328.499	736.822	80.010	19.994	103.192	20.037	7.307	0.493
1329.000	737.034	80.009	19.994	103.196	20.040	7.101	0.463
1329.500	737.279	80.010	19.996	103.195	20.039	7.210	0.447
1329.999	737.542	80.011	19.992	103.191	20.037	7.296	0.483
1330.499	737.738	80.010	19.996	103.190	20.037	7.341	0.484
1331.000	737.981	80.010	19.995	103.186	20.034	7.561	0.449
1331.500	738.231	80.010	19.995	103.182	20.036	7.371	0.466
1331.999	738.471	80.009	19.994	103.186	20.039	7.165	0.492
1332.499	738.718	80.011	19.995	103.190	20.040	7.120	0.489
1332.999	738.977	80.010	19.993	103.191	20.039	7.220	0.496
1333.500	739.182	80.011	19.994	103.196	20.039	7.209	0.485
1334.000	739.429	80.010	19.994	103.200	20.039	7.190	0.458
1334.499	739.673	80.011	19.994	103.201	20.038	7.266	0.471
1334.999	739.912	80.009	19.994	103.202	20.040	7.124	0.487
1335.499	740.162	80.010	19.994	103.201	20.041	7.029	0.486
1335.999	740.367	80.009	19.994	103.200	20.039	7.217	0.472
1336.499	740.596	80.009	19.994	103.201	20.035	7.431	0.444
1336.999	740.864	80.011	19.995	103.202	20.035	7.477	0.466
1337.499	741.104	80.009	19.995	103.201	20.038	7.248	0.503
1337.999	741.303	80.010	19.995	103.200	20.036	7.422	0.473
1338.499	741.568	80.009	19.994	103.198	20.034	7.560	0.452
1338.999	741.805	80.011	19.994	103.192	20.034	7.510	0.483
1339.499	742.029	80.009	19.994	103.188	20.038	7.246	0.481
1339.999	742.287	80.010	19.993	103.186	20.035	7.473	0.472
1340.499	742.500	80.010	19.994	103.185	20.037	7.354	0.477
1341.000	742.767	80.011	19.994	103.188	20.037	7.339	0.476
1341.501	742.970	80.011	19.995	103.195	20.033	7.601	0.475
1342.000	743.243	80.010	19.994	103.196	20.034	7.516	0.472
1342.499	743.496	80.010	19.994	103.196	20.037	7.362	0.501
1343.000	743.694	80.010	19.993	103.198	20.034	7.538	0.489
1343.500	743.958	80.010	19.994	103.195	20.034	7.532	0.457
