Sample ID:	C:\MCC\MCC Cal\Test\Bamboo_RugA_MCC_30K_min_211124_R1.txt
Sample Weight (mg):	4.9
Heating Rate (C/s):	0.5
Combustor Temp (C):	900
N2 Flow Rate (cc/min):	80
O2 Flow Rate (cc/min):	20
Calibration File:	C:\MCC\MCC Cal\Coeff1 JN10440_30_210304.txt.txt
T Correction Coefficients:	0	1.024463	0
Time Shift (s):	14
*
Time (s)	Temperature (C)	N2 flow rate (cc/min)	O2 flow rate (cc/min)	Flow Rate (cc/min)	Oxygen (%)	HRR (W/g)	Heating rate (C/s)
0.000	108.064	80.011	19.994	103.127	20.100	-0.175	-0.004
0.500	108.072	80.010	19.994	103.126	20.098	-0.074	-0.014
1.000	108.083	80.011	19.994	103.126	20.101	-0.237	0.004
1.500	108.061	80.013	19.995	103.125	20.100	-0.193	0.004
2.000	108.058	80.010	19.994	103.125	20.098	-0.071	-0.018
2.500	108.064	80.011	19.994	103.127	20.098	-0.074	-0.011
3.000	108.058	80.010	19.994	103.127	20.099	-0.112	0.002
3.500	108.048	80.011	19.993	103.127	20.099	-0.158	-0.008
4.000	108.079	80.011	19.994	103.128	20.098	-0.051	0.002
4.499	108.053	80.009	19.994	103.128	20.099	-0.136	0.014
5.000	108.114	80.010	19.995	103.126	20.098	-0.078	0.020
5.500	108.110	80.010	19.994	103.126	20.099	-0.112	0.046
6.000	108.096	80.009	19.995	103.126	20.096	0.092	0.019
6.500	108.080	80.010	19.994	103.126	20.097	-0.018	-0.024
7.000	108.097	80.010	19.994	103.128	20.101	-0.245	-0.014
7.499	108.090	80.009	19.994	103.129	20.098	-0.051	0.005
7.999	108.118	80.008	19.994	103.130	20.097	-0.004	0.015
8.499	108.111	80.009	19.994	103.131	20.097	0.032	0.021
8.999	108.089	80.007	19.994	103.134	20.098	-0.066	-0.004
9.499	108.076	80.008	19.994	103.134	20.099	-0.113	-0.032
9.999	108.089	80.007	19.994	103.133	20.098	-0.028	-0.018
10.499	108.057	80.007	19.994	103.132	20.097	-0.025	-0.010
10.999	108.090	80.007	19.994	103.131	20.099	-0.147	-0.009
11.499	108.089	80.008	19.993	103.129	20.098	-0.048	0.016
11.999	108.084	80.007	19.994	103.130	20.100	-0.208	0.013
12.499	108.074	80.008	19.993	103.132	20.096	0.092	-0.010
12.999	108.073	80.008	19.994	103.137	20.096	0.083	-0.013
13.499	108.098	80.008	19.995	103.139	20.097	-0.020	0.006
13.999	108.076	80.008	19.995	103.140	20.098	-0.046	0.014
14.499	108.088	80.008	19.994	103.141	20.099	-0.130	-0.003
14.999	108.079	80.007	19.994	103.144	20.099	-0.105	-0.004
15.499	108.077	80.007	19.993	103.147	20.098	-0.094	-0.005
15.999	108.084	80.008	19.995	103.151	20.097	0.005	-0.003
16.499	108.060	80.009	19.995	103.156	20.095	0.142	-0.006
16.999	108.075	80.008	19.994	103.162	20.097	0.011	-0.013
17.499	108.067	80.009	19.994	103.165	20.096	0.103	-0.001
18.000	108.084	80.008	19.995	103.166	20.095	0.153	0.008
18.500	108.069	80.008	19.994	103.174	20.093	0.286	0.006
19.000	108.076	80.008	19.995	103.182	20.090	0.474	-0.003
19.500	108.110	80.007	19.994	103.190	20.088	0.575	0.017
19.999	108.089	80.008	19.995	103.199	20.087	0.639	0.027
20.499	108.102	80.009	19.994	103.211	20.084	0.827	0.002
20.999	108.094	80.008	19.994	103.222	20.082	0.975	-0.002
21.499	108.108	80.009	19.994	103.231	20.081	1.042	0.006
22.000	108.094	80.008	19.993	103.239	20.079	1.163	0.004
22.500	108.137	80.007	19.994	103.249	20.081	1.037	0.015
22.999	108.146	80.009	19.994	103.257	20.077	1.344	0.040
23.499	108.190	80.008	19.995	103.265	20.076	1.396	0.052
23.999	108.196	80.008	19.995	103.274	20.075	1.424	0.052
24.499	108.217	80.007	19.994	103.289	20.075	1.426	0.039
24.999	108.249	80.008	19.994	103.301	20.071	1.708	0.040
25.499	108.267	80.008	19.995	103.310	20.072	1.651	0.051
26.000	108.301	80.008	19.994	103.318	20.070	1.751	0.051
26.500	108.316	80.009	19.994	103.325	20.069	1.859	0.051
26.999	108.358	80.007	19.994	103.325	20.067	2.010	0.053
27.499	108.353	80.008	19.994	103.326	20.066	2.042	0.047
27.999	108.406	80.008	19.994	103.332	20.066	2.074	0.042
28.499	108.488	80.008	19.995	103.336	20.063	2.212	0.091
28.999	108.536	80.008	19.995	103.343	20.063	2.237	0.133
29.499	108.623	80.008	19.995	103.350	20.060	2.455	0.133
29.999	108.620	80.007	19.994	103.356	20.061	2.406	0.110
30.499	108.668	80.008	19.994	103.358	20.061	2.388	0.065
31.000	108.732	80.008	19.994	103.363	20.059	2.530	0.079
31.500	108.790	80.007	19.994	103.366	20.060	2.432	0.117
31.999	108.874	80.008	19.995	103.367	20.061	2.347	0.132
32.500	108.918	80.008	19.994	103.367	20.058	2.560	0.135
33.000	108.968	80.007	19.994	103.367	20.056	2.695	0.111
33.499	108.990	80.007	19.994	103.367	20.058	2.599	0.083
33.999	109.063	80.007	19.994	103.365	20.057	2.653	0.084
34.500	109.156	80.007	19.995	103.365	20.055	2.750	0.130
35.000	109.207	80.008	19.994	103.363	20.059	2.489	0.154
35.500	109.283	80.007	19.994	103.362	20.057	2.624	0.136
36.001	109.357	80.007	19.994	103.361	20.056	2.731	0.139
36.501	109.439	80.006	19.995	103.361	20.056	2.672	0.153
37.001	109.488	80.007	19.995	103.361	20.056	2.704	0.144
37.500	109.582	80.007	19.995	103.363	20.056	2.699	0.137
37.999	109.680	80.007	19.996	103.364	20.054	2.868	0.168
38.499	109.710	80.008	19.995	103.364	20.056	2.717	0.160
38.999	109.812	80.008	19.995	103.364	20.057	2.615	0.130
39.499	109.965	80.007	19.995	103.364	20.054	2.820	0.193
40.000	110.005	80.006	19.994	103.362	20.055	2.747	0.224
40.500	110.070	80.007	19.995	103.357	20.058	2.589	0.149
40.999	110.176	80.006	19.996	103.356	20.056	2.731	0.138
41.499	110.253	80.007	19.995	103.357	20.057	2.623	0.178
41.999	110.384	80.008	19.995	103.357	20.055	2.757	0.196
42.499	110.495	80.007	19.996	103.360	20.053	2.914	0.224
42.999	110.537	80.007	19.996	103.367	20.052	2.976	0.197
43.500	110.663	80.006	19.995	103.368	20.054	2.857	0.161
44.000	110.796	80.006	19.995	103.365	20.056	2.688	0.213
44.499	110.845	80.008	19.995	103.365	20.056	2.713	0.220
44.999	110.968	80.007	19.995	103.364	20.053	2.924	0.177
45.499	111.133	80.006	19.995	103.362	20.053	2.887	0.230
46.000	111.217	80.007	19.995	103.363	20.053	2.869	0.269
46.501	111.324	80.008	19.995	103.364	20.053	2.896	0.220
47.001	111.402	80.008	19.995	103.367	20.053	2.928	0.188
47.500	111.524	80.006	19.995	103.372	20.054	2.839	0.192
48.000	111.672	80.008	19.995	103.372	20.054	2.828	0.235
48.500	111.774	80.008	19.995	103.372	20.054	2.837	0.260
48.999	111.885	80.008	19.994	103.371	20.053	2.910	0.232
49.500	111.965	80.009	19.995	103.367	20.053	2.885	0.202
50.000	112.129	80.006	19.993	103.364	20.053	2.882	0.218
50.499	112.224	80.009	19.996	103.363	20.053	2.889	0.252
50.999	112.355	80.008	19.996	103.363	20.054	2.861	0.243
51.499	112.457	80.009	19.995	103.365	20.053	2.895	0.230
51.999	112.578	80.007	19.995	103.367	20.053	2.877	0.228
52.499	112.696	80.008	19.996	103.366	20.053	2.902	0.231
52.999	112.832	80.007	19.995	103.366	20.056	2.721	0.247
53.499	112.975	80.009	19.995	103.365	20.052	2.987	0.267
53.999	113.103	80.007	19.995	103.363	20.052	2.980	0.275
54.499	113.263	80.009	19.995	103.364	20.054	2.829	0.279
54.999	113.356	80.009	19.995	103.365	20.054	2.845	0.271
55.499	113.522	80.008	19.994	103.365	20.052	2.969	0.256
55.999	113.661	80.010	19.995	103.366	20.053	2.920	0.282
56.499	113.783	80.008	19.995	103.367	20.053	2.923	0.283
56.999	113.931	80.010	19.995	103.365	20.054	2.847	0.265
57.499	114.053	80.009	19.995	103.365	20.052	2.985	0.270
57.999	114.218	80.008	19.994	103.365	20.054	2.806	0.279
58.500	114.323	80.009	19.996	103.364	20.051	3.029	0.278
59.000	114.458	80.009	19.995	103.361	20.049	3.193	0.255
59.499	114.614	80.009	19.994	103.361	20.051	3.014	0.266
59.999	114.763	80.008	19.996	103.362	20.050	3.078	0.298
60.499	114.867	80.009	19.993	103.363	20.049	3.136	0.279
60.999	115.034	80.007	19.995	103.368	20.049	3.186	0.262
61.499	115.207	80.008	19.995	103.375	20.050	3.067	0.306
61.999	115.326	80.009	19.996	103.382	20.050	3.071	0.316
62.499	115.473	80.009	19.996	103.388	20.049	3.193	0.279
63.000	115.646	80.008	19.995	103.393	20.046	3.381	0.293
63.501	115.781	80.008	19.995	103.390	20.049	3.195	0.314
64.001	115.915	80.009	19.996	103.386	20.047	3.282	0.288
64.500	116.068	80.008	19.995	103.382	20.049	3.156	0.278
65.000	116.221	80.007	19.995	103.380	20.048	3.229	0.297
65.501	116.378	80.007	19.996	103.379	20.047	3.296	0.308
66.000	116.550	80.007	19.997	103.383	20.049	3.188	0.319
66.499	116.695	80.007	19.997	103.389	20.053	2.932	0.323
66.999	116.878	80.008	19.996	103.393	20.047	3.303	0.323
67.499	117.013	80.008	19.996	103.393	20.049	3.183	0.323
68.000	117.180	80.008	19.996	103.388	20.051	3.043	0.310
68.501	117.340	80.008	19.995	103.384	20.050	3.105	0.314
69.001	117.520	80.008	19.996	103.380	20.049	3.144	0.333
69.501	117.673	80.008	19.995	103.376	20.047	3.264	0.336
70.000	117.804	80.008	19.995	103.373	20.048	3.240	0.308
70.499	118.015	80.008	19.995	103.379	20.050	3.126	0.313
70.999	118.179	80.007	19.995	103.383	20.048	3.245	0.359
71.499	118.289	80.008	19.995	103.388	20.050	3.096	0.325
71.999	118.495	80.009	19.995	103.391	20.049	3.177	0.295
72.500	118.612	80.009	19.995	103.392	20.049	3.158	0.320
73.001	118.800	80.009	19.995	103.390	20.050	3.101	0.315
73.500	119.001	80.009	19.995	103.386	20.047	3.302	0.347
73.999	119.154	80.008	19.995	103.385	20.049	3.133	0.371
74.500	119.307	80.010	19.994	103.386	20.047	3.284	0.330
75.000	119.491	80.008	19.994	103.389	20.050	3.096	0.322
75.499	119.638	80.008	19.994	103.386	20.049	3.185	0.334
75.999	119.795	80.008	19.995	103.384	20.051	3.043	0.317
76.499	119.984	80.009	19.995	103.380	20.052	2.979	0.325
77.000	120.156	80.008	19.994	103.381	20.045	3.396	0.354
77.501	120.330	80.009	19.994	103.383	20.049	3.190	0.354
78.001	120.496	80.008	19.994	103.387	20.046	3.361	0.344
78.501	120.671	80.009	19.994	103.394	20.049	3.160	0.341
79.001	120.843	80.008	19.995	103.399	20.047	3.323	0.344
79.500	120.998	80.010	19.994	103.399	20.047	3.327	0.336
79.999	121.221	80.010	19.994	103.398	20.045	3.403	0.352
80.499	121.451	80.009	19.994	103.396	20.048	3.254	0.416
80.999	121.571	80.009	19.995	103.395	20.046	3.345	0.402
81.500	121.756	80.009	19.993	103.394	20.047	3.327	0.328
82.001	121.940	80.009	19.994	103.393	20.046	3.382	0.337
82.500	122.147	80.010	19.995	103.392	20.046	3.368	0.380
82.999	122.326	80.009	19.993	103.396	20.047	3.286	0.388
83.500	122.523	80.009	19.995	103.396	20.046	3.357	0.381
84.000	122.697	80.010	19.995	103.397	20.047	3.318	0.373
84.499	122.870	80.009	19.994	103.399	20.047	3.266	0.359
85.000	123.104	80.009	19.994	103.400	20.045	3.419	0.377
85.500	123.246	80.009	19.995	103.401	20.046	3.376	0.391
86.000	123.473	80.009	19.994	103.402	20.044	3.499	0.372
86.501	123.666	80.010	19.994	103.402	20.047	3.306	0.395
87.000	123.829	80.009	19.994	103.401	20.046	3.394	0.388
87.499	124.005	80.009	19.994	103.401	20.042	3.639	0.347
88.000	124.189	80.009	19.994	103.402	20.045	3.414	0.350
88.500	124.434	80.008	19.993	103.400	20.044	3.521	0.395
89.000	124.603	80.007	19.994	103.400	20.047	3.298	0.422
89.500	124.803	80.007	19.994	103.401	20.045	3.417	0.391
90.000	125.013	80.009	19.993	103.401	20.047	3.327	0.389
90.500	125.210	80.007	19.995	103.400	20.048	3.247	0.408
91.000	125.381	80.007	19.993	103.401	20.046	3.368	0.387
91.501	125.579	80.007	19.994	103.401	20.044	3.492	0.369
92.000	125.784	80.007	19.994	103.401	20.044	3.501	0.387
92.499	125.961	80.006	19.994	103.402	20.045	3.410	0.393
92.999	126.133	80.006	19.995	103.402	20.045	3.426	0.365
93.499	126.341	80.007	19.995	103.402	20.044	3.462	0.365
93.999	126.547	80.006	19.995	103.402	20.043	3.575	0.397
94.499	126.747	80.007	19.996	103.400	20.044	3.515	0.410
94.999	126.972	80.007	19.996	103.399	20.044	3.510	0.416
95.500	127.145	80.008	19.995	103.399	20.046	3.376	0.411
96.000	127.370	80.007	19.995	103.399	20.046	3.392	0.398
96.499	127.550	80.007	19.995	103.400	20.045	3.426	0.401
96.999	127.796	80.007	19.995	103.402	20.046	3.366	0.415
97.499	127.971	80.007	19.995	103.402	20.046	3.332	0.423
97.999	128.188	80.007	19.994	103.403	20.044	3.497	0.407
98.500	128.411	80.007	19.995	103.404	20.046	3.334	0.416
99.000	128.623	80.006	19.993	103.404	20.045	3.396	0.437
99.500	128.788	80.007	19.995	103.405	20.048	3.215	0.406
100.000	128.995	80.006	19.994	103.405	20.046	3.394	0.375
100.499	129.222	80.008	19.996	103.405	20.046	3.375	0.403
100.999	129.449	80.007	19.997	103.405	20.045	3.408	0.444
101.500	129.642	80.007	19.996	103.405	20.046	3.364	0.437
102.000	129.816	80.007	19.995	103.404	20.045	3.460	0.394
102.499	130.068	80.007	19.995	103.405	20.045	3.447	0.397
102.999	130.253	80.007	19.994	103.404	20.043	3.527	0.431
103.499	130.492	80.007	19.994	103.403	20.045	3.444	0.431
103.999	130.690	80.006	19.994	103.403	20.043	3.552	0.430
104.499	130.897	80.007	19.995	103.403	20.044	3.515	0.420
104.999	131.105	80.007	19.996	103.402	20.041	3.673	0.410
105.499	131.297	80.008	19.995	103.401	20.040	3.734	0.408
105.999	131.500	80.007	19.994	103.400	20.042	3.614	0.398
106.501	131.730	80.007	19.994	103.400	20.042	3.634	0.414
107.001	131.932	80.008	19.994	103.399	20.046	3.394	0.432
107.499	132.135	80.007	19.994	103.399	20.040	3.773	0.418
107.999	132.371	80.008	19.995	103.401	20.043	3.558	0.422
108.499	132.562	80.008	19.994	103.401	20.041	3.716	0.433
108.999	132.799	80.007	19.994	103.401	20.042	3.629	0.427
109.499	132.994	80.007	19.995	103.401	20.042	3.602	0.430
109.999	133.214	80.007	19.995	103.401	20.043	3.582	0.424
110.500	133.466	80.009	19.994	103.400	20.040	3.728	0.444
111.000	133.690	80.008	19.994	103.400	20.043	3.575	0.474
111.499	133.900	80.008	19.995	103.400	20.041	3.719	0.455
111.999	134.132	80.008	19.994	103.400	20.045	3.459	0.438
112.499	134.326	80.008	19.995	103.400	20.043	3.580	0.434
113.000	134.552	80.007	19.994	103.400	20.043	3.559	0.423
113.500	134.791	80.007	19.993	103.399	20.042	3.607	0.442
113.999	135.029	80.009	19.994	103.399	20.041	3.715	0.471
114.500	135.254	80.008	19.994	103.400	20.043	3.554	0.470
115.000	135.447	80.008	19.994	103.400	20.043	3.532	0.440
115.499	135.674	80.008	19.993	103.400	20.044	3.475	0.419
115.999	135.879	80.007	19.995	103.401	20.042	3.592	0.427
116.499	136.099	80.009	19.994	103.400	20.043	3.562	0.429
116.999	136.359	80.008	19.994	103.400	20.038	3.891	0.452
117.499	136.557	80.009	19.995	103.399	20.040	3.784	0.468
117.999	136.775	80.009	19.994	103.399	20.040	3.775	0.437
118.499	136.970	80.009	19.994	103.399	20.039	3.840	0.415
118.999	137.229	80.007	19.995	103.399	20.039	3.829	0.434
119.499	137.452	80.008	19.994	103.399	20.042	3.644	0.468
119.999	137.702	80.007	19.994	103.398	20.042	3.600	0.477
120.499	137.896	80.007	19.994	103.397	20.043	3.532	0.459
120.999	138.124	80.007	19.994	103.396	20.042	3.628	0.433
121.499	138.342	80.008	19.995	103.394	20.041	3.673	0.434
121.999	138.560	80.008	19.994	103.389	20.043	3.532	0.441
122.499	138.779	80.008	19.994	103.386	20.044	3.509	0.436
122.999	139.028	80.008	19.995	103.384	20.044	3.486	0.452
123.499	139.270	80.007	19.995	103.385	20.041	3.676	0.480
123.999	139.486	80.008	19.994	103.384	20.045	3.408	0.474
124.499	139.735	80.007	19.994	103.388	20.043	3.586	0.461
124.999	140.002	80.008	19.995	103.386	20.044	3.470	0.491
125.499	140.180	80.008	19.995	103.386	20.043	3.579	0.481
125.999	140.398	80.007	19.995	103.383	20.041	3.664	0.420
126.500	140.644	80.006	19.995	103.378	20.042	3.607	0.430
127.000	140.880	80.007	19.995	103.374	20.040	3.733	0.473
127.500	141.076	80.007	19.995	103.379	20.043	3.590	0.457
128.000	141.335	80.008	19.995	103.380	20.041	3.676	0.443
128.500	141.561	80.007	19.995	103.382	20.044	3.514	0.470
129.000	141.800	80.007	19.995	103.383	20.038	3.880	0.475
129.500	142.048	80.008	19.995	103.388	20.042	3.621	0.477
130.000	142.255	80.006	19.996	103.386	20.042	3.639	0.471
130.500	142.468	80.008	19.995	103.380	20.042	3.657	0.437
131.000	142.693	80.007	19.994	103.380	20.044	3.499	0.429
131.500	142.933	80.007	19.996	103.384	20.042	3.620	0.451
132.000	143.121	80.008	19.994	103.382	20.044	3.481	0.447
132.500	143.373	80.009	19.996	103.384	20.041	3.701	0.434
133.000	143.609	80.007	19.994	103.389	20.042	3.642	0.464
133.500	143.875	80.006	19.996	103.384	20.046	3.356	0.495
134.000	144.082	80.007	19.995	103.385	20.042	3.628	0.487
134.500	144.312	80.008	19.996	103.388	20.043	3.566	0.455
135.000	144.560	80.008	19.995	103.386	20.042	3.655	0.458
135.500	144.793	80.008	19.995	103.387	20.040	3.747	0.480
136.000	145.026	80.008	19.995	103.393	20.044	3.486	0.473
136.500	145.261	80.007	19.995	103.390	20.044	3.495	0.467
137.000	145.505	80.008	19.995	103.384	20.041	3.690	0.474
137.500	145.671	80.007	19.995	103.379	20.045	3.440	0.445
138.000	145.930	80.009	19.995	103.374	20.044	3.509	0.417
138.500	146.142	80.007	19.994	103.371	20.045	3.456	0.448
139.000	146.398	80.008	19.995	103.374	20.044	3.518	0.469
139.500	146.636	80.007	19.995	103.374	20.043	3.580	0.481
140.000	146.834	80.008	19.995	103.378	20.043	3.577	0.466
140.500	147.107	80.009	19.995	103.382	20.044	3.465	0.454
141.000	147.282	80.010	19.995	103.382	20.043	3.586	0.459
141.500	147.492	80.009	19.995	103.384	20.040	3.758	0.417
142.000	147.750	80.009	19.995	103.391	20.039	3.819	0.426
142.500	148.009	80.008	19.995	103.393	20.041	3.680	0.492
143.000	148.235	80.009	19.994	103.393	20.040	3.733	0.501
143.500	148.490	80.008	19.995	103.391	20.040	3.760	0.483
144.000	148.690	80.008	19.994	103.388	20.038	3.886	0.468
144.500	148.919	80.009	19.994	103.385	20.040	3.744	0.442
145.000	149.157	80.008	19.994	103.382	20.042	3.618	0.448
145.500	149.399	80.008	19.994	103.383	20.043	3.568	0.473
146.000	149.663	80.008	19.995	103.389	20.044	3.493	0.493
146.500	149.886	80.008	19.995	103.389	20.041	3.683	0.497
147.000	150.163	80.008	19.995	103.386	20.040	3.745	0.493
147.500	150.384	80.008	19.995	103.386	20.041	3.719	0.499
148.000	150.637	80.007	19.994	103.382	20.041	3.664	0.487
148.500	150.824	80.008	19.995	103.380	20.041	3.662	0.457
149.000	151.045	80.008	19.995	103.384	20.040	3.781	0.423
149.500	151.285	80.007	19.995	103.385	20.040	3.733	0.434
150.000	151.530	80.006	19.994	103.387	20.038	3.884	0.473
150.500	151.736	80.008	19.995	103.392	20.039	3.802	0.468
151.000	151.979	80.006	19.994	103.394	20.042	3.632	0.450
151.500	152.244	80.006	19.995	103.391	20.042	3.600	0.479
152.000	152.498	80.008	19.995	103.395	20.041	3.713	0.513
152.500	152.706	80.007	19.995	103.396	20.041	3.690	0.490
153.000	152.941	80.007	19.995	103.394	20.040	3.772	0.453
153.500	153.183	80.009	19.995	103.390	20.040	3.756	0.461
154.000	153.437	80.008	19.996	103.389	20.040	3.763	0.487
154.500	153.681	80.007	19.995	103.387	20.040	3.735	0.497
155.000	153.882	80.007	19.995	103.388	20.040	3.779	0.471
155.500	154.084	80.007	19.995	103.390	20.038	3.904	0.424
156.000	154.368	80.006	19.995	103.388	20.042	3.643	0.444
156.500	154.576	80.008	19.995	103.385	20.043	3.527	0.489
157.000	154.822	80.006	19.995	103.384	20.042	3.602	0.473
157.500	155.081	80.006	19.994	103.383	20.043	3.559	0.480
158.000	155.285	80.007	19.995	103.383	20.044	3.474	0.484
158.500	155.513	80.007	19.994	103.388	20.044	3.504	0.447
159.000	155.764	80.006	19.995	103.395	20.044	3.493	0.455
159.500	156.017	80.007	19.995	103.395	20.041	3.666	0.491
160.000	156.245	80.008	19.994	103.392	20.041	3.698	0.493
160.500	156.512	80.009	19.995	103.391	20.044	3.472	0.489
161.000	156.735	80.007	19.995	103.390	20.045	3.442	0.492
161.500	156.980	80.007	19.996	103.387	20.041	3.680	0.479
162.000	157.213	80.009	19.995	103.385	20.041	3.699	0.473
162.500	157.508	80.008	19.995	103.382	20.044	3.468	0.503
163.000	157.688	80.009	19.996	103.383	20.042	3.649	0.502
163.500	157.935	80.007	19.996	103.383	20.042	3.645	0.451
164.000	158.170	80.008	19.996	103.381	20.044	3.521	0.454
164.500	158.444	80.009	19.994	103.384	20.040	3.741	0.495
165.000	158.664	80.010	19.994	103.389	20.039	3.789	0.502
165.500	158.914	80.008	19.995	103.390	20.040	3.782	0.482
166.000	159.162	80.008	19.995	103.389	20.038	3.896	0.484
166.500	159.401	80.008	19.995	103.389	20.040	3.788	0.492
167.000	159.607	80.008	19.996	103.390	20.039	3.850	0.466
167.500	159.871	80.009	19.994	103.390	20.040	3.775	0.458
168.000	160.129	80.009	19.995	103.389	20.038	3.859	0.496
168.500	160.378	80.009	19.994	103.386	20.038	3.894	0.514
169.000	160.619	80.009	19.995	103.386	20.038	3.891	0.498
169.500	160.889	80.009	19.994	103.385	20.043	3.546	0.500
170.000	161.091	80.009	19.994	103.385	20.039	3.848	0.492
170.500	161.357	80.009	19.994	103.386	20.038	3.875	0.470
171.000	161.589	80.009	19.993	103.390	20.041	3.722	0.483
171.500	161.854	80.010	19.995	103.391	20.042	3.639	0.498
172.000	162.088	80.009	19.994	103.385	20.039	3.852	0.497
172.500	162.328	80.008	19.995	103.380	20.039	3.850	0.486
173.000	162.544	80.009	19.993	103.378	20.041	3.710	0.465
173.500	162.786	80.008	19.994	103.373	20.043	3.548	0.457
174.000	163.071	80.007	19.994	103.372	20.039	3.838	0.492
174.500	163.305	80.007	19.993	103.371	20.039	3.821	0.523
175.000	163.546	80.008	19.995	103.374	20.037	3.935	0.498
175.500	163.788	80.008	19.995	103.376	20.039	3.791	0.479
176.000	164.047	80.007	19.994	103.375	20.038	3.872	0.492
176.500	164.268	80.007	19.995	103.376	20.038	3.858	0.490
177.000	164.539	80.008	19.994	103.379	20.038	3.883	0.486
177.500	164.759	80.009	19.994	103.380	20.040	3.723	0.492
178.000	165.031	80.008	19.995	103.375	20.039	3.839	0.492
178.500	165.247	80.007	19.994	103.376	20.037	3.932	0.490
179.000	165.491	80.007	19.993	103.376	20.038	3.864	0.474
179.500	165.727	80.008	19.994	103.377	20.038	3.891	0.470
180.000	165.978	80.008	19.994	103.374	20.039	3.816	0.484
180.500	166.233	80.007	19.995	103.371	20.040	3.761	0.497
181.000	166.463	80.007	19.994	103.370	20.040	3.736	0.496
181.500	166.733	80.008	19.995	103.372	20.040	3.745	0.493
182.000	166.963	80.006	19.997	103.374	20.038	3.883	0.500
182.500	167.225	80.008	19.995	103.380	20.042	3.640	0.495
183.000	167.481	80.007	19.995	103.386	20.038	3.880	0.505
183.500	167.723	80.007	19.995	103.392	20.038	3.861	0.508
184.000	167.968	80.007	19.996	103.388	20.037	3.966	0.492
184.500	168.181	80.008	19.994	103.387	20.038	3.857	0.473
185.000	168.435	80.008	19.994	103.382	20.038	3.868	0.463
185.500	168.685	80.007	19.995	103.375	20.039	3.811	0.486
186.000	168.929	80.008	19.994	103.369	20.039	3.837	0.498
186.500	169.190	80.007	19.993	103.368	20.036	3.999	0.499
187.000	169.402	80.008	19.994	103.364	20.035	4.095	0.489
187.500	169.657	80.008	19.994	103.362	20.036	4.004	0.471
188.000	169.937	80.009	19.995	103.362	20.037	3.983	0.501
188.500	170.178	80.007	19.995	103.364	20.035	4.086	0.528
189.000	170.435	80.009	19.994	103.370	20.035	4.056	0.509
189.500	170.665	80.007	19.995	103.376	20.037	3.986	0.492
190.000	170.922	80.009	19.995	103.382	20.036	4.006	0.487
190.500	171.142	80.009	19.995	103.384	20.036	4.002	0.482
191.000	171.356	80.008	19.995	103.384	20.037	3.933	0.456
191.500	171.618	80.008	19.994	103.380	20.038	3.867	0.455
192.000	171.881	80.009	19.995	103.373	20.036	3.993	0.501
192.500	172.150	80.007	19.995	103.368	20.036	4.023	0.529
193.000	172.410	80.008	19.995	103.368	20.036	4.011	0.531
193.500	172.628	80.010	19.995	103.371	20.034	4.137	0.503
194.000	172.880	80.009	19.996	103.375	20.034	4.139	0.473
194.500	173.140	80.009	19.996	103.382	20.037	3.975	0.491
195.000	173.422	80.008	19.995	103.383	20.034	4.133	0.527
195.500	173.678	80.008	19.995	103.383	20.036	4.018	0.540
196.000	173.914	80.009	19.994	103.379	20.035	4.093	0.515
196.500	174.142	80.009	19.994	103.374	20.038	3.874	0.478
197.000	174.392	80.009	19.995	103.368	20.037	3.952	0.471
197.500	174.631	80.007	19.995	103.368	20.035	4.084	0.483
198.000	174.879	80.009	19.994	103.371	20.033	4.245	0.488
198.500	175.141	80.007	19.995	103.374	20.036	3.997	0.499
199.000	175.399	80.009	19.995	103.374	20.038	3.896	0.515
199.500	175.642	80.007	19.995	103.374	20.036	4.038	0.510
200.000	175.908	80.009	19.994	103.371	20.038	3.901	0.505
200.500	176.132	80.008	19.994	103.365	20.037	3.935	0.499
201.000	176.374	80.007	19.995	103.362	20.035	4.112	0.478
201.500	176.582	80.008	19.994	103.362	20.035	4.114	0.458
202.000	176.892	80.008	19.994	103.362	20.035	4.070	0.485
202.500	177.113	80.007	19.994	103.361	20.035	4.102	0.525
203.000	177.347	80.007	19.994	103.361	20.038	3.899	0.493
203.500	177.638	80.009	19.994	103.361	20.037	3.940	0.490
204.000	177.884	80.008	19.995	103.361	20.038	3.862	0.531
204.500	178.119	80.008	19.993	103.360	20.039	3.809	0.509
205.000	178.389	80.007	19.995	103.361	20.035	4.093	0.493
205.500	178.658	80.010	19.994	103.360	20.036	3.991	0.522
206.000	178.883	80.007	19.995	103.360	20.035	4.084	0.516
206.500	179.091	80.007	19.994	103.360	20.036	4.025	0.463
207.000	179.362	80.007	19.995	103.362	20.034	4.155	0.456
207.500	179.621	80.007	19.994	103.362	20.036	3.988	0.505
208.000	179.854	80.007	19.994	103.364	20.034	4.153	0.511
208.500	180.110	80.007	19.995	103.365	20.036	4.050	0.491
209.000	180.361	80.008	19.994	103.367	20.036	4.049	0.498
209.500	180.617	80.007	19.994	103.367	20.037	3.985	0.507
210.000	180.840	80.007	19.994	103.367	20.037	3.981	0.493
210.500	181.121	80.007	19.994	103.367	20.033	4.201	0.492
211.000	181.352	80.008	19.994	103.365	20.036	4.036	0.508
211.500	181.620	80.006	19.994	103.364	20.037	3.949	0.505
212.000	181.873	80.008	19.994	103.364	20.035	4.086	0.510
212.500	182.075	80.008	19.994	103.364	20.033	4.205	0.488
213.000	182.369	80.009	19.993	103.365	20.037	3.967	0.475
213.500	182.621	80.008	19.994	103.365	20.036	4.043	0.521
214.000	182.857	80.007	19.994	103.365	20.035	4.116	0.517
214.500	183.067	80.008	19.993	103.365	20.036	4.034	0.467
215.000	183.375	80.007	19.994	103.364	20.034	4.123	0.482
215.500	183.625	80.009	19.995	103.363	20.034	4.141	0.538
216.000	183.824	80.008	19.993	103.363	20.035	4.057	0.504
216.500	184.111	80.009	19.995	103.364	20.031	4.316	0.468
217.000	184.353	80.008	19.995	103.366	20.029	4.471	0.507
217.500	184.577	80.008	19.995	103.366	20.033	4.238	0.497
218.000	184.846	80.008	19.995	103.369	20.027	4.615	0.479
218.500	185.096	80.010	19.994	103.372	20.031	4.332	0.507
219.000	185.365	80.009	19.995	103.371	20.025	4.721	0.519
219.500	185.589	80.009	19.994	103.371	20.029	4.469	0.506
220.000	185.871	80.009	19.994	103.373	20.031	4.346	0.499
220.500	186.076	80.009	19.994	103.371	20.028	4.551	0.496
221.000	186.388	80.007	19.994	103.367	20.028	4.547	0.502
221.500	186.623	80.009	19.994	103.372	20.030	4.403	0.532
222.000	186.900	80.009	19.993	103.376	20.030	4.434	0.529
222.500	187.103	80.008	19.995	103.376	20.027	4.606	0.496
223.000	187.390	80.010	19.994	103.376	20.029	4.501	0.486
223.500	187.664	80.008	19.993	103.376	20.028	4.521	0.526
224.000	187.914	80.010	19.995	103.371	20.025	4.753	0.542
224.500	188.138	80.010	19.995	103.366	20.029	4.492	0.499
225.000	188.415	80.009	19.994	103.364	20.028	4.545	0.487
225.500	188.665	80.008	19.996	103.366	20.028	4.542	0.514
226.000	188.866	80.008	19.995	103.367	20.028	4.540	0.489
226.500	189.128	80.008	19.993	103.367	20.027	4.586	0.458
227.000	189.370	80.008	19.995	103.367	20.031	4.339	0.484
227.500	189.683	80.008	19.995	103.367	20.027	4.593	0.529
228.000	189.880	80.008	19.994	103.364	20.026	4.653	0.532
228.500	190.143	80.009	19.995	103.364	20.025	4.755	0.485
229.000	190.447	80.008	19.996	103.363	20.025	4.717	0.513
229.500	190.695	80.008	19.995	103.363	20.025	4.758	0.559
230.000	190.896	80.007	19.995	103.363	20.026	4.678	0.500
230.500	191.130	80.008	19.995	103.362	20.022	4.925	0.442
231.000	191.377	80.007	19.994	103.363	20.023	4.845	0.458
231.500	191.620	80.008	19.994	103.363	20.027	4.591	0.485
232.000	191.883	80.008	19.994	103.363	20.026	4.691	0.498
232.500	192.112	80.007	19.995	103.365	20.022	4.927	0.499
233.000	192.365	80.009	19.994	103.366	20.025	4.721	0.487
233.500	192.588	80.009	19.996	103.365	20.025	4.719	0.479
234.000	192.876	80.007	19.995	103.364	20.026	4.649	0.494
234.500	193.158	80.008	19.995	103.364	20.025	4.729	0.540
235.000	193.389	80.008	19.996	103.363	20.027	4.635	0.541
235.500	193.634	80.008	19.995	103.364	20.026	4.666	0.495
236.000	193.908	80.009	19.994	103.364	20.025	4.753	0.498
236.500	194.146	80.009	19.995	103.365	20.024	4.815	0.515
237.000	194.399	80.008	19.994	103.364	20.025	4.735	0.501
237.500	194.650	80.009	19.994	103.363	20.026	4.650	0.497
238.000	194.906	80.009	19.994	103.361	20.027	4.636	0.506
238.500	195.159	80.010	19.994	103.358	20.026	4.691	0.508
239.000	195.418	80.008	19.994	103.357	20.029	4.501	0.511
239.500	195.673	80.009	19.995	103.358	20.030	4.426	0.513
240.000	195.919	80.008	19.994	103.357	20.028	4.561	0.508
240.500	196.172	80.009	19.994	103.356	20.025	4.733	0.500
241.000	196.407	80.009	19.995	103.359	20.025	4.714	0.493
241.500	196.682	80.010	19.994	103.359	20.023	4.886	0.499
242.000	196.920	80.009	19.994	103.359	20.024	4.836	0.512
242.500	197.121	80.006	19.995	103.360	20.027	4.589	0.476
243.000	197.405	80.008	19.995	103.359	20.025	4.763	0.462
243.500	197.642	80.009	19.995	103.358	20.025	4.758	0.503
244.000	197.884	80.010	19.994	103.356	20.027	4.629	0.500
244.500	198.141	80.010	19.994	103.350	20.023	4.866	0.488
245.000	198.381	80.009	19.995	103.350	20.024	4.819	0.498
245.500	198.655	80.010	19.994	103.350	20.022	4.948	0.506
246.000	198.908	80.011	19.995	103.351	20.023	4.891	0.521
246.500	199.137	80.010	19.994	103.353	20.023	4.905	0.505
247.000	199.413	80.010	19.995	103.358	20.025	4.763	0.493
247.500	199.663	80.010	19.995	103.358	20.020	5.058	0.515
248.000	199.895	80.011	19.995	103.359	20.020	5.088	0.504
248.500	200.162	80.010	19.994	103.358	20.023	4.861	0.491
249.000	200.417	80.011	19.995	103.358	20.022	4.964	0.510
249.500	200.662	80.010	19.995	103.357	20.019	5.136	0.511
250.000	200.917	80.009	19.994	103.356	20.018	5.198	0.500
250.500	201.159	80.010	19.994	103.356	20.020	5.063	0.498
251.000	201.374	80.009	19.994	103.357	20.018	5.177	0.477
251.500	201.642	80.009	19.994	103.357	20.015	5.427	0.470
252.000	201.906	80.010	19.994	103.359	20.016	5.347	0.508
252.500	202.176	80.010	19.995	103.358	20.016	5.349	0.533
253.000	202.425	80.009	19.994	103.357	20.016	5.342	0.527
253.500	202.712	80.010	19.995	103.357	20.016	5.364	0.527
254.000	202.938	80.009	19.995	103.357	20.017	5.299	0.524
254.500	203.176	80.008	19.995	103.356	20.016	5.331	0.489
255.000	203.399	80.009	19.996	103.357	20.020	5.101	0.463
255.500	203.647	80.008	19.996	103.357	20.017	5.292	0.466
256.000	203.911	80.007	19.995	103.357	20.019	5.106	0.492
256.500	204.178	80.008	19.996	103.357	20.016	5.305	0.522
257.000	204.445	80.008	19.996	103.357	20.013	5.516	0.532
257.500	204.687	80.007	19.996	103.353	20.016	5.324	0.521
258.000	204.893	80.008	19.996	103.349	20.015	5.394	0.479
258.500	205.147	80.007	19.996	103.348	20.016	5.309	0.455
259.000	205.389	80.007	19.995	103.348	20.014	5.479	0.478
259.500	205.635	80.005	19.995	103.348	20.012	5.600	0.492
260.000	205.918	80.007	19.995	103.352	20.013	5.562	0.508
260.500	206.160	80.006	19.996	103.356	20.012	5.629	0.527
261.000	206.409	80.007	19.996	103.357	20.012	5.589	0.507
261.500	206.675	80.006	19.995	103.355	20.014	5.478	0.503
262.000	206.922	80.007	19.995	103.354	20.012	5.619	0.514
262.500	207.152	80.007	19.996	103.354	20.011	5.644	0.495
263.000	207.417	80.007	19.996	103.355	20.009	5.812	0.486
263.500	207.666	80.007	19.995	103.355	20.009	5.773	0.505
264.000	207.880	80.006	19.996	103.356	20.012	5.598	0.489
264.500	208.133	80.007	19.995	103.357	20.009	5.770	0.465
265.000	208.391	80.008	19.996	103.353	20.010	5.731	0.489
265.500	208.625	80.008	19.995	103.353	20.008	5.857	0.502
266.000	208.861	80.007	19.996	103.354	20.011	5.676	0.482
266.500	209.097	80.007	19.995	103.352	20.010	5.726	0.471
267.000	209.321	80.007	19.994	103.350	20.010	5.735	0.466
267.500	209.603	80.008	19.994	103.352	20.010	5.724	0.483
268.000	209.855	80.008	19.996	103.352	20.010	5.761	0.520
268.500	210.090	80.006	19.994	103.352	20.008	5.850	0.510
269.000	210.395	80.007	19.994	103.355	20.007	5.935	0.513
269.500	210.631	80.008	19.994	103.358	20.007	5.909	0.541
270.000	210.880	80.007	19.994	103.359	20.009	5.823	0.513
270.500	211.126	80.006	19.995	103.355	20.006	6.017	0.490
271.000	211.322	80.008	19.994	103.349	20.005	6.079	0.468
271.500	211.610	80.007	19.993	103.349	20.005	6.029	0.463
272.000	211.836	80.008	19.995	103.348	20.003	6.219	0.499
272.500	212.061	80.008	19.994	103.343	20.000	6.402	0.483
273.000	212.321	80.007	19.993	103.346	20.001	6.313	0.468
273.500	212.536	80.008	19.993	103.350	19.997	6.582	0.480
274.000	212.815	80.008	19.995	103.349	20.003	6.207	0.484
274.500	213.031	80.008	19.993	103.351	20.000	6.367	0.494
275.000	213.268	80.007	19.995	103.356	20.003	6.172	0.474
275.500	213.517	80.008	19.994	103.357	20.003	6.170	0.470
276.000	213.781	80.008	19.994	103.358	20.002	6.233	0.500
276.500	214.025	80.008	19.993	103.358	19.999	6.438	0.510
277.000	214.250	80.007	19.994	103.357	19.998	6.510	0.488
277.500	214.499	80.008	19.995	103.354	19.998	6.489	0.471
278.000	214.737	80.006	19.993	103.355	19.996	6.658	0.481
278.500	214.964	80.007	19.994	103.353	19.996	6.651	0.476
279.000	215.245	80.007	19.994	103.353	19.996	6.661	0.487
279.500	215.493	80.008	19.995	103.354	19.997	6.597	0.519
280.000	215.683	80.007	19.993	103.357	19.999	6.484	0.483
280.500	215.987	80.008	19.994	103.356	19.996	6.647	0.466
281.000	216.213	80.008	19.995	103.359	19.997	6.574	0.512
281.500	216.436	80.008	19.996	103.361	19.995	6.731	0.490
282.000	216.722	80.007	19.995	103.355	19.996	6.649	0.479
282.500	216.972	80.009	19.994	103.353	19.997	6.600	0.522
283.000	217.169	80.008	19.994	103.354	19.997	6.585	0.491
283.500	217.417	80.008	19.994	103.353	19.993	6.846	0.446
284.000	217.664	80.007	19.995	103.352	19.992	6.884	0.470
284.500	217.874	80.008	19.994	103.358	19.993	6.848	0.476
285.000	218.132	80.007	19.995	103.360	19.991	6.951	0.462
285.500	218.397	80.007	19.995	103.361	19.992	6.917	0.496
286.000	218.626	80.008	19.994	103.361	19.993	6.853	0.508
286.500	218.855	80.007	19.994	103.358	19.996	6.671	0.476
287.000	219.082	80.006	19.994	103.355	19.993	6.875	0.457
287.500	219.345	80.006	19.995	103.356	19.994	6.767	0.473
288.000	219.587	80.007	19.994	103.354	19.996	6.669	0.497
288.500	219.822	80.007	19.994	103.352	19.992	6.909	0.491
289.000	220.055	80.007	19.994	103.356	19.994	6.782	0.473
289.500	220.299	80.006	19.995	103.360	19.993	6.865	0.473
290.000	220.544	80.009	19.994	103.358	19.993	6.865	0.483
290.500	220.781	80.006	19.995	103.357	19.991	6.966	0.485
291.000	221.022	80.007	19.995	103.357	19.989	7.111	0.480
291.500	221.276	80.006	19.995	103.358	19.992	6.936	0.486
292.000	221.500	80.007	19.994	103.358	19.990	7.071	0.486
292.500	221.708	80.006	19.994	103.360	19.988	7.169	0.455
293.000	221.969	80.006	19.994	103.363	19.990	7.059	0.451
293.500	222.231	80.006	19.994	103.365	19.989	7.120	0.496
294.000	222.466	80.007	19.994	103.364	19.990	7.031	0.510
294.500	222.728	80.007	19.995	103.361	19.990	7.070	0.497
295.000	222.970	80.005	19.994	103.361	19.988	7.172	0.500
295.501	223.225	80.008	19.994	103.360	19.988	7.183	0.501
296.000	223.452	80.008	19.995	103.359	19.988	7.210	0.490
296.500	223.681	80.008	19.995	103.355	19.983	7.510	0.469
297.000	223.952	80.008	19.995	103.354	19.984	7.469	0.478
297.500	224.227	80.007	19.994	103.346	19.984	7.469	0.523
298.000	224.406	80.007	19.995	103.342	19.981	7.608	0.500
298.500	224.648	80.009	19.994	103.341	19.982	7.553	0.438
299.000	224.931	80.008	19.994	103.345	19.981	7.648	0.473
299.500	225.159	80.008	19.995	103.348	19.985	7.398	0.518
300.000	225.384	80.009	19.994	103.349	19.981	7.652	0.481
300.500	225.632	80.009	19.996	103.347	19.982	7.544	0.463
301.000	225.920	80.009	19.995	103.344	19.983	7.526	0.505
301.500	226.168	80.009	19.994	103.343	19.979	7.759	0.537
302.000	226.438	80.009	19.995	103.342	19.986	7.304	0.527
302.500	226.638	80.010	19.995	103.348	19.980	7.700	0.494
303.000	226.862	80.010	19.994	103.355	19.979	7.769	0.447
303.500	227.154	80.008	19.995	103.359	19.980	7.686	0.470
304.000	227.359	80.011	19.995	103.359	19.979	7.762	0.506
304.500	227.599	80.009	19.995	103.359	19.980	7.717	0.470
305.000	227.854	80.010	19.995	103.356	19.978	7.824	0.470
305.500	228.065	80.008	19.994	103.356	19.981	7.626	0.481
306.000	228.355	80.011	19.995	103.354	19.978	7.819	0.484
306.500	228.589	80.010	19.994	103.354	19.979	7.780	0.513
307.000	228.843	80.011	19.994	103.354	19.978	7.841	0.506
307.500	229.047	80.009	19.994	103.354	19.977	7.899	0.473
308.000	229.343	80.010	19.994	103.353	19.976	7.981	0.478
308.500	229.600	80.010	19.994	103.354	19.975	8.013	0.526
309.000	229.843	80.009	19.993	103.355	19.975	8.055	0.527
309.500	230.064	80.009	19.994	103.356	19.975	8.034	0.482
310.000	230.337	80.009	19.994	103.357	19.975	8.038	0.479
310.500	230.522	80.008	19.994	103.358	19.973	8.135	0.476
311.000	230.797	80.008	19.994	103.360	19.974	8.093	0.459
311.500	231.052	80.010	19.995	103.359	19.975	8.055	0.495
312.000	231.279	80.010	19.994	103.360	19.973	8.180	0.506
312.500	231.497	80.008	19.995	103.361	19.970	8.393	0.464
313.000	231.771	80.009	19.994	103.361	19.968	8.474	0.469
313.500	231.966	80.011	19.994	103.357	19.967	8.528	0.481
314.000	232.258	80.010	19.994	103.353	19.969	8.442	0.478
314.500	232.480	80.009	19.995	103.353	19.967	8.568	0.500
315.000	232.720	80.009	19.994	103.353	19.963	8.814	0.488
315.500	232.960	80.009	19.994	103.353	19.964	8.735	0.471
316.000	233.204	80.008	19.994	103.357	19.964	8.731	0.482
316.500	233.491	80.009	19.995	103.361	19.964	8.748	0.508
317.000	233.722	80.011	19.994	103.361	19.964	8.763	0.525
317.500	233.957	80.010	19.995	103.361	19.963	8.830	0.492
318.000	234.203	80.010	19.995	103.361	19.966	8.638	0.473
318.500	234.450	80.008	19.994	103.361	19.963	8.849	0.486
319.000	234.673	80.010	19.995	103.361	19.959	9.075	0.481
319.500	234.943	80.010	19.994	103.360	19.961	8.936	0.482
320.000	235.185	80.009	19.994	103.360	19.965	8.723	0.502
320.500	235.426	80.008	19.996	103.360	19.959	9.097	0.497
321.000	235.668	80.009	19.994	103.361	19.962	8.893	0.483
321.500	235.882	80.009	19.995	103.361	19.958	9.137	0.470
322.000	236.126	80.009	19.996	103.361	19.957	9.204	0.457
322.500	236.384	80.008	19.994	103.360	19.959	9.101	0.480
323.000	236.645	80.009	19.995	103.367	19.956	9.313	0.510
323.500	236.881	80.008	19.996	103.359	19.956	9.266	0.508
324.000	237.110	80.008	19.995	103.336	19.952	9.568	0.482
324.500	237.382	80.008	19.996	103.319	19.954	9.400	0.483
325.000	237.635	80.010	19.995	103.309	19.954	9.444	0.513
325.500	237.876	80.009	19.995	103.294	19.953	9.485	0.510
326.000	238.077	80.009	19.996	103.301	19.951	9.601	0.468
326.500	238.336	80.010	19.996	103.330	19.951	9.627	0.451
327.000	238.603	80.011	19.995	103.375	19.949	9.735	0.493
327.500	238.823	80.010	19.994	103.399	19.950	9.675	0.506
328.000	239.102	80.010	19.995	103.411	19.947	9.865	0.493
328.500	239.297	80.011	19.995	103.412	19.948	9.792	0.487
329.000	239.536	80.010	19.996	103.406	19.950	9.664	0.454
329.500	239.800	80.012	19.995	103.377	19.947	9.858	0.469
330.000	240.062	80.010	19.994	103.364	19.948	9.844	0.514
330.500	240.304	80.011	19.994	103.359	19.941	10.255	0.514
331.000	240.546	80.010	19.995	103.359	19.942	10.205	0.494
331.500	240.776	80.010	19.995	103.359	19.941	10.299	0.478
332.000	241.018	80.010	19.995	103.361	19.939	10.395	0.472
332.500	241.305	80.011	19.996	103.363	19.941	10.302	0.501
333.000	241.549	80.011	19.995	103.364	19.941	10.293	0.530
333.500	241.796	80.010	19.994	103.364	19.939	10.398	0.511
334.000	242.053	80.010	19.995	103.364	19.937	10.512	0.497
334.500	242.278	80.011	19.995	103.362	19.936	10.589	0.493
335.000	242.545	80.009	19.995	103.362	19.934	10.742	0.487
335.500	242.791	80.010	19.995	103.366	19.934	10.766	0.503
336.000	243.043	80.011	19.994	103.367	19.931	10.957	0.505
336.500	243.264	80.010	19.994	103.367	19.934	10.763	0.486
337.000	243.503	80.011	19.995	103.367	19.930	10.992	0.467
337.500	243.777	80.010	19.994	103.365	19.930	11.028	0.486
338.000	243.981	80.008	19.995	103.362	19.927	11.192	0.495
338.500	244.302	80.009	19.995	103.362	19.926	11.233	0.502
339.000	244.491	80.008	19.995	103.362	19.929	11.063	0.518
339.500	244.760	80.008	19.994	103.364	19.926	11.278	0.484
340.000	244.981	80.007	19.994	103.365	19.928	11.131	0.474
340.500	245.219	80.006	19.995	103.368	19.924	11.390	0.474
341.000	245.474	80.008	19.996	103.372	19.924	11.402	0.475
341.500	245.757	80.007	19.995	103.374	19.919	11.690	0.516
342.000	245.998	80.007	19.994	103.373	19.923	11.483	0.531
342.500	246.243	80.011	19.995	103.372	19.919	11.734	0.505
343.000	246.462	80.007	19.995	103.370	19.917	11.835	0.475
343.500	246.735	80.008	19.995	103.366	19.918	11.758	0.478
344.000	246.986	80.007	19.996	103.365	19.918	11.791	0.508
344.500	247.228	80.009	19.996	103.368	19.919	11.716	0.509
345.000	247.465	80.007	19.995	103.374	19.916	11.888	0.486
345.500	247.719	80.009	19.995	103.378	19.913	12.138	0.485
346.000	247.954	80.007	19.996	103.384	19.915	11.955	0.490
346.500	248.215	80.008	19.995	103.385	19.915	12.016	0.492
347.000	248.457	80.006	19.995	103.384	19.912	12.203	0.499
347.500	248.674	80.006	19.995	103.379	19.909	12.365	0.481
348.000	248.986	80.007	19.995	103.374	19.908	12.447	0.494
348.500	249.208	80.006	19.996	103.369	19.908	12.433	0.531
349.000	249.451	80.008	19.995	103.368	19.905	12.646	0.499
349.500	249.748	80.007	19.996	103.371	19.903	12.776	0.502
350.000	249.979	80.007	19.995	103.375	19.905	12.656	0.534
350.500	250.263	80.007	19.995	103.380	19.904	12.720	0.522
351.000	250.489	80.007	19.996	103.381	19.902	12.844	0.512
351.500	250.742	80.008	19.994	103.383	19.900	12.946	0.494
352.000	251.009	80.007	19.996	103.380	19.896	13.214	0.500
352.500	251.240	80.006	19.995	103.382	19.896	13.238	0.508
353.000	251.500	80.007	19.995	103.384	19.895	13.330	0.494
353.500	251.746	80.007	19.995	103.390	19.890	13.605	0.499
354.000	251.996	80.005	19.996	103.392	19.893	13.430	0.501
354.500	252.266	80.008	19.996	103.396	19.892	13.508	0.508
355.000	252.495	80.007	19.996	103.392	19.887	13.832	0.510
355.500	252.731	80.005	19.996	103.389	19.888	13.795	0.482
356.000	252.943	80.007	19.996	103.383	19.887	13.825	0.456
356.500	253.233	80.007	19.994	103.380	19.884	14.060	0.475
357.000	253.463	80.005	19.995	103.382	19.882	14.140	0.511
357.500	253.727	80.006	19.995	103.387	19.881	14.225	0.507
358.000	254.011	80.008	19.995	103.390	19.880	14.259	0.521
358.500	254.224	80.007	19.996	103.396	19.882	14.186	0.523
359.000	254.518	80.008	19.995	103.400	19.880	14.301	0.502
359.500	254.736	80.008	19.996	103.401	19.877	14.477	0.510
360.000	255.008	80.008	19.994	103.401	19.873	14.784	0.501
360.500	255.265	80.008	19.995	103.399	19.869	14.997	0.509
361.000	255.489	80.007	19.995	103.396	19.869	15.012	0.505
361.500	255.721	80.007	19.995	103.395	19.869	14.991	0.469
362.000	256.016	80.007	19.995	103.394	19.868	15.065	0.492
362.500	256.248	80.009	19.995	103.395	19.866	15.183	0.527
363.000	256.501	80.008	19.994	103.397	19.862	15.467	0.506
363.500	256.734	80.005	19.995	103.400	19.864	15.341	0.485
364.000	256.986	80.009	19.994	103.401	19.860	15.586	0.485
364.500	257.175	80.008	19.995	103.400	19.861	15.566	0.463
365.000	257.469	80.009	19.995	103.400	19.858	15.714	0.462
365.500	257.769	80.007	19.995	103.400	19.856	15.861	0.539
366.000	258.021	80.008	19.994	103.398	19.853	16.042	0.573
366.500	258.246	80.008	19.994	103.398	19.853	16.062	0.514
367.000	258.460	80.008	19.994	103.399	19.849	16.328	0.458
367.500	258.751	80.009	19.995	103.398	19.849	16.362	0.472
368.000	258.978	80.009	19.995	103.397	19.846	16.517	0.511
368.500	259.222	80.009	19.994	103.397	19.843	16.696	0.495
369.000	259.464	80.008	19.995	103.398	19.843	16.741	0.479
369.500	259.717	80.008	19.994	103.397	19.838	17.080	0.490
370.000	259.984	80.009	19.994	103.394	19.839	17.005	0.507
370.500	260.206	80.009	19.995	103.395	19.835	17.268	0.505
371.000	260.491	80.010	19.995	103.397	19.835	17.284	0.498
371.500	260.711	80.008	19.994	103.397	19.833	17.400	0.506
372.000	260.984	80.010	19.994	103.398	19.833	17.402	0.499
372.500	261.231	80.009	19.995	103.401	19.830	17.557	0.506
373.000	261.478	80.008	19.995	103.401	19.828	17.736	0.507
373.500	261.712	80.008	19.994	103.401	19.825	17.929	0.488
374.000	261.964	80.008	19.994	103.401	19.823	18.032	0.484
374.500	262.205	80.007	19.994	103.401	19.823	18.056	0.489
375.000	262.442	80.008	19.995	103.401	19.820	18.248	0.485
375.500	262.713	80.009	19.995	103.401	19.820	18.264	0.493
376.000	262.938	80.008	19.995	103.401	19.817	18.458	0.502
376.500	263.209	80.009	19.995	103.401	19.818	18.405	0.496
377.000	263.479	80.009	19.994	103.401	19.817	18.435	0.518
377.500	263.727	80.009	19.994	103.400	19.816	18.535	0.529
378.000	263.986	80.008	19.995	103.401	19.811	18.852	0.512
378.500	264.222	80.008	19.995	103.402	19.814	18.667	0.501
379.000	264.472	80.006	19.996	103.403	19.808	19.061	0.491
379.500	264.718	80.010	19.994	103.402	19.802	19.418	0.491
380.000	264.975	80.008	19.994	103.402	19.807	19.099	0.499
380.500	265.204	80.007	19.995	103.401	19.806	19.164	0.494
381.000	265.486	80.009	19.994	103.401	19.802	19.424	0.499
381.500	265.746	80.008	19.995	103.401	19.798	19.699	0.527
382.000	265.946	80.009	19.995	103.403	19.793	20.025	0.501
382.500	266.214	80.011	19.995	103.404	19.794	19.947	0.464
383.000	266.441	80.008	19.995	103.405	19.789	20.262	0.482
383.500	266.679	80.008	19.995	103.406	19.788	20.362	0.480
384.000	266.939	80.009	19.995	103.405	19.785	20.527	0.481
384.500	267.176	80.008	19.996	103.403	19.782	20.738	0.498
385.000	267.445	80.009	19.996	103.405	19.785	20.535	0.502
385.500	267.702	80.009	19.995	103.406	19.782	20.768	0.516
386.000	267.965	80.010	19.994	103.410	19.779	20.926	0.523
386.500	268.207	80.010	19.996	103.411	19.775	21.222	0.512
387.000	268.456	80.010	19.995	103.413	19.775	21.229	0.498
387.500	268.736	80.009	19.994	103.413	19.771	21.503	0.510
388.000	268.947	80.009	19.995	103.411	19.770	21.535	0.510
388.500	269.192	80.009	19.994	103.406	19.766	21.814	0.474
389.000	269.451	80.009	19.994	103.409	19.765	21.861	0.480
389.500	269.700	80.010	19.995	103.408	19.762	22.053	0.505
390.000	269.950	80.009	19.995	103.404	19.757	22.397	0.503
390.500	270.173	80.010	19.994	103.406	19.758	22.305	0.486
391.000	270.465	80.010	19.994	103.408	19.753	22.634	0.495
391.500	270.715	80.011	19.994	103.412	19.754	22.618	0.528
392.000	270.965	80.009	19.995	103.419	19.752	22.712	0.521
392.500	271.207	80.010	19.994	103.427	19.749	22.904	0.496
393.000	271.538	80.010	19.995	103.431	19.744	23.224	0.533
393.500	271.755	80.010	19.995	103.433	19.745	23.183	0.561
394.000	271.984	80.010	19.995	103.432	19.744	23.250	0.497
394.500	272.241	80.009	19.995	103.429	19.740	23.547	0.466
395.000	272.457	80.009	19.995	103.427	19.738	23.620	0.479
395.500	272.726	80.009	19.994	103.426	19.738	23.643	0.479
396.000	272.961	80.009	19.995	103.429	19.736	23.768	0.495
396.500	273.191	80.009	19.994	103.430	19.736	23.765	0.484
397.000	273.441	80.009	19.995	103.433	19.729	24.225	0.473
397.500	273.694	80.009	19.994	103.436	19.731	24.091	0.492
398.000	273.910	80.007	19.994	103.438	19.729	24.237	0.486
398.500	274.157	80.010	19.994	103.439	19.726	24.439	0.466
399.000	274.436	80.009	19.995	103.439	19.723	24.632	0.494
399.500	274.705	80.010	19.993	103.440	19.723	24.627	0.537
400.000	274.927	80.008	19.993	103.441	19.722	24.685	0.520
400.500	275.163	80.010	19.994	103.441	19.717	25.027	0.475
401.000	275.446	80.009	19.995	103.441	19.716	25.116	0.489
401.500	275.648	80.009	19.994	103.441	19.712	25.383	0.501
402.000	275.916	80.010	19.994	103.441	19.711	25.451	0.477
402.500	276.168	80.010	19.994	103.441	19.709	25.536	0.495
403.000	276.423	80.009	19.994	103.441	19.707	25.679	0.514
403.500	276.620	80.009	19.995	103.441	19.705	25.858	0.479
404.000	276.887	80.010	19.994	103.441	19.704	25.897	0.458
404.500	277.166	80.009	19.995	103.441	19.699	26.217	0.505
405.000	277.372	80.010	19.994	103.441	19.697	26.356	0.515
405.500	277.623	80.009	19.995	103.441	19.696	26.444	0.471
406.000	277.890	80.008	19.994	103.441	19.693	26.646	0.487
406.500	278.121	80.008	19.994	103.442	19.693	26.651	0.508
407.000	278.354	80.009	19.994	103.444	19.691	26.772	0.481
407.500	278.628	80.008	19.994	103.447	19.684	27.237	0.486
408.001	278.874	80.008	19.994	103.451	19.681	27.391	0.514
408.500	279.123	80.010	19.995	103.456	19.682	27.315	0.508
409.000	279.422	80.010	19.994	103.457	19.681	27.425	0.522
409.500	279.650	80.010	19.993	103.457	19.677	27.688	0.537
410.000	279.853	80.010	19.994	103.459	19.675	27.818	0.478
410.500	280.133	80.011	19.993	103.460	19.676	27.757	0.457
411.000	280.425	80.010	19.993	103.461	19.673	27.946	0.528
411.500	280.622	80.012	19.994	103.462	19.667	28.331	0.531
412.000	280.915	80.010	19.995	103.462	19.666	28.384	0.490
412.500	281.110	80.011	19.995	103.458	19.663	28.578	0.489
413.000	281.415	80.012	19.995	103.454	19.666	28.385	0.494
413.500	281.643	80.012	19.995	103.450	19.660	28.816	0.516
414.000	281.892	80.012	19.994	103.454	19.661	28.750	0.504
414.500	282.147	80.011	19.996	103.461	19.654	29.219	0.490
415.000	282.388	80.011	19.994	103.464	19.655	29.153	0.500
415.500	282.652	80.010	19.993	103.468	19.651	29.376	0.500
416.000	282.881	80.011	19.994	103.473	19.647	29.627	0.499
416.500	283.149	80.011	19.994	103.470	19.649	29.542	0.495
417.000	283.391	80.011	19.995	103.462	19.647	29.660	0.504
417.500	283.641	80.012	19.995	103.460	19.643	29.918	0.501
418.000	283.925	80.011	19.994	103.461	19.639	30.199	0.513
418.500	284.161	80.011	19.994	103.461	19.637	30.292	0.527
419.000	284.371	80.010	19.995	103.464	19.633	30.550	0.483
419.500	284.607	80.011	19.995	103.467	19.632	30.668	0.446
420.000	284.872	80.010	19.995	103.469	19.632	30.664	0.473
420.500	285.111	80.010	19.995	103.471	19.625	31.081	0.503
421.000	285.346	80.010	19.995	103.471	19.622	31.272	0.489
421.500	285.588	80.009	19.995	103.470	19.619	31.497	0.475
422.000	285.848	80.008	19.995	103.472	19.620	31.449	0.489
422.500	286.086	80.009	19.994	103.470	19.618	31.597	0.500
423.000	286.343	80.009	19.995	103.469	19.622	31.279	0.497
423.500	286.611	80.006	19.995	103.470	19.611	32.045	0.510
424.000	286.823	80.007	19.994	103.472	19.612	31.935	0.502
424.500	287.084	80.010	19.994	103.474	19.612	31.979	0.477
425.000	287.339	80.009	19.996	103.473	19.598	32.852	0.495
425.500	287.608	80.009	19.995	103.473	19.602	32.646	0.520
426.000	287.857	80.009	19.995	103.471	19.597	32.964	0.521
426.500	288.086	80.009	19.994	103.470	19.600	32.735	0.498
427.000	288.381	80.008	19.994	103.470	19.605	32.434	0.501
427.500	288.578	80.005	19.995	103.473	19.598	32.850	0.508
428.000	288.815	80.009	19.994	103.474	19.595	33.102	0.463
428.500	289.112	80.010	19.994	103.475	19.591	33.335	0.484
429.000	289.339	80.009	19.995	103.477	19.594	33.141	0.529
429.500	289.513	80.008	19.995	103.477	19.585	33.707	0.463
430.000	289.815	80.009	19.995	103.479	19.587	33.630	0.438
430.500	290.094	80.009	19.995	103.479	19.585	33.758	0.528
431.000	290.338	80.008	19.995	103.478	19.584	33.775	0.552
431.500	290.562	80.008	19.994	103.478	19.580	34.038	0.496
432.000	290.828	80.009	19.995	103.478	19.583	33.865	0.479
432.500	291.022	80.010	19.994	103.477	19.578	34.198	0.475
433.000	291.298	80.007	19.994	103.477	19.574	34.439	0.465
433.500	291.633	80.007	19.995	103.479	19.571	34.677	0.540
434.000	291.800	80.008	19.995	103.479	19.573	34.550	0.556
434.500	292.033	80.008	19.995	103.479	19.570	34.744	0.451
435.000	292.413	80.008	19.994	103.479	19.566	35.000	0.507
435.500	292.513	80.008	19.996	103.479	19.565	35.041	0.547
436.000	292.833	80.008	19.994	103.479	19.565	35.073	0.450
436.500	293.110	80.008	19.995	103.479	19.566	35.002	0.508
437.000	293.395	80.007	19.995	103.478	19.561	35.300	0.579
437.500	293.441	80.009	19.995	103.478	19.559	35.465	0.447
438.000	294.120	80.008	19.996	103.478	19.560	35.376	0.529
438.500	293.991	80.008	19.995	103.478	19.558	35.532	0.637
439.000	294.196	80.008	19.995	103.478	19.554	35.793	0.312
439.500	294.619	80.011	19.994	103.478	19.552	35.883	0.352
440.000	294.702	80.008	19.996	103.477	19.552	35.913	0.567
440.500	294.852	80.007	19.995	103.478	19.550	36.042	0.369
441.000	295.422	80.010	19.995	103.478	19.548	36.132	0.476
441.500	295.606	80.008	19.995	103.478	19.548	36.201	0.737
442.000	295.931	80.009	19.995	103.479	19.544	36.471	0.631
442.500	296.136	80.009	19.994	103.479	19.542	36.589	0.519
443.000	296.363	80.008	19.995	103.479	19.545	36.386	0.481
443.500	296.546	80.011	19.995	103.479	19.538	36.845	0.422
444.000	296.795	80.009	19.995	103.479	19.538	36.879	0.421
444.500	297.154	80.008	19.996	103.477	19.535	37.042	0.519
445.000	297.389	80.007	19.995	103.476	19.533	37.150	0.600
445.500	297.546	80.006	19.996	103.476	19.532	37.235	0.493
446.000	297.888	80.008	19.997	103.475	19.529	37.417	0.446
446.500	298.125	80.007	19.996	103.475	19.530	37.376	0.539
447.000	298.324	80.005	19.995	103.476	19.527	37.577	0.508
447.500	298.645	80.007	19.995	103.477	19.525	37.664	0.478
448.000	298.904	80.008	19.996	103.479	19.522	37.863	0.550
448.500	299.100	80.009	19.995	103.483	19.519	38.059	0.518
449.000	299.347	80.008	19.995	103.489	19.520	38.044	0.450
449.500	299.637	80.007	19.996	103.502	19.518	38.158	0.490
450.000	299.908	80.007	19.996	103.492	19.516	38.322	0.549
450.500	300.150	80.009	19.996	103.469	19.515	38.352	0.537
451.000	300.394	80.009	19.995	103.453	19.513	38.497	0.499
451.500	300.660	80.008	19.995	103.442	19.511	38.623	0.498
452.000	300.899	80.008	19.996	103.429	19.510	38.713	0.508
452.500	301.134	80.010	19.996	103.454	19.509	38.754	0.489
453.000	301.418	80.008	19.996	103.504	19.507	38.915	0.496
453.500	301.643	80.007	19.995	103.527	19.509	38.775	0.514
454.000	301.873	80.008	19.995	103.540	19.505	39.006	0.482
454.500	302.187	80.009	19.995	103.545	19.503	39.169	0.499
455.000	302.413	80.009	19.996	103.531	19.502	39.185	0.542
455.500	302.632	80.008	19.996	103.503	19.503	39.139	0.493
456.000	302.907	80.007	19.996	103.493	19.500	39.359	0.470
456.500	303.164	80.009	19.996	103.486	19.498	39.480	0.513
457.000	303.416	80.008	19.996	103.483	19.497	39.554	0.520
457.500	303.677	80.008	19.996	103.485	19.496	39.636	0.511
458.000	303.928	80.008	19.995	103.484	19.492	39.857	0.513
458.500	304.183	80.011	19.995	103.483	19.491	39.952	0.509
459.000	304.417	80.011	19.995	103.483	19.489	40.052	0.498
459.500	304.632	80.008	19.996	103.484	19.485	40.347	0.469
460.000	304.874	80.009	19.995	103.484	19.484	40.432	0.453
460.500	305.187	80.009	19.995	103.489	19.484	40.399	0.506
461.000	305.426	80.007	19.995	103.496	19.483	40.448	0.553
461.500	305.662	80.010	19.995	103.503	19.478	40.765	0.514
462.000	305.939	80.007	19.996	103.507	19.480	40.659	0.494
462.500	306.209	80.009	19.995	103.507	19.478	40.806	0.530
463.000	306.416	80.006	19.995	103.505	19.473	41.114	0.512
463.500	306.727	80.008	19.995	103.503	19.473	41.094	0.497
464.000	306.989	80.010	19.996	103.498	19.473	41.151	0.546
464.500	307.229	80.010	19.994	103.494	19.470	41.324	0.538
465.000	307.445	80.009	19.995	103.493	19.472	41.216	0.479
465.500	307.739	80.008	19.995	103.492	19.470	41.303	0.483
466.000	307.991	80.009	19.994	103.488	19.470	41.307	0.528
466.500	308.187	80.010	19.994	103.489	19.467	41.548	0.497
467.000	308.497	80.009	19.995	103.487	19.465	41.678	0.477
467.500	308.713	80.010	19.994	103.487	19.465	41.673	0.516
468.000	308.985	80.011	19.994	103.486	19.463	41.792	0.507
468.500	309.233	80.010	19.994	103.485	19.462	41.853	0.504
469.000	309.499	80.008	19.994	103.488	19.459	42.072	0.517
469.500	309.728	80.010	19.994	103.490	19.458	42.099	0.504
470.000	309.979	80.008	19.994	103.495	19.458	42.109	0.487
470.500	310.233	80.011	19.995	103.498	19.461	41.942	0.493
471.000	310.497	80.009	19.994	103.503	19.458	42.135	0.511
471.500	310.772	80.011	19.994	103.500	19.457	42.178	0.529
472.000	311.040	80.010	19.995	103.498	19.456	42.222	0.541
472.500	311.290	80.011	19.994	103.495	19.455	42.330	0.530
473.000	311.530	80.010	19.994	103.497	19.456	42.267	0.504
473.500	311.747	80.010	19.994	103.495	19.453	42.430	0.473
474.000	312.044	80.008	19.994	103.493	19.449	42.729	0.485
474.500	312.295	80.009	19.994	103.496	19.448	42.753	0.531
475.000	312.579	80.010	19.995	103.495	19.449	42.684	0.542
475.500	312.787	80.009	19.994	103.492	19.449	42.686	0.514
476.000	313.039	80.012	19.995	103.490	19.453	42.470	0.476
476.500	313.313	80.011	19.994	103.490	19.450	42.633	0.492
477.000	313.552	80.009	19.995	103.486	19.447	42.853	0.519
477.500	313.820	80.011	19.994	103.488	19.446	42.890	0.510
478.000	314.094	80.007	19.995	103.493	19.447	42.864	0.524
478.500	314.329	80.011	19.995	103.498	19.441	43.258	0.526
479.000	314.593	80.009	19.994	103.499	19.443	43.088	0.505
479.500	314.828	80.009	19.994	103.500	19.441	43.223	0.499
480.000	315.109	80.009	19.995	103.495	19.440	43.317	0.508
480.500	315.354	80.010	19.994	103.489	19.437	43.477	0.521
481.000	315.607	80.010	19.995	103.486	19.440	43.303	0.512
481.500	315.875	80.011	19.994	103.487	19.438	43.470	0.509
482.000	316.138	80.009	19.994	103.490	19.438	43.431	0.526
482.500	316.357	80.010	19.993	103.495	19.436	43.589	0.507
483.000	316.592	80.008	19.995	103.499	19.436	43.551	0.468
483.500	316.859	80.010	19.995	103.498	19.436	43.554	0.478
484.000	317.121	80.011	19.994	103.494	19.434	43.679	0.515
484.500	317.370	80.010	19.996	103.494	19.433	43.756	0.520
485.000	317.656	80.008	19.995	103.489	19.431	43.887	0.523
485.500	317.891	80.010	19.994	103.487	19.432	43.816	0.528
486.000	318.159	80.010	19.995	103.490	19.432	43.846	0.512
486.500	318.399	80.008	19.995	103.497	19.434	43.709	0.506
487.000	318.663	80.011	19.994	103.501	19.433	43.774	0.506
487.500	318.927	80.009	19.995	103.503	19.430	43.977	0.516
488.000	319.151	80.010	19.993	103.507	19.429	44.052	0.508
488.500	319.398	80.010	19.994	103.506	19.427	44.128	0.479
489.000	319.686	80.010	19.995	103.504	19.427	44.190	0.503
489.500	319.900	80.011	19.994	103.505	19.424	44.383	0.518
490.000	320.187	80.009	19.995	103.508	19.426	44.255	0.502
490.500	320.427	80.010	19.994	103.510	19.428	44.122	0.514
491.000	320.688	80.009	19.993	103.511	19.428	44.128	0.513
491.500	320.916	80.011	19.994	103.511	19.425	44.312	0.495
492.000	321.169	80.011	19.994	103.510	19.424	44.375	0.485
492.500	321.425	80.008	19.993	103.511	19.423	44.418	0.495
493.000	321.651	80.010	19.994	103.511	19.420	44.626	0.495
493.500	321.921	80.013	19.993	103.510	19.419	44.722	0.489
494.000	322.193	80.011	19.994	103.508	19.417	44.820	0.519
494.500	322.422	80.015	19.993	103.502	19.419	44.697	0.521
495.000	322.685	80.011	19.993	103.501	19.420	44.652	0.496
495.500	322.932	80.010	19.995	103.497	19.415	44.956	0.501
496.000	323.183	80.011	19.994	103.497	19.415	44.929	0.504
496.500	323.437	80.013	19.993	103.495	19.416	44.912	0.501
497.000	323.673	80.013	19.995	103.495	19.416	44.862	0.497
497.500	323.919	80.012	19.993	103.490	19.417	44.851	0.486
498.000	324.159	80.012	19.994	103.490	19.415	44.980	0.484
498.500	324.441	80.013	19.994	103.494	19.413	45.103	0.504
499.000	324.668	80.011	19.994	103.496	19.411	45.213	0.516
499.500	324.919	80.010	19.993	103.499	19.412	45.146	0.493
500.000	325.177	80.012	19.993	103.505	19.413	45.114	0.494
500.500	325.396	80.011	19.994	103.508	19.408	45.395	0.493
501.000	325.675	80.011	19.993	103.505	19.404	45.667	0.487
501.500	325.930	80.009	19.994	103.506	19.407	45.500	0.516
502.000	326.146	80.011	19.993	103.507	19.404	45.704	0.502
502.500	326.401	80.012	19.993	103.505	19.403	45.729	0.471
503.000	326.681	80.009	19.994	103.505	19.400	45.953	0.503
503.500	326.937	80.012	19.993	103.508	19.403	45.729	0.536
504.000	327.170	80.013	19.996	103.511	19.399	46.041	0.513
504.500	327.414	80.009	19.995	103.512	19.397	46.162	0.483
505.000	327.659	80.007	19.994	103.512	19.396	46.206	0.482
505.500	327.900	80.011	19.993	103.510	19.394	46.359	0.487
506.000	328.162	80.010	19.994	103.506	19.396	46.237	0.495
506.500	328.407	80.009	19.996	103.505	19.392	46.497	0.505
507.000	328.644	80.004	19.995	103.505	19.393	46.406	0.495
507.500	328.869	80.008	19.994	103.503	19.394	46.373	0.472
508.000	329.138	80.008	19.994	103.506	19.390	46.624	0.478
508.500	329.371	80.009	19.995	103.510	19.388	46.725	0.498
509.000	329.645	80.008	19.996	103.510	19.386	46.856	0.504
509.500	329.875	80.008	19.995	103.511	19.385	46.911	0.505
510.000	330.114	80.011	19.995	103.515	19.383	47.077	0.487
510.500	330.375	80.009	19.995	103.516	19.380	47.240	0.484
511.000	330.599	80.011	19.994	103.516	19.380	47.282	0.492
511.500	330.856	80.009	19.994	103.517	19.378	47.421	0.483
512.000	331.139	80.008	19.994	103.517	19.376	47.555	0.510
512.500	331.380	80.009	19.994	103.516	19.372	47.789	0.532
513.000	331.629	80.007	19.996	103.516	19.374	47.705	0.507
513.500	331.845	80.009	19.996	103.517	19.371	47.881	0.478
514.000	332.109	80.010	19.996	103.517	19.365	48.247	0.472
514.500	332.348	80.007	19.996	103.518	19.366	48.228	0.491
515.000	332.627	80.008	19.995	103.518	19.365	48.286	0.511
515.500	332.839	80.009	19.996	103.518	19.359	48.685	0.504
516.000	333.141	80.009	19.996	103.517	19.358	48.760	0.502
516.500	333.377	80.008	19.995	103.518	19.353	49.094	0.526
517.000	333.606	80.008	19.995	103.519	19.352	49.134	0.502
517.500	333.891	80.007	19.995	103.519	19.349	49.321	0.489
518.000	334.137	80.007	19.995	103.519	19.348	49.399	0.522
518.500	334.369	80.007	19.996	103.520	19.343	49.708	0.505
519.000	334.600	80.006	19.995	103.519	19.343	49.700	0.471
519.500	334.887	80.008	19.995	103.520	19.340	49.904	0.490
520.000	335.114	80.010	19.994	103.521	19.336	50.179	0.516
520.500	335.358	80.008	19.996	103.523	19.330	50.559	0.493
521.000	335.636	80.009	19.997	103.529	19.330	50.582	0.496
521.500	335.884	80.009	19.996	103.536	19.327	50.812	0.524
522.000	336.101	80.008	19.996	103.540	19.321	51.160	0.496
522.500	336.389	80.009	19.996	103.546	19.315	51.566	0.485
523.000	336.624	80.008	19.994	103.552	19.316	51.495	0.514
523.500	336.885	80.007	19.994	103.554	19.314	51.672	0.509
524.000	337.146	80.011	19.996	103.553	19.311	51.840	0.509
524.500	337.361	80.007	19.995	103.552	19.306	52.165	0.499
525.000	337.604	80.009	19.995	103.552	19.302	52.419	0.467
525.500	337.859	80.007	19.995	103.552	19.299	52.677	0.478
526.000	338.083	80.010	19.995	103.551	19.297	52.767	0.488
526.500	338.417	80.008	19.995	103.552	19.290	53.272	0.519
527.000	338.608	80.009	19.994	103.553	19.284	53.667	0.542
527.500	338.857	80.010	19.995	103.556	19.285	53.554	0.482
528.000	339.106	80.008	19.995	103.557	19.281	53.840	0.469
528.500	339.354	80.009	19.995	103.558	19.273	54.345	0.498
529.000	339.596	80.008	19.995	103.561	19.270	54.557	0.493
529.500	339.809	80.013	19.994	103.564	19.264	54.988	0.472
530.000	340.087	80.009	19.994	103.565	19.262	55.076	0.473
530.500	340.328	80.010	19.995	103.567	19.252	55.749	0.505
531.000	340.603	80.012	19.995	103.571	19.247	56.114	0.517
531.500	340.831	80.009	19.995	103.572	19.247	56.075	0.510
532.000	341.056	80.007	19.995	103.576	19.243	56.345	0.478
532.500	341.334	80.008	19.995	103.577	19.239	56.612	0.478
533.000	341.582	80.009	19.995	103.576	19.236	56.830	0.515
533.500	341.803	80.008	19.994	103.575	19.227	57.399	0.497
534.000	342.060	80.009	19.995	103.580	19.222	57.742	0.473
534.500	342.287	80.009	19.994	103.582	19.217	58.101	0.481
535.000	342.534	80.006	19.995	103.587	19.211	58.497	0.479
535.500	342.786	80.009	19.994	103.593	19.208	58.706	0.486
536.000	343.022	80.008	19.993	103.599	19.204	58.956	0.493
536.500	343.237	80.009	19.995	103.599	19.195	59.533	0.470
537.000	343.520	80.007	19.995	103.601	19.193	59.655	0.475
537.500	343.759	80.008	19.995	103.604	19.185	60.228	0.510
538.000	343.996	80.006	19.995	103.611	19.178	60.646	0.499
538.500	344.260	80.009	19.995	103.615	19.173	61.000	0.488
539.000	344.526	80.007	19.995	103.620	19.165	61.507	0.515
539.500	344.729	80.006	19.996	103.626	19.158	61.995	0.499
540.000	344.988	80.007	19.996	103.630	19.155	62.221	0.466
540.500	345.259	80.005	19.995	103.631	19.150	62.517	0.496
541.000	345.446	80.007	19.995	103.632	19.141	63.141	0.494
541.500	345.731	80.006	19.995	103.631	19.135	63.509	0.465
542.000	346.021	80.007	19.996	103.629	19.126	64.098	0.524
542.500	346.256	80.007	19.995	103.629	19.119	64.605	0.550
543.000	346.496	80.008	19.996	103.629	19.110	65.185	0.500
543.500	346.757	80.004	19.995	103.631	19.105	65.478	0.487
544.000	346.931	80.009	19.995	103.639	19.098	65.987	0.468
544.500	347.207	80.006	19.995	103.646	19.092	66.357	0.443
545.000	347.458	80.006	19.995	103.646	19.083	66.938	0.488
545.500	347.740	80.008	19.996	103.646	19.081	67.103	0.530
546.000	347.933	80.007	19.995	103.646	19.069	67.873	0.504
546.500	348.211	80.009	19.995	103.646	19.064	68.185	0.473
547.000	348.451	80.010	19.994	103.649	19.056	68.709	0.495
547.500	348.736	80.006	19.995	103.656	19.048	69.264	0.521
548.000	348.979	80.009	19.995	103.663	19.040	69.787	0.526
548.500	349.219	80.006	19.995	103.670	19.032	70.318	0.505
549.000	349.484	80.006	19.995	103.674	19.027	70.678	0.494
549.500	349.749	80.008	19.995	103.675	19.017	71.288	0.518
550.000	350.021	80.008	19.995	103.675	19.010	71.772	0.534
550.500	350.257	80.009	19.994	103.676	19.002	72.332	0.523
551.000	350.530	80.008	19.995	103.676	18.994	72.830	0.509
551.500	350.758	80.009	19.994	103.677	18.986	73.357	0.505
552.000	351.010	80.007	19.995	103.681	18.979	73.828	0.490
552.500	351.257	80.010	19.996	103.682	18.974	74.138	0.489
553.000	351.520	80.010	19.995	103.684	18.965	74.761	0.504
553.500	351.757	80.010	19.994	103.689	18.961	74.980	0.505
554.000	352.026	80.008	19.994	103.688	18.951	75.651	0.503
554.500	352.295	80.009	19.995	103.684	18.944	76.093	0.522
555.000	352.552	80.008	19.994	103.686	18.937	76.549	0.532
555.500	352.836	80.010	19.994	103.687	18.930	77.045	0.533
556.000	353.079	80.009	19.994	103.686	18.919	77.725	0.534
556.500	353.371	80.009	19.993	103.693	18.914	78.070	0.532
557.000	353.614	80.010	19.995	103.694	18.911	78.255	0.536
557.500	353.850	80.007	19.994	103.695	18.908	78.495	0.507
558.000	354.150	80.009	19.994	103.695	18.895	79.357	0.507
558.500	354.401	80.010	19.994	103.693	18.891	79.590	0.543
559.000	354.614	80.009	19.993	103.693	18.885	79.964	0.507
559.500	354.898	80.010	19.995	103.696	18.882	80.143	0.480
560.000	355.131	80.011	19.993	103.697	18.874	80.690	0.507
560.500	355.389	80.010	19.994	103.697	18.871	80.903	0.504
561.000	355.677	80.010	19.995	103.696	18.866	81.200	0.518
561.500	355.913	80.008	19.994	103.690	18.860	81.604	0.535
562.000	356.174	80.008	19.994	103.684	18.856	81.892	0.510
562.500	356.417	80.010	19.994	103.681	18.852	82.150	0.501
563.000	356.698	80.010	19.994	103.676	18.848	82.366	0.514
563.500	356.897	80.007	19.994	103.675	18.845	82.578	0.502
564.000	357.170	80.008	19.995	103.674	18.846	82.509	0.476
564.500	357.417	80.008	19.994	103.674	18.843	82.665	0.496
565.000	357.731	80.009	19.994	103.672	18.838	83.024	0.541
565.500	357.963	80.008	19.994	103.672	18.839	82.955	0.554
566.000	358.208	80.009	19.994	103.671	18.836	83.127	0.511
566.500	358.490	80.010	19.996	103.666	18.841	82.800	0.502
567.000	358.745	80.008	19.994	103.659	18.841	82.783	0.532
567.500	359.017	80.009	19.995	103.654	18.842	82.734	0.531
568.000	359.244	80.010	19.994	103.649	18.843	82.649	0.513
568.500	359.524	80.010	19.995	103.641	18.843	82.641	0.503
569.000	359.792	80.009	19.994	103.639	18.848	82.317	0.528
569.500	360.018	80.009	19.995	103.636	18.852	82.009	0.521
570.000	360.258	80.010	19.995	103.630	18.854	81.885	0.480
570.500	360.523	80.011	19.994	103.620	18.860	81.483	0.485
571.000	360.793	80.010	19.994	103.611	18.862	81.354	0.520
571.500	361.064	80.012	19.995	103.603	18.867	81.010	0.538
572.000	361.314	80.009	19.995	103.597	18.876	80.445	0.531
572.500	361.582	80.009	19.995	103.594	18.884	79.884	0.520
573.000	361.833	80.011	19.994	103.593	18.895	79.172	0.519
573.500	362.071	80.010	19.994	103.587	18.905	78.497	0.504
574.000	362.349	80.010	19.994	103.579	18.910	78.184	0.502
574.500	362.567	80.008	19.995	103.570	18.921	77.427	0.506
575.000	362.811	80.010	19.995	103.560	18.928	76.953	0.479
575.500	363.090	80.011	19.995	103.548	18.940	76.206	0.493
576.000	363.347	80.008	19.995	103.539	18.950	75.490	0.530
576.500	363.581	80.012	19.995	103.530	18.961	74.810	0.513
577.000	363.853	80.011	19.994	103.523	18.976	73.826	0.498
577.500	364.109	80.011	19.994	103.512	18.992	72.718	0.517
578.000	364.351	80.011	19.995	103.502	18.999	72.257	0.513
578.500	364.603	80.012	19.994	103.496	19.017	71.111	0.496
579.000	364.858	80.012	19.994	103.489	19.028	70.387	0.501
579.500	365.090	80.013	19.994	103.480	19.047	69.122	0.497
580.000	365.376	80.011	19.993	103.473	19.059	68.334	0.502
580.500	365.608	80.012	19.995	103.467	19.074	67.300	0.518
581.000	365.897	80.012	19.994	103.461	19.088	66.380	0.520
581.500	366.137	80.012	19.995	103.454	19.106	65.223	0.525
582.000	366.358	80.011	19.995	103.445	19.123	64.099	0.495
582.500	366.649	80.011	19.994	103.440	19.144	62.689	0.486
583.000	366.895	80.012	19.994	103.437	19.158	61.824	0.525
583.500	367.138	80.011	19.995	103.429	19.171	60.919	0.513
584.000	367.373	80.012	19.995	103.423	19.189	59.715	0.484
584.500	367.649	80.011	19.994	103.418	19.208	58.488	0.495
585.000	367.918	80.012	19.995	103.413	19.226	57.297	0.528
585.500	368.154	80.011	19.994	103.405	19.244	56.127	0.525
586.000	368.403	80.010	19.993	103.401	19.258	55.210	0.495
586.500	368.676	80.008	19.994	103.398	19.277	53.940	0.504
587.000	368.911	80.010	19.994	103.396	19.296	52.730	0.515
587.500	369.212	80.010	19.994	103.389	19.310	51.797	0.522
588.000	369.472	80.011	19.994	103.388	19.324	50.846	0.548
588.500	369.691	80.011	19.994	103.383	19.341	49.730	0.520
589.000	369.938	80.009	19.994	103.376	19.357	48.675	0.473
589.500	370.198	80.011	19.994	103.369	19.378	47.289	0.487
590.000	370.468	80.008	19.993	103.368	19.391	46.475	0.519
590.500	370.707	80.008	19.994	103.362	19.411	45.147	0.520
591.000	370.969	80.008	19.993	103.359	19.429	43.944	0.505
591.500	371.218	80.009	19.995	103.359	19.445	42.899	0.506
592.000	371.465	80.007	19.994	103.358	19.464	41.672	0.504
592.500	371.760	80.009	19.994	103.358	19.478	40.696	0.519
593.000	371.986	80.010	19.994	103.356	19.494	39.645	0.531
593.500	372.235	80.008	19.994	103.349	19.509	38.708	0.497
594.000	372.485	80.009	19.994	103.342	19.522	37.815	0.487
594.500	372.738	80.010	19.994	103.337	19.541	36.593	0.502
595.000	373.038	80.010	19.994	103.330	19.554	35.686	0.528
595.500	373.241	80.008	19.993	103.327	19.565	34.970	0.527
596.000	373.491	80.011	19.994	103.329	19.579	34.066	0.478
596.500	373.757	80.009	19.995	103.329	19.594	33.073	0.485
597.000	374.006	80.008	19.993	103.327	19.607	32.224	0.516
597.500	374.280	80.006	19.994	103.327	19.621	31.343	0.519
598.000	374.503	80.008	19.994	103.326	19.630	30.699	0.509
598.500	374.750	80.008	19.994	103.324	19.643	29.866	0.483
599.000	374.995	80.008	19.994	103.324	19.656	29.023	0.482
599.500	375.253	80.009	19.994	103.324	19.664	28.461	0.498
600.000	375.491	80.009	19.994	103.324	19.677	27.614	0.499
600.500	375.731	80.008	19.995	103.324	19.687	26.987	0.487
601.000	376.024	80.007	19.994	103.321	19.698	26.279	0.506
601.500	376.251	80.007	19.994	103.320	19.706	25.707	0.526
602.000	376.489	80.007	19.994	103.320	19.713	25.244	0.492
602.500	376.725	80.010	19.995	103.317	19.726	24.433	0.470
603.000	376.974	80.009	19.994	103.312	19.735	23.815	0.479
603.500	377.247	80.009	19.995	103.310	19.744	23.236	0.503
604.000	377.530	80.009	19.994	103.305	19.752	22.693	0.539
604.500	377.765	80.010	19.995	103.297	19.758	22.303	0.537
605.000	378.024	80.010	19.994	103.293	19.770	21.526	0.506
605.500	378.328	80.009	19.995	103.292	19.775	21.155	0.529
606.000	378.526	80.007	19.995	103.292	19.783	20.684	0.532
606.500	378.771	80.008	19.995	103.297	19.790	20.171	0.472
607.000	379.051	80.005	19.996	103.300	19.796	19.798	0.484
607.500	379.285	80.009	19.995	103.307	19.804	19.301	0.520
608.000	379.554	80.009	19.995	103.306	19.810	18.909	0.509
608.500	379.794	80.009	19.995	103.305	19.816	18.467	0.506
609.000	380.058	80.008	19.995	103.303	19.825	17.917	0.506
609.500	380.294	80.008	19.994	103.301	19.827	17.766	0.502
610.000	380.558	80.007	19.995	103.295	19.835	17.221	0.500
610.500	380.799	80.010	19.995	103.296	19.840	16.911	0.502
611.000	381.020	80.009	19.995	103.300	19.844	16.613	0.483
611.500	381.275	80.009	19.995	103.298	19.848	16.395	0.469
612.000	381.532	80.009	19.995	103.298	19.851	16.163	0.494
612.500	381.771	80.009	19.996	103.296	19.855	15.940	0.504
613.000	381.999	80.009	19.996	103.294	19.861	15.503	0.482
613.500	382.273	80.008	19.995	103.290	19.866	15.164	0.485
614.000	382.538	80.008	19.995	103.287	19.868	15.082	0.520
614.500	382.769	80.009	19.995	103.284	19.869	14.972	0.517
615.000	383.015	80.007	19.995	103.283	19.875	14.636	0.487
615.500	383.234	80.007	19.996	103.283	19.880	14.284	0.471
616.000	383.529	80.009	19.995	103.283	19.883	14.064	0.489
616.500	383.780	80.010	19.995	103.283	19.883	14.047	0.530
617.000	384.018	80.007	19.995	103.285	19.889	13.683	0.518
617.500	384.245	80.008	19.995	103.285	19.895	13.274	0.477
618.000	384.551	80.006	19.995	103.285	19.893	13.438	0.498
618.500	384.763	80.010	19.995	103.285	19.899	13.012	0.525
619.000	385.017	80.007	19.994	103.283	19.901	12.909	0.492
619.500	385.268	80.007	19.994	103.281	19.903	12.784	0.486
620.000	385.529	80.007	19.994	103.281	19.905	12.635	0.508
620.500	385.771	80.009	19.995	103.282	19.907	12.467	0.508
621.000	386.011	80.006	19.994	103.280	19.908	12.408	0.493
621.500	386.257	80.010	19.994	103.282	19.910	12.291	0.484
622.000	386.442	80.007	19.994	103.284	19.908	12.428	0.459
622.500	386.733	80.006	19.994	103.286	19.911	12.250	0.454
623.000	387.020	80.008	19.994	103.285	19.915	11.986	0.527
623.500	387.234	80.007	19.994	103.287	19.915	11.986	0.540
624.000	387.504	80.006	19.995	103.286	19.920	11.658	0.493
624.500	387.741	80.009	19.994	103.285	19.919	11.695	0.495
625.000	388.003	80.007	19.995	103.280	19.923	11.479	0.502
625.500	388.263	80.009	19.994	103.280	19.923	11.464	0.510
626.000	388.512	80.008	19.995	103.277	19.921	11.553	0.516
626.500	388.753	80.007	19.994	103.273	19.928	11.125	0.499
627.000	389.021	80.008	19.994	103.274	19.924	11.388	0.500
627.500	389.270	80.009	19.995	103.277	19.929	11.084	0.513
628.000	389.504	80.008	19.995	103.278	19.931	10.892	0.500
628.500	389.751	80.008	19.994	103.280	19.932	10.860	0.482
629.000	390.004	80.007	19.995	103.284	19.933	10.761	0.491
629.500	390.212	80.009	19.996	103.284	19.935	10.666	0.480
630.000	390.514	80.008	19.995	103.283	19.934	10.691	0.485
630.500	390.736	80.008	19.996	103.282	19.937	10.552	0.517
631.000	390.987	80.008	19.995	103.281	19.936	10.570	0.498
631.500	391.230	80.008	19.996	103.281	19.937	10.499	0.484
632.000	391.488	80.009	19.994	103.281	19.937	10.551	0.498
632.500	391.750	80.007	19.995	103.281	19.935	10.691	0.510
633.000	391.993	80.009	19.995	103.281	19.936	10.570	0.513
633.500	392.237	80.010	19.995	103.282	19.938	10.441	0.496
634.000	392.522	80.009	19.994	103.282	19.940	10.304	0.508
634.500	392.768	80.009	19.995	103.282	19.945	9.992	0.530
635.000	393.001	80.009	19.996	103.282	19.941	10.240	0.504
635.500	393.253	80.009	19.996	103.282	19.943	10.155	0.482
636.000	393.514	80.009	19.995	103.282	19.943	10.144	0.499
636.500	393.764	80.009	19.996	103.282	19.941	10.247	0.512
637.000	393.999	80.011	19.995	103.281	19.945	10.025	0.498
637.500	394.274	80.010	19.994	103.281	19.946	9.921	0.498
638.000	394.541	80.010	19.996	103.281	19.946	9.944	0.526
638.500	394.802	80.010	19.996	103.276	19.949	9.706	0.535
639.000	395.041	80.009	19.996	103.271	19.949	9.766	0.514
639.500	395.301	80.009	19.996	103.270	19.947	9.887	0.499
640.000	395.582	80.009	19.994	103.269	19.948	9.833	0.520
640.500	395.822	80.011	19.997	103.264	19.948	9.780	0.531
641.000	396.100	80.010	19.994	103.268	19.949	9.730	0.520
641.500	396.351	80.010	19.996	103.274	19.949	9.766	0.524
642.000	396.604	80.010	19.996	103.276	19.949	9.706	0.517
642.500	396.892	80.007	19.995	103.278	19.949	9.720	0.523
643.000	397.121	80.011	19.996	103.282	19.949	9.763	0.529
643.500	397.374	80.009	19.996	103.282	19.952	9.557	0.499
644.000	397.646	80.011	19.994	103.281	19.954	9.385	0.504
644.500	397.893	80.008	19.996	103.281	19.950	9.676	0.522
645.000	398.120	80.008	19.996	103.280	19.953	9.495	0.496
645.500	398.374	80.008	19.996	103.280	19.950	9.651	0.477
646.000	398.638	80.008	19.995	103.278	19.953	9.468	0.500
646.500	398.897	80.009	19.994	103.277	19.956	9.264	0.520
647.000	399.159	80.008	19.995	103.277	19.951	9.582	0.522
647.500	399.425	80.009	19.996	103.278	19.954	9.376	0.525
648.000	399.714	80.009	19.995	103.279	19.950	9.662	0.541
648.500	399.917	80.010	19.996	103.281	19.955	9.335	0.523
649.000	400.196	80.009	19.995	103.281	19.954	9.403	0.487
649.500	400.422	80.010	19.995	103.280	19.955	9.337	0.494
650.000	400.726	80.009	19.995	103.279	19.956	9.289	0.518
650.500	400.949	80.009	19.994	103.276	19.957	9.243	0.529
651.000	401.235	80.009	19.995	103.276	19.959	9.056	0.518
651.500	401.474	80.010	19.994	103.273	19.956	9.281	0.517
652.000	401.702	80.010	19.994	103.273	19.957	9.194	0.496
652.500	401.995	80.009	19.994	103.273	19.959	9.109	0.494
653.000	402.254	80.010	19.994	103.275	19.957	9.195	0.536
653.500	402.475	80.010	19.995	103.275	19.956	9.246	0.516
654.000	402.755	80.011	19.993	103.276	19.958	9.158	0.491
654.500	403.005	80.009	19.995	103.277	19.956	9.307	0.516
655.000	403.278	80.011	19.995	103.277	19.956	9.273	0.527
655.500	403.535	80.011	19.993	103.279	19.957	9.222	0.526
656.000	403.796	80.010	19.994	103.279	19.960	9.034	0.524
656.500	404.091	80.010	19.993	103.280	19.958	9.174	0.537
657.000	404.313	80.011	19.994	103.277	19.960	9.012	0.537
657.500	404.571	80.010	19.994	103.277	19.961	8.936	0.498
658.000	404.802	80.011	19.995	103.276	19.958	9.145	0.484
658.500	405.084	80.011	19.995	103.277	19.960	9.028	0.501
659.000	405.364	80.011	19.994	103.278	19.961	8.964	0.537
659.500	405.554	80.010	19.995	103.280	19.959	9.086	0.516
660.000	405.818	80.012	19.994	103.281	19.960	9.025	0.462
660.500	406.100	80.014	19.995	103.280	19.960	8.997	0.500
661.000	406.341	80.011	19.993	103.278	19.960	9.026	0.535
661.500	406.571	80.009	19.995	103.276	19.960	9.030	0.497
662.000	406.833	80.010	19.994	103.273	19.964	8.760	0.481
662.500	407.151	80.010	19.994	103.271	19.958	9.133	0.536
663.000	407.387	80.010	19.993	103.271	19.962	8.915	0.567
663.500	407.635	80.011	19.994	103.273	19.960	8.991	0.519
664.000	407.911	80.011	19.994	103.277	19.964	8.741	0.504
664.500	408.163	80.012	19.994	103.278	19.962	8.882	0.526
665.000	408.383	80.011	19.993	103.281	19.960	8.994	0.501
665.500	408.683	80.012	19.994	103.280	19.958	9.136	0.496
666.000	408.924	80.011	19.994	103.280	19.963	8.838	0.530
666.500	409.182	80.011	19.995	103.280	19.963	8.821	0.520
667.000	409.439	80.009	19.994	103.282	19.962	8.867	0.507
667.500	409.726	80.011	19.995	103.283	19.965	8.702	0.530
668.000	409.928	80.011	19.995	103.280	19.968	8.469	0.517
668.500	410.194	80.010	19.994	103.279	19.964	8.761	0.478
669.000	410.439	80.010	19.994	103.274	19.965	8.701	0.490
669.500	410.722	80.009	19.994	103.270	19.961	8.947	0.519
670.000	410.965	80.009	19.995	103.268	19.965	8.685	0.527
670.500	411.262	80.010	19.994	103.265	19.965	8.687	0.533
671.000	411.495	80.010	19.994	103.263	19.963	8.787	0.535
671.500	411.747	80.010	19.994	103.267	19.965	8.699	0.507
672.000	412.035	80.008	19.994	103.270	19.969	8.407	0.512
672.500	412.292	80.007	19.994	103.273	19.967	8.549	0.543
673.000	412.504	80.010	19.994	103.279	19.966	8.647	0.507
673.500	412.773	80.008	19.994	103.281	19.963	8.844	0.475
674.000	413.012	80.008	19.994	103.281	19.967	8.574	0.494
674.500	413.264	80.008	19.994	103.279	19.969	8.448	0.499
675.000	413.524	80.008	19.995	103.275	19.968	8.458	0.502
675.500	413.797	80.009	19.993	103.273	19.969	8.443	0.523
676.000	414.019	80.009	19.994	103.270	19.968	8.489	0.514
676.500	414.231	80.008	19.994	103.269	19.971	8.314	0.464
677.000	414.520	80.008	19.994	103.272	19.969	8.433	0.467
677.500	414.759	80.010	19.995	103.276	19.971	8.303	0.515
678.000	415.020	80.009	19.995	103.279	19.969	8.424	0.514
678.500	415.265	80.009	19.994	103.277	19.971	8.296	0.503
679.000	415.518	80.008	19.993	103.274	19.969	8.424	0.502
679.500	415.780	80.007	19.993	103.267	19.974	8.103	0.507
680.000	416.038	80.008	19.993	103.263	19.970	8.342	0.518
680.500	416.305	80.009	19.995	103.260	19.969	8.449	0.522
681.000	416.539	80.008	19.994	103.266	19.975	8.040	0.513
681.500	416.834	80.008	19.994	103.272	19.968	8.471	0.515
682.000	417.094	80.008	19.994	103.279	19.971	8.263	0.542
682.500	417.307	80.008	19.994	103.282	19.973	8.167	0.514
683.000	417.605	80.009	19.994	103.280	19.969	8.448	0.492
683.500	417.834	80.007	19.994	103.278	19.969	8.427	0.519
684.000	418.123	80.008	19.993	103.278	19.973	8.154	0.523
684.500	418.373	80.008	19.994	103.276	19.978	7.858	0.529
685.000	418.604	80.007	19.994	103.273	19.972	8.209	0.510
685.500	418.844	80.009	19.994	103.273	19.971	8.262	0.475
686.000	419.150	80.007	19.994	103.269	19.977	7.916	0.508
686.500	419.402	80.009	19.994	103.264	19.972	8.203	0.552
687.000	419.606	80.008	19.994	103.262	19.973	8.139	0.507
687.500	419.859	80.008	19.993	103.264	19.976	7.939	0.457
688.000	420.137	80.008	19.992	103.265	19.974	8.060	0.495
688.500	420.422	80.009	19.994	103.266	19.975	8.031	0.547
689.000	420.660	80.009	19.993	103.265	19.975	8.033	0.543
689.500	420.929	80.008	19.994	103.263	19.974	8.102	0.515
690.000	421.187	80.010	19.994	103.263	19.972	8.211	0.517
690.500	421.471	80.009	19.995	103.265	19.975	7.998	0.534
691.000	421.690	80.009	19.994	103.265	19.975	8.050	0.523
691.500	421.938	80.008	19.994	103.267	19.979	7.734	0.485
692.000	422.177	80.010	19.994	103.271	19.975	7.998	0.477
692.500	422.407	80.010	19.995	103.270	19.972	8.253	0.478
693.000	422.679	80.008	19.994	103.268	19.977	7.870	0.486
693.500	422.982	80.010	19.995	103.266	19.979	7.733	0.539
694.000	423.197	80.009	19.994	103.261	19.975	8.028	0.546
694.500	423.465	80.009	19.993	103.257	19.979	7.764	0.501
695.000	423.673	80.010	19.995	103.258	19.978	7.855	0.479
695.500	423.909	80.008	19.993	103.259	19.978	7.838	0.460
696.000	424.174	80.009	19.995	103.263	19.975	8.047	0.472
696.500	424.457	80.009	19.994	103.263	19.977	7.922	0.524
697.000	424.705	80.009	19.995	103.260	19.978	7.854	0.540
697.500	424.954	80.010	19.993	103.258	19.979	7.749	0.514
698.000	425.219	80.009	19.995	103.254	19.979	7.785	0.505
698.500	425.488	80.009	19.995	103.253	19.978	7.856	0.524
699.000	425.714	80.008	19.995	103.257	19.981	7.650	0.515
699.500	426.019	80.009	19.994	103.257	19.978	7.814	0.513
700.000	426.223	80.009	19.994	103.257	19.982	7.546	0.520
700.500	426.474	80.007	19.994	103.258	19.982	7.562	0.482
701.000	426.736	80.010	19.994	103.260	19.982	7.542	0.484
701.500	426.978	80.008	19.995	103.260	19.980	7.674	0.509
702.000	427.238	80.008	19.995	103.264	19.980	7.713	0.503
702.500	427.503	80.010	19.994	103.263	19.984	7.457	0.513
703.000	427.730	80.008	19.995	103.264	19.983	7.498	0.509
703.500	427.990	80.007	19.995	103.260	19.986	7.296	0.489
704.000	428.245	80.008	19.994	103.257	19.988	7.156	0.500
704.500	428.496	80.008	19.994	103.257	19.983	7.511	0.511
705.001	428.735	80.008	19.994	103.263	19.984	7.440	0.499
705.501	428.974	80.009	19.995	103.266	19.984	7.458	0.484
706.000	429.245	80.008	19.995	103.272	19.988	7.199	0.494
706.500	429.508	80.009	19.994	103.275	19.984	7.439	0.522
707.000	429.745	80.008	19.995	103.275	19.987	7.233	0.517
707.500	430.006	80.009	19.996	103.268	19.988	7.172	0.499
708.000	430.248	80.008	19.996	103.263	19.989	7.124	0.500
708.500	430.491	80.008	19.995	103.257	19.987	7.230	0.494
709.000	430.760	80.009	19.995	103.255	19.986	7.329	0.498
709.500	431.029	80.009	19.995	103.255	19.988	7.162	0.525
710.000	431.246	80.008	19.995	103.258	19.985	7.382	0.512
710.500	431.522	80.008	19.994	103.261	19.991	6.944	0.490
711.000	431.755	80.008	19.995	103.265	19.992	6.907	0.501
711.500	432.006	80.009	19.995	103.264	19.991	6.977	0.496
712.000	432.215	80.009	19.996	103.266	19.993	6.837	0.472
712.500	432.521	80.008	19.994	103.264	19.993	6.842	0.487
713.000	432.781	80.010	19.994	103.266	19.995	6.705	0.540
713.500	433.032	80.009	19.994	103.264	19.990	7.012	0.539
714.000	433.266	80.009	19.995	103.263	19.989	7.103	0.498
714.500	433.547	80.010	19.995	103.266	19.987	7.208	0.500
715.000	433.782	80.011	19.996	103.270	19.993	6.810	0.515
715.500	434.029	80.010	19.995	103.269	19.992	6.896	0.499
716.000	434.327	80.009	19.994	103.273	19.992	6.876	0.514
716.500	434.549	80.010	19.995	103.279	19.994	6.798	0.533
717.000	434.821	80.009	19.994	103.279	19.994	6.756	0.507
717.500	435.082	80.012	19.997	103.277	19.992	6.889	0.514
718.000	435.309	80.011	19.997	103.273	19.992	6.908	0.510
718.500	435.588	80.008	19.995	103.269	19.993	6.823	0.497
719.000	435.830	80.010	19.996	103.267	19.993	6.837	0.514
719.500	436.062	80.011	19.995	103.264	19.992	6.904	0.497
720.000	436.347	80.010	19.996	103.258	19.996	6.652	0.495
720.500	436.593	80.011	19.994	103.259	19.998	6.500	0.524
721.000	436.877	80.011	19.995	103.256	19.993	6.821	0.531
721.500	437.143	80.011	19.997	103.258	19.997	6.578	0.540
722.000	437.412	80.010	19.995	103.260	19.996	6.656	0.543
722.500	437.630	80.011	19.994	103.268	19.995	6.699	0.511
723.000	437.876	80.012	19.994	103.271	19.992	6.901	0.476
723.500	438.114	80.011	19.994	103.271	19.995	6.687	0.474
724.000	438.390	80.010	19.994	103.265	19.996	6.634	0.499
724.500	438.625	80.011	19.995	103.258	19.995	6.693	0.512
725.000	438.886	80.009	19.995	103.251	19.998	6.499	0.503
725.500	439.134	80.011	19.995	103.246	19.995	6.730	0.503
726.000	439.411	80.010	19.994	103.246	19.997	6.598	0.518
726.500	439.658	80.010	19.995	103.250	19.995	6.733	0.524
727.000	439.902	80.011	19.995	103.253	19.999	6.426	0.507
727.500	440.122	80.009	19.996	103.254	19.997	6.605	0.478
728.000	440.383	80.008	19.995	103.254	19.999	6.432	0.472
728.500	440.667	80.009	19.994	103.254	19.999	6.466	0.513
729.000	440.914	80.010	19.995	103.250	19.996	6.628	0.538
729.500	441.150	80.009	19.995	103.246	19.997	6.599	0.507
730.000	441.385	80.009	19.995	103.245	19.998	6.539	0.477
730.500	441.701	80.007	19.996	103.245	20.002	6.241	0.511
731.000	441.920	80.009	19.995	103.246	20.001	6.305	0.543
731.500	442.120	80.008	19.996	103.249	19.997	6.559	0.477
732.000	442.390	80.010	19.995	103.251	20.001	6.335	0.444
732.500	442.634	80.009	19.996	103.251	19.999	6.456	0.492
733.000	442.895	80.009	19.996	103.252	20.003	6.172	0.510
733.500	443.147	80.009	19.996	103.252	20.003	6.209	0.509
734.000	443.395	80.009	19.995	103.252	20.004	6.140	0.507
734.500	443.626	80.009	19.995	103.256	20.002	6.251	0.490
735.000	443.912	80.008	19.995	103.260	20.005	6.052	0.498
735.500	444.154	80.009	19.995	103.262	20.001	6.297	0.522
736.000	444.379	80.010	19.996	103.262	20.004	6.114	0.498
736.500	444.636	80.009	19.995	103.261	20.002	6.261	0.474
737.000	444.899	80.009	19.995	103.256	20.005	6.021	0.501
737.500	445.095	80.010	19.995	103.251	20.005	6.042	0.490
738.000	445.376	80.009	19.995	103.248	20.006	5.980	0.469
738.500	445.604	80.010	19.995	103.246	20.004	6.117	0.493
739.000	445.818	80.010	19.995	103.245	20.010	5.693	0.475
739.500	446.087	80.008	19.995	103.245	20.007	5.938	0.462
740.000	446.334	80.008	19.995	103.246	20.008	5.843	0.499
740.500	446.595	80.009	19.995	103.246	20.003	6.185	0.512
741.000	446.811	80.010	19.995	103.246	20.005	6.068	0.493
741.500	447.092	80.008	19.995	103.247	20.006	6.020	0.487
742.000	447.336	80.011	19.995	103.246	20.008	5.843	0.510
742.500	447.582	80.010	19.995	103.247	20.011	5.642	0.507
743.000	447.807	80.010	19.995	103.249	20.007	5.931	0.480
743.500	448.061	80.010	19.995	103.250	20.010	5.742	0.475
744.000	448.313	80.010	19.993	103.251	20.005	6.029	0.493
744.500	448.572	80.010	19.995	103.251	20.004	6.114	0.508
745.000	448.825	80.011	19.995	103.253	20.007	5.913	0.512
745.500	449.053	80.011	19.994	103.257	20.009	5.809	0.497
746.000	449.295	80.010	19.994	103.260	20.009	5.795	0.476
746.500	449.560	80.012	19.993	103.259	20.011	5.678	0.488
747.000	449.822	80.011	19.994	103.259	20.009	5.782	0.517
747.500	450.086	80.010	19.993	103.257	20.013	5.532	0.526
748.000	450.306	80.012	19.993	103.251	20.012	5.594	0.505
748.500	450.536	80.010	19.993	103.247	20.008	5.824	0.467
749.000	450.794	80.009	19.993	103.248	20.009	5.783	0.469
749.500	451.045	80.010	19.994	103.249	20.011	5.677	0.499
750.000	451.307	80.011	19.994	103.251	20.011	5.665	0.511
750.500	451.562	80.010	19.995	103.255	20.010	5.715	0.515
751.000	451.810	80.011	19.994	103.257	20.013	5.556	0.510
751.500	452.037	80.012	19.994	103.257	20.013	5.501	0.489
752.000	452.312	80.011	19.993	103.257	20.014	5.473	0.489
752.500	452.544	80.010	19.993	103.257	20.009	5.767	0.504
753.000	452.769	80.010	19.995	103.256	20.014	5.472	0.482
753.500	453.028	80.009	19.994	103.256	20.014	5.468	0.471
754.000	453.286	80.012	19.994	103.258	20.014	5.452	0.501
754.500	453.565	80.009	19.994	103.257	20.013	5.509	0.527
755.000	453.792	80.009	19.994	103.257	20.011	5.674	0.522
755.500	454.068	80.010	19.995	103.256	20.014	5.489	0.505
756.000	454.318	80.008	19.993	103.255	20.012	5.577	0.514
756.500	454.556	80.009	19.995	103.253	20.015	5.405	0.507
757.000	454.802	80.009	19.994	103.257	20.014	5.451	0.486
757.500	455.075	80.009	19.995	103.258	20.012	5.623	0.502
758.000	455.351	80.009	19.994	103.255	20.016	5.332	0.534
758.500	455.579	80.007	19.994	103.254	20.017	5.233	0.527
759.000	455.831	80.007	19.994	103.253	20.013	5.539	0.492
759.500	456.070	80.009	19.994	103.248	20.012	5.580	0.485
760.000	456.375	80.008	19.994	103.245	20.011	5.633	0.517
760.500	456.593	80.008	19.994	103.247	20.015	5.372	0.534
761.000	456.821	80.010	19.995	103.252	20.015	5.422	0.485
761.500	457.091	80.009	19.995	103.260	20.020	5.041	0.472
762.000	457.339	80.008	19.995	103.267	20.016	5.317	0.508
762.500	457.614	80.006	19.994	103.270	20.016	5.335	0.521
763.000	457.858	80.008	19.995	103.269	20.020	5.085	0.521
763.500	458.071	80.009	19.994	103.264	20.015	5.372	0.488
764.000	458.373	80.008	19.995	103.257	20.018	5.180	0.486
764.500	458.645	80.008	19.995	103.249	20.018	5.211	0.544
765.000	458.857	80.007	19.994	103.250	20.016	5.360	0.529
765.500	459.105	80.010	19.994	103.250	20.016	5.338	0.472
766.000	459.385	80.008	19.996	103.251	20.018	5.207	0.494
766.500	459.650	80.009	19.995	103.254	20.019	5.117	0.537
767.000	459.899	80.007	19.995	103.260	20.019	5.128	0.529
767.500	460.125	80.007	19.995	103.265	20.018	5.218	0.495
768.000	460.399	80.008	19.995	103.266	20.017	5.284	0.487
768.500	460.673	80.008	19.995	103.268	20.018	5.193	0.524
769.000	460.945	80.008	19.994	103.267	20.020	5.069	0.547
769.500	461.170	80.008	19.994	103.263	20.021	5.004	0.521
770.000	461.414	80.009	19.995	103.256	20.017	5.284	0.483
770.500	461.657	80.008	19.996	103.253	20.020	5.040	0.478
771.000	461.928	80.008	19.995	103.255	20.019	5.126	0.501
771.500	462.149	80.010	19.994	103.255	20.024	4.776	0.503
772.000	462.428	80.009	19.995	103.253	20.026	4.677	0.496
772.500	462.725	80.010	19.995	103.254	20.022	4.924	0.538
773.000	462.942	80.009	19.994	103.253	20.021	4.997	0.545
773.500	463.229	80.007	19.995	103.248	20.022	4.931	0.510
774.000	463.439	80.008	19.994	103.246	20.020	5.071	0.501
774.500	463.714	80.010	19.995	103.246	20.021	5.000	0.491
775.000	463.956	80.009	19.994	103.245	20.019	5.105	0.501
775.500	464.193	80.011	19.994	103.246	20.020	5.078	0.498
776.000	464.453	80.009	19.994	103.247	20.020	5.085	0.487
776.500	464.724	80.009	19.996	103.247	20.022	4.946	0.514
777.000	464.948	80.009	19.996	103.250	20.018	5.172	0.513
777.500	465.204	80.010	19.995	103.251	20.023	4.883	0.488
778.000	465.448	80.010	19.994	103.254	20.021	5.005	0.490
778.500	465.730	80.010	19.996	103.258	20.024	4.824	0.513
779.000	465.958	80.008	19.995	103.262	20.022	4.926	0.518
779.500	466.213	80.009	19.995	103.258	20.024	4.833	0.497
780.000	466.497	80.009	19.994	103.259	20.022	4.938	0.511
780.500	466.741	80.009	19.995	103.256	20.022	4.934	0.534
781.000	466.989	80.009	19.994	103.251	20.020	5.046	0.510
781.500	467.247	80.010	19.993	103.246	20.018	5.186	0.499
782.000	467.527	80.009	19.994	103.247	20.023	4.851	0.522
782.500	467.797	80.009	19.995	103.250	20.022	4.929	0.544
783.000	468.035	80.009	19.994	103.251	20.024	4.801	0.529
783.500	468.260	80.009	19.995	103.252	20.025	4.736	0.486
784.000	468.545	80.010	19.994	103.258	20.024	4.799	0.487
784.500	468.799	80.010	19.995	103.263	20.028	4.567	0.524
785.000	469.053	80.009	19.995	103.262	20.027	4.618	0.523
785.500	469.350	80.009	19.995	103.263	20.022	4.907	0.530
786.000	469.570	80.010	19.996	103.263	20.024	4.815	0.534
786.500	469.831	80.010	19.994	103.257	20.025	4.746	0.499
787.000	470.061	80.009	19.995	103.250	20.025	4.707	0.486
787.500	470.340	80.009	19.995	103.248	20.023	4.849	0.500
788.000	470.577	80.008	19.993	103.246	20.024	4.823	0.512
788.500	470.823	80.009	19.994	103.246	20.026	4.697	0.500
789.000	471.048	80.009	19.994	103.250	20.024	4.777	0.477
789.500	471.343	80.009	19.994	103.255	20.026	4.654	0.496
790.000	471.545	80.009	19.995	103.258	20.025	4.705	0.509
790.500	471.785	80.008	19.995	103.260	20.025	4.721	0.469
791.000	472.091	80.008	19.994	103.258	20.027	4.618	0.494
791.500	472.329	80.009	19.995	103.254	20.028	4.565	0.545
792.000	472.614	80.007	19.995	103.251	20.025	4.760	0.534
792.500	472.894	80.007	19.994	103.251	20.029	4.468	0.544
793.000	473.111	80.009	19.995	103.253	20.026	4.665	0.530
793.500	473.391	80.008	19.995	103.255	20.026	4.653	0.497
794.000	473.640	80.007	19.994	103.256	20.030	4.420	0.513
794.500	473.903	80.008	19.995	103.256	20.028	4.529	0.521
795.000	474.135	80.009	19.995	103.252	20.031	4.367	0.504
795.500	474.412	80.008	19.994	103.249	20.032	4.303	0.502
796.000	474.701	80.009	19.995	103.248	20.029	4.491	0.538
796.500	474.950	80.009	19.996	103.247	20.029	4.473	0.552
797.000	475.220	80.009	19.995	103.247	20.029	4.452	0.528
797.500	475.469	80.009	19.994	103.250	20.026	4.690	0.519
798.000	475.712	80.008	19.995	103.252	20.026	4.682	0.505
798.500	475.972	80.010	19.996	103.257	20.031	4.338	0.498
799.000	476.220	80.009	19.996	103.259	20.024	4.787	0.506
799.500	476.492	80.008	19.995	103.260	20.028	4.517	0.514
800.000	476.741	80.010	19.994	103.258	20.028	4.544	0.520
800.500	476.968	80.008	19.994	103.256	20.025	4.734	0.498
801.000	477.253	80.010	19.996	103.251	20.029	4.483	0.494
801.500	477.521	80.010	19.995	103.248	20.034	4.173	0.533
802.000	477.793	80.009	19.995	103.249	20.031	4.374	0.546
802.500	478.023	80.010	19.995	103.250	20.028	4.524	0.521
803.000	478.280	80.011	19.995	103.253	20.029	4.448	0.495
803.500	478.527	80.010	19.995	103.253	20.027	4.634	0.496
804.000	478.792	80.008	19.996	103.257	20.029	4.452	0.508
804.500	479.047	80.012	19.995	103.261	20.029	4.450	0.516
805.000	479.327	80.012	19.995	103.265	20.028	4.521	0.527
805.500	479.573	80.008	19.995	103.264	20.031	4.367	0.530
806.000	479.831	80.012	19.994	103.267	20.028	4.554	0.515
806.500	480.065	80.010	19.995	103.267	20.032	4.272	0.498
807.000	480.345	80.009	19.995	103.264	20.029	4.450	0.503
807.500	480.619	80.011	19.994	103.259	20.031	4.358	0.534
808.000	480.880	80.012	19.994	103.256	20.029	4.503	0.545
808.500	481.132	80.009	19.994	103.254	20.028	4.508	0.524
809.000	481.387	80.010	19.994	103.251	20.029	4.505	0.510
809.500	481.673	80.010	19.994	103.246	20.023	4.851	0.524
810.000	481.927	80.011	19.995	103.247	20.028	4.544	0.541
810.500	482.152	80.008	19.995	103.247	20.029	4.478	0.510
811.000	482.449	80.011	19.994	103.247	20.028	4.556	0.501
811.500	482.690	80.009	19.994	103.247	20.028	4.508	0.530
812.000	482.914	80.009	19.994	103.247	20.024	4.819	0.501
812.500	483.208	80.008	19.994	103.247	20.028	4.531	0.491
813.000	483.471	80.010	19.994	103.248	20.029	4.459	0.537
813.500	483.707	80.009	19.994	103.247	20.029	4.499	0.528
814.000	483.987	80.009	19.995	103.248	20.031	4.343	0.508
814.500	484.237	80.010	19.994	103.250	20.026	4.694	0.523
815.000	484.483	80.010	19.995	103.250	20.028	4.538	0.513
815.500	484.786	80.009	19.995	103.251	20.029	4.453	0.522
816.000	485.032	80.010	19.995	103.251	20.030	4.428	0.549
816.500	485.279	80.010	19.995	103.250	20.028	4.568	0.521
817.000	485.545	80.008	19.994	103.249	20.034	4.157	0.504
817.500	485.773	80.009	19.993	103.248	20.031	4.356	0.504
818.000	486.048	80.010	19.996	103.248	20.027	4.579	0.498
818.500	486.311	80.010	19.994	103.248	20.030	4.396	0.521
819.000	486.544	80.011	19.995	103.248	20.025	4.758	0.517
819.500	486.807	80.010	19.995	103.247	20.032	4.279	0.496
820.000	487.058	80.009	19.995	103.247	20.029	4.453	0.505
820.500	487.305	80.009	19.995	103.247	20.031	4.359	0.506
821.000	487.594	80.011	19.995	103.246	20.032	4.295	0.517
821.500	487.833	80.009	19.996	103.245	20.031	4.350	0.532
822.000	488.083	80.009	19.995	103.246	20.031	4.322	0.509
822.500	488.329	80.010	19.996	103.247	20.029	4.473	0.493
823.000	488.593	80.011	19.995	103.247	20.029	4.473	0.503
823.500	488.853	80.009	19.995	103.247	20.030	4.396	0.517
824.000	489.101	80.009	19.996	103.247	20.028	4.559	0.516
824.500	489.342	80.010	19.997	103.245	20.030	4.380	0.498
825.000	489.591	80.010	19.996	103.243	20.036	4.003	0.489
825.500	489.870	80.010	19.995	103.243	20.034	4.118	0.509
826.000	490.108	80.009	19.997	103.243	20.031	4.375	0.522
826.500	490.379	80.012	19.996	103.242	20.029	4.457	0.513
827.000	490.633	80.010	19.995	103.243	20.035	4.082	0.517
827.500	490.894	80.011	19.996	103.242	20.032	4.281	0.520
828.000	491.121	80.010	19.995	103.243	20.036	4.036	0.502
828.500	491.382	80.011	19.995	103.242	20.035	4.098	0.488
829.000	491.620	80.011	19.994	103.242	20.034	4.153	0.493
829.500	491.881	80.011	19.997	103.241	20.036	4.038	0.499
830.000	492.149	80.011	19.995	103.241	20.030	4.382	0.514
830.500	492.382	80.011	19.996	103.239	20.031	4.322	0.515
831.000	492.638	80.010	19.996	103.239	20.034	4.129	0.495
831.500	492.877	80.011	19.995	103.240	20.032	4.297	0.492
832.000	493.165	80.011	19.996	103.240	20.030	4.412	0.511
832.500	493.365	80.009	19.995	103.241	20.030	4.386	0.507
833.000	493.649	80.011	19.996	103.241	20.030	4.432	0.486
833.500	493.887	80.011	19.995	103.241	20.033	4.200	0.503
834.000	494.150	80.011	19.995	103.240	20.036	4.012	0.512
834.500	494.407	80.010	19.996	103.241	20.033	4.198	0.511
835.000	494.646	80.010	19.997	103.240	20.037	3.923	0.508
835.500	494.918	80.010	19.995	103.242	20.036	3.985	0.504
836.000	495.150	80.009	19.996	103.242	20.033	4.223	0.507
836.500	495.392	80.009	19.994	103.243	20.036	4.010	0.489
837.000	495.690	80.008	19.995	103.243	20.032	4.272	0.507
837.500	495.914	80.009	19.995	103.243	20.037	3.953	0.531
838.000	496.157	80.009	19.995	103.242	20.038	3.852	0.494
838.500	496.417	80.010	19.995	103.242	20.037	3.976	0.485
839.000	496.666	80.007	19.995	103.242	20.036	4.001	0.507
839.500	496.923	80.009	19.994	103.242	20.032	4.290	0.507
840.000	497.155	80.008	19.995	103.242	20.037	3.921	0.497
840.500	497.369	80.009	19.994	103.242	20.033	4.193	0.467
841.000	497.660	80.009	19.995	103.242	20.035	4.097	0.475
841.500	497.910	80.008	19.994	103.242	20.033	4.232	0.523
842.000	498.168	80.010	19.995	103.242	20.037	3.930	0.525
842.500	498.415	80.009	19.995	103.243	20.034	4.150	0.507
843.000	498.663	80.010	19.994	103.243	20.034	4.141	0.500
843.500	498.882	80.009	19.994	103.243	20.035	4.099	0.481
844.000	499.174	80.010	19.995	103.243	20.034	4.148	0.489
844.500	499.413	80.007	19.995	103.244	20.035	4.099	0.521
845.000	499.666	80.008	19.995	103.245	20.033	4.194	0.511
845.500	499.907	80.008	19.995	103.245	20.038	3.880	0.493
846.000	500.110	80.009	19.995	103.245	20.041	3.708	0.469
846.500	500.378	80.009	19.994	103.245	20.038	3.903	0.458
847.000	500.643	80.010	19.996	103.245	20.039	3.797	0.502
847.500	500.899	80.008	19.994	103.244	20.039	3.811	0.527
848.000	501.175	80.008	19.995	103.244	20.040	3.742	0.527
848.500	501.428	80.008	19.993	103.244	20.036	3.996	0.531
849.000	501.647	80.008	19.994	103.244	20.040	3.730	0.501
849.500	501.901	80.008	19.994	103.245	20.034	4.141	0.472
850.000	502.180	80.008	19.995	103.245	20.037	3.941	0.502
850.500	502.440	80.009	19.995	103.245	20.035	4.109	0.536
851.000	502.639	80.008	19.994	103.245	20.039	3.813	0.499
851.500	502.901	80.009	19.995	103.247	20.037	3.957	0.460
852.000	503.193	80.008	19.994	103.248	20.033	4.180	0.508
852.500	503.423	80.009	19.995	103.248	20.037	3.973	0.538
853.000	503.684	80.009	19.995	103.247	20.038	3.875	0.506
853.500	503.942	80.010	19.994	103.247	20.036	4.030	0.505
854.000	504.172	80.010	19.995	103.245	20.036	4.005	0.504
854.500	504.423	80.009	19.995	103.244	20.039	3.804	0.485
855.000	504.655	80.009	19.994	103.244	20.034	4.147	0.482
855.500	504.926	80.009	19.994	103.244	20.033	4.187	0.493
856.000	505.153	80.009	19.994	103.244	20.039	3.824	0.500
856.500	505.415	80.008	19.994	103.244	20.039	3.824	0.493
857.000	505.658	80.008	19.995	103.244	20.037	3.918	0.497
857.500	505.890	80.009	19.994	103.243	20.034	4.152	0.490
858.000	506.175	80.008	19.994	103.243	20.037	3.925	0.496
858.500	506.450	80.009	19.995	103.243	20.037	3.923	0.539
859.000	506.685	80.008	19.995	103.245	20.040	3.730	0.535
859.500	506.919	80.010	19.994	103.245	20.038	3.896	0.489
860.000	507.164	80.008	19.994	103.244	20.040	3.765	0.474
860.500	507.428	80.009	19.993	103.243	20.040	3.735	0.494
861.000	507.666	80.009	19.994	103.243	20.037	3.921	0.505
861.500	507.931	80.009	19.994	103.242	20.041	3.676	0.502
862.000	508.157	80.010	19.995	103.242	20.037	3.978	0.497
862.500	508.417	80.008	19.995	103.244	20.041	3.687	0.489
863.000	508.694	80.008	19.995	103.246	20.036	4.022	0.512
863.500	508.938	80.007	19.994	103.248	20.034	4.118	0.529
864.000	509.176	80.009	19.995	103.249	20.037	3.944	0.501
864.500	509.409	80.009	19.994	103.249	20.035	4.088	0.476
865.000	509.660	80.009	19.994	103.249	20.034	4.178	0.477
865.500	509.927	80.009	19.995	103.248	20.036	4.017	0.501
866.000	510.161	80.008	19.994	103.247	20.036	4.013	0.510
866.500	510.424	80.009	19.995	103.249	20.040	3.749	0.499
867.000	510.711	80.008	19.994	103.251	20.035	4.081	0.523
867.500	510.918	80.009	19.996	103.251	20.038	3.898	0.521
868.000	511.171	80.008	19.995	103.251	20.033	4.180	0.477
868.500	511.466	80.008	19.995	103.252	20.035	4.077	0.504
869.000	511.701	80.006	19.994	103.248	20.038	3.904	0.539
869.500	511.922	80.008	19.995	103.247	20.036	4.047	0.493
870.000	512.178	80.009	19.995	103.246	20.037	3.934	0.467
870.500	512.458	80.009	19.995	103.246	20.041	3.664	0.507
871.000	512.702	80.008	19.994	103.246	20.038	3.895	0.530
871.500	512.929	80.009	19.994	103.246	20.042	3.638	0.497
872.000	513.213	80.008	19.995	103.246	20.040	3.749	0.491
872.500	513.445	80.008	19.994	103.243	20.040	3.758	0.514
873.000	513.697	80.008	19.993	103.243	20.040	3.725	0.500
873.500	513.959	80.009	19.995	103.242	20.039	3.788	0.499
874.000	514.227	80.009	19.994	103.242	20.038	3.890	0.522
874.500	514.496	80.008	19.994	103.243	20.042	3.629	0.533
875.000	514.733	80.010	19.995	103.245	20.039	3.840	0.521
875.500	515.025	80.008	19.995	103.246	20.038	3.911	0.518
876.000	515.266	80.007	19.995	103.246	20.038	3.882	0.531
876.500	515.478	80.008	19.994	103.247	20.038	3.898	0.493
877.000	515.754	80.009	19.993	103.247	20.036	4.046	0.470
877.500	515.986	80.010	19.995	103.247	20.042	3.620	0.498
878.000	516.267	80.009	19.994	103.245	20.037	3.920	0.511
878.500	516.477	80.009	19.994	103.245	20.039	3.788	0.502
879.000	516.755	80.009	19.993	103.245	20.042	3.641	0.490
879.500	517.010	80.009	19.994	103.246	20.043	3.528	0.510
880.000	517.267	80.009	19.993	103.246	20.040	3.735	0.522
880.500	517.529	80.010	19.994	103.248	20.040	3.730	0.515
881.000	517.777	80.011	19.995	103.248	20.041	3.671	0.515
881.500	518.021	80.010	19.995	103.250	20.043	3.572	0.501
882.000	518.323	80.010	19.994	103.251	20.038	3.896	0.518
882.500	518.576	80.012	19.995	103.251	20.038	3.854	0.551
883.000	518.813	80.010	19.994	103.252	20.040	3.762	0.523
883.500	519.080	80.010	19.994	103.251	20.039	3.845	0.497
884.000	519.371	80.011	19.994	103.252	20.036	4.010	0.531
884.500	519.612	80.011	19.994	103.252	20.034	4.146	0.545
885.000	519.865	80.012	19.994	103.252	20.041	3.701	0.513
885.500	520.145	80.011	19.994	103.252	20.038	3.861	0.514
886.000	520.392	80.010	19.995	103.252	20.038	3.856	0.530
886.500	520.657	80.009	19.993	103.250	20.037	3.946	0.520
887.000	520.923	80.011	19.994	103.250	20.037	3.958	0.522
887.500	521.156	80.011	19.994	103.250	20.036	4.006	0.515
888.000	521.445	80.011	19.995	103.252	20.038	3.898	0.510
888.500	521.715	80.011	19.994	103.252	20.037	3.946	0.541
889.000	521.967	80.010	19.993	103.253	20.041	3.714	0.541
889.500	522.209	80.010	19.995	103.252	20.042	3.628	0.508
890.000	522.489	80.012	19.994	103.253	20.040	3.726	0.508
890.500	522.764	80.010	19.994	103.250	20.038	3.855	0.538
891.000	523.051	80.008	19.994	103.248	20.035	4.093	0.559
891.500	523.288	80.009	19.995	103.246	20.037	3.930	0.543
892.000	523.578	80.009	19.994	103.246	20.041	3.691	0.526
892.500	523.813	80.009	19.995	103.245	20.039	3.788	0.526
893.000	524.074	80.011	19.995	103.247	20.040	3.781	0.510
893.500	524.408	80.009	19.994	103.247	20.042	3.648	0.545
894.000	524.646	80.010	19.995	103.248	20.040	3.758	0.583
894.500	524.903	80.009	19.994	103.247	20.040	3.726	0.534
895.000	525.197	80.010	19.995	103.247	20.042	3.646	0.523
895.500	525.435	80.011	19.995	103.246	20.039	3.788	0.542
896.000	525.724	80.008	19.994	103.245	20.038	3.859	0.529
896.500	526.001	80.010	19.995	103.246	20.043	3.527	0.546
897.000	526.252	80.011	19.995	103.246	20.041	3.703	0.547
897.500	526.532	80.010	19.994	103.245	20.038	3.902	0.530
898.000	526.761	80.010	19.995	103.245	20.040	3.762	0.520
898.500	527.076	80.008	19.994	103.245	20.040	3.772	0.527
899.000	527.290	80.008	19.995	103.244	20.039	3.831	0.537
899.500	527.598	80.010	19.995	103.245	20.039	3.786	0.526
900.000	527.852	80.008	19.995	103.243	20.034	4.146	0.542
900.500	528.123	80.009	19.994	103.242	20.038	3.914	0.544
901.000	528.418	80.009	19.995	103.242	20.037	3.921	0.546
901.500	528.677	80.010	19.995	103.242	20.039	3.793	0.560
902.000	528.940	80.009	19.996	103.244	20.039	3.801	0.538
902.500	529.218	80.009	19.996	103.246	20.037	3.953	0.532
903.000	529.508	80.009	19.995	103.246	20.034	4.166	0.554
903.500	529.775	80.010	19.996	103.245	20.035	4.049	0.562
904.000	530.027	80.009	19.996	103.245	20.039	3.804	0.538
904.500	530.317	80.009	19.995	103.242	20.034	4.127	0.531
905.000	530.592	80.011	19.995	103.242	20.034	4.164	0.554
905.500	530.847	80.011	19.994	103.243	20.037	3.962	0.548
906.000	531.172	80.010	19.995	103.243	20.037	3.971	0.555
906.500	531.431	80.010	19.994	103.245	20.038	3.887	0.582
907.000	531.689	80.010	19.994	103.245	20.039	3.823	0.550
907.500	531.966	80.009	19.995	103.245	20.038	3.862	0.526
908.000	532.248	80.010	19.994	103.245	20.040	3.729	0.547
908.500	532.527	80.012	19.995	103.245	20.036	4.001	0.560
909.000	532.797	80.011	19.996	103.243	20.041	3.717	0.555
909.500	533.112	80.011	19.994	103.243	20.037	3.939	0.568
910.000	533.348	80.011	19.995	103.242	20.043	3.549	0.568
910.500	533.654	80.012	19.995	103.242	20.038	3.907	0.546
911.000	533.883	80.013	19.995	103.242	20.041	3.701	0.538
911.500	534.188	80.011	19.995	103.243	20.039	3.799	0.535
912.000	534.480	80.012	19.995	103.242	20.035	4.079	0.566
912.500	534.725	80.011	19.995	103.243	20.038	3.863	0.567
913.000	535.029	80.011	19.994	103.243	20.038	3.884	0.543
913.500	535.297	80.010	19.994	103.243	20.040	3.776	0.560
914.000	535.558	80.010	19.995	103.243	20.040	3.762	0.550
914.500	535.831	80.011	19.995	103.243	20.045	3.430	0.531
915.000	536.100	80.010	19.994	103.242	20.040	3.738	0.538
915.500	536.386	80.010	19.995	103.243	20.039	3.822	0.549
916.000	536.647	80.011	19.994	103.242	20.039	3.801	0.551
916.500	536.935	80.011	19.995	103.243	20.038	3.902	0.548
917.000	537.214	80.010	19.995	103.242	20.041	3.708	0.558
917.500	537.434	80.010	19.994	103.242	20.039	3.822	0.533
918.000	537.750	80.009	19.995	103.241	20.043	3.529	0.518
918.500	537.997	80.010	19.995	103.240	20.042	3.593	0.549
919.000	538.289	80.008	19.996	103.239	20.041	3.685	0.550
919.500	538.552	80.010	19.995	103.239	20.044	3.519	0.547
920.000	538.838	80.008	19.994	103.239	20.041	3.675	0.552
920.500	539.102	80.007	19.995	103.240	20.039	3.820	0.550
921.001	539.373	80.008	19.994	103.241	20.041	3.696	0.543
921.500	539.622	80.009	19.995	103.241	20.039	3.808	0.528
922.000	539.935	80.008	19.995	103.243	20.043	3.549	0.541
922.500	540.152	80.008	19.997	103.243	20.040	3.749	0.546
923.000	540.440	80.007	19.995	103.243	20.039	3.802	0.517
923.500	540.723	80.006	19.996	103.244	20.035	4.054	0.538
924.000	541.020	80.007	19.996	103.244	20.044	3.501	0.576
924.500	541.282	80.008	19.996	103.245	20.038	3.880	0.570
925.000	541.523	80.008	19.995	103.245	20.038	3.877	0.531
925.500	541.796	80.008	19.995	103.244	20.040	3.765	0.508
926.000	542.079	80.008	19.995	103.244	20.044	3.510	0.535
926.500	542.367	80.010	19.997	103.243	20.035	4.102	0.564
927.000	542.611	80.007	19.996	103.243	20.044	3.517	0.552
927.500	542.926	80.008	19.995	103.245	20.042	3.613	0.545
928.000	543.169	80.007	19.996	103.246	20.037	3.950	0.558
928.500	543.413	80.009	19.996	103.247	20.043	3.538	0.523
929.000	543.687	80.008	19.996	103.249	20.039	3.786	0.503
929.500	543.973	80.008	19.995	103.249	20.038	3.914	0.539
930.000	544.200	80.007	19.996	103.247	20.040	3.769	0.536
930.500	544.452	80.008	19.996	103.247	20.039	3.829	0.496
931.000	544.757	80.008	19.995	103.246	20.038	3.875	0.518
931.500	545.009	80.009	19.995	103.245	20.037	3.948	0.557
932.000	545.279	80.008	19.996	103.246	20.043	3.565	0.540
932.500	545.526	80.009	19.996	103.246	20.041	3.664	0.519
933.000	545.764	80.009	19.996	103.246	20.044	3.504	0.501
933.500	546.104	80.009	19.996	103.247	20.042	3.600	0.532
934.000	546.334	80.008	19.994	103.246	20.041	3.710	0.574
934.500	546.587	80.008	19.995	103.246	20.040	3.742	0.527
935.000	546.865	80.010	19.994	103.246	20.046	3.346	0.507
935.500	547.103	80.008	19.994	103.245	20.039	3.828	0.524
936.000	547.393	80.010	19.995	103.242	20.044	3.488	0.522
936.500	547.645	80.009	19.995	103.242	20.041	3.671	0.535
937.000	547.851	80.008	19.994	103.242	20.041	3.673	0.500
937.500	548.176	80.007	19.994	103.242	20.043	3.581	0.494
938.000	548.435	80.009	19.994	103.243	20.042	3.630	0.557
938.500	548.691	80.009	19.994	103.247	20.040	3.770	0.549
939.000	548.942	80.008	19.993	103.245	20.044	3.478	0.511
939.500	549.181	80.010	19.995	103.245	20.038	3.859	0.499
940.000	549.462	80.009	19.994	103.245	20.042	3.636	0.505
940.500	549.686	80.010	19.994	103.242	20.043	3.529	0.513
941.000	549.978	80.010	19.994	103.241	20.043	3.540	0.511
941.500	550.240	80.010	19.995	103.243	20.039	3.838	0.535
942.000	550.484	80.009	19.994	103.244	20.043	3.540	0.530
942.500	550.779	80.010	19.995	103.243	20.042	3.637	0.522
943.000	551.038	80.009	19.994	103.242	20.042	3.636	0.546
943.500	551.293	80.009	19.994	103.241	20.042	3.588	0.534
944.000	551.586	80.009	19.994	103.239	20.039	3.790	0.531
944.500	551.817	80.009	19.995	103.234	20.041	3.703	0.536
945.000	552.048	80.008	19.994	103.231	20.040	3.724	0.493
945.500	552.277	80.008	19.994	103.235	20.042	3.589	0.462
946.000	552.565	80.010	19.994	103.232	20.041	3.683	0.489
946.500	552.829	80.007	19.994	103.229	20.039	3.845	0.534
947.000	553.079	80.008	19.995	103.233	20.041	3.680	0.533
947.500	553.368	80.008	19.994	103.238	20.040	3.765	0.527
948.000	553.608	80.008	19.994	103.238	20.040	3.743	0.534
948.500	553.896	80.009	19.994	103.242	20.040	3.726	0.529
949.000	554.142	80.008	19.994	103.246	20.046	3.375	0.531
949.500	554.388	80.009	19.994	103.246	20.040	3.738	0.513
950.000	554.661	80.009	19.994	103.245	20.045	3.435	0.505
950.500	554.927	80.008	19.995	103.242	20.038	3.851	0.529
951.000	555.183	80.009	19.995	103.244	20.037	3.976	0.530
951.500	555.429	80.008	19.995	103.244	20.041	3.715	0.512
952.000	555.669	80.009	19.995	103.244	20.042	3.619	0.494
952.500	555.913	80.007	19.994	103.242	20.040	3.772	0.486
953.000	556.161	80.008	19.995	103.244	20.047	3.307	0.488
953.500	556.455	80.008	19.994	103.244	20.039	3.825	0.516
954.000	556.704	80.007	19.995	103.244	20.042	3.623	0.543
954.500	556.968	80.009	19.994	103.244	20.041	3.685	0.528
955.000	557.210	80.008	19.994	103.247	20.042	3.626	0.509
955.500	557.441	80.007	19.995	103.245	20.038	3.858	0.489
956.000	557.699	80.007	19.995	103.242	20.040	3.724	0.481
956.500	557.999	80.008	19.994	103.240	20.044	3.506	0.523
957.000	558.230	80.008	19.995	103.240	20.042	3.611	0.544
957.500	558.443	80.009	19.995	103.237	20.042	3.644	0.488
958.000	558.744	80.009	19.994	103.234	20.042	3.644	0.479
958.500	558.993	80.008	19.995	103.233	20.043	3.586	0.532
959.000	559.276	80.009	19.995	103.231	20.047	3.323	0.541
959.500	559.519	80.008	19.994	103.231	20.041	3.671	0.529
960.000	559.755	80.009	19.994	103.233	20.046	3.362	0.502
960.500	560.018	80.008	19.994	103.237	20.043	3.566	0.489
961.000	560.241	80.009	19.995	103.235	20.041	3.653	0.492
961.500	560.521	80.008	19.995	103.230	20.041	3.699	0.494
962.000	560.749	80.010	19.995	103.230	20.043	3.549	0.506
962.500	561.037	80.009	19.994	103.228	20.050	3.063	0.512
963.000	561.304	80.009	19.995	103.229	20.044	3.457	0.535
963.500	561.556	80.010	19.995	103.233	20.044	3.501	0.537
964.000	561.801	80.007	19.994	103.240	20.044	3.460	0.508
964.500	562.075	80.009	19.994	103.236	20.044	3.461	0.508
965.000	562.296	80.009	19.993	103.232	20.041	3.713	0.507
965.500	562.536	80.011	19.994	103.229	20.041	3.687	0.478
966.000	562.768	80.010	19.995	103.229	20.041	3.662	0.467
966.500	563.070	80.011	19.995	103.228	20.046	3.385	0.504
967.000	563.293	80.010	19.995	103.231	20.042	3.616	0.529
967.500	563.518	80.011	19.995	103.236	20.044	3.476	0.486
968.000	563.781	80.011	19.994	103.237	20.044	3.472	0.468
968.500	564.064	80.012	19.994	103.237	20.046	3.364	0.517
969.000	564.289	80.009	19.993	103.238	20.044	3.506	0.527
969.500	564.533	80.010	19.994	103.238	20.050	3.118	0.489
970.000	564.784	80.011	19.995	103.238	20.048	3.194	0.482
970.500	565.012	80.012	19.994	103.240	20.049	3.158	0.487
971.000	565.276	80.011	19.994	103.241	20.044	3.520	0.486
971.500	565.524	80.011	19.994	103.241	20.044	3.469	0.502
972.000	565.731	80.011	19.994	103.241	20.042	3.630	0.483
972.500	566.020	80.010	19.995	103.241	20.043	3.556	0.476
973.000	566.279	80.010	19.996	103.242	20.046	3.368	0.522
973.500	566.547	80.010	19.995	103.243	20.047	3.268	0.537
974.000	566.794	80.009	19.995	103.244	20.048	3.256	0.521
974.500	567.013	80.010	19.993	103.239	20.048	3.197	0.491
975.000	567.278	80.010	19.993	103.235	20.044	3.476	0.475
975.500	567.511	80.010	19.994	103.232	20.046	3.332	0.491
976.000	567.743	80.009	19.994	103.232	20.043	3.548	0.481
976.500	568.033	80.012	19.996	103.231	20.045	3.405	0.494
977.000	568.288	80.011	19.995	103.236	20.050	3.096	0.534
977.500	568.543	80.011	19.996	103.239	20.048	3.245	0.527
978.000	568.780	80.011	19.995	103.241	20.045	3.396	0.501
978.500	569.048	80.009	19.994	103.242	20.043	3.584	0.499
979.000	569.279	80.009	19.993	103.241	20.045	3.403	0.502
979.500	569.525	80.009	19.994	103.239	20.045	3.447	0.488
980.000	569.831	80.010	19.994	103.240	20.046	3.357	0.514
980.500	570.029	80.009	19.994	103.239	20.046	3.367	0.528
981.000	570.282	80.010	19.993	103.240	20.043	3.548	0.477
981.500	570.531	80.010	19.995	103.241	20.045	3.444	0.477
982.000	570.793	80.009	19.995	103.242	20.045	3.394	0.506
982.500	571.004	80.010	19.995	103.243	20.042	3.602	0.492
983.000	571.278	80.009	19.995	103.242	20.043	3.566	0.479
983.500	571.537	80.010	19.995	103.239	20.044	3.481	0.509
984.000	571.819	80.011	19.995	103.236	20.043	3.542	0.537
984.500	572.058	80.009	19.995	103.235	20.048	3.244	0.531
985.000	572.293	80.009	19.995	103.233	20.045	3.419	0.497
985.500	572.573	80.011	19.994	103.232	20.047	3.283	0.495
986.000	572.801	80.009	19.995	103.232	20.043	3.543	0.512
986.500	573.067	80.009	19.994	103.233	20.042	3.643	0.501
987.000	573.293	80.009	19.995	103.235	20.041	3.699	0.492
987.500	573.559	80.010	19.995	103.236	20.046	3.375	0.492
988.000	573.848	80.010	19.995	103.238	20.040	3.738	0.524
988.500	574.117	80.008	19.995	103.240	20.040	3.721	0.557
989.000	574.342	80.010	19.994	103.240	20.044	3.504	0.526
989.500	574.631	80.009	19.995	103.239	20.044	3.465	0.504
990.000	574.883	80.012	19.994	103.237	20.043	3.579	0.527
990.500	575.122	80.009	19.995	103.234	20.044	3.508	0.516
991.000	575.400	80.010	19.995	103.230	20.040	3.758	0.504
991.500	575.640	80.009	19.994	103.231	20.042	3.597	0.517
992.000	575.890	80.010	19.996	103.230	20.047	3.279	0.504
992.500	576.158	80.010	19.994	103.230	20.046	3.329	0.504
993.000	576.399	80.011	19.995	103.232	20.042	3.636	0.513
993.500	576.617	80.011	19.994	103.236	20.042	3.622	0.484
994.000	576.878	80.011	19.996	103.237	20.046	3.384	0.469
994.500	577.160	80.011	19.994	103.240	20.041	3.689	0.511
995.000	577.385	80.010	19.995	103.243	20.043	3.579	0.525
995.500	577.635	80.012	19.996	103.243	20.045	3.433	0.492
996.000	577.897	80.012	19.995	103.243	20.049	3.158	0.494
996.500	578.158	80.011	19.995	103.243	20.040	3.772	0.517
997.000	578.418	80.011	19.995	103.243	20.047	3.304	0.522
997.500	578.630	80.012	19.996	103.243	20.045	3.433	0.497
998.000	578.894	80.010	19.994	103.244	20.042	3.623	0.474
998.500	579.166	80.012	19.996	103.242	20.044	3.460	0.506
999.000	579.402	80.010	19.994	103.241	20.043	3.565	0.523
999.500	579.662	80.011	19.995	103.240	20.042	3.637	0.503
1000.000	579.894	80.010	19.993	103.238	20.041	3.678	0.494
1000.500	580.190	80.009	19.994	103.237	20.038	3.902	0.509
1001.000	580.443	80.010	19.995	103.239	20.041	3.706	0.538
1001.500	580.670	80.009	19.995	103.239	20.042	3.623	0.514
1002.000	580.906	80.009	19.995	103.240	20.043	3.529	0.472
1002.500	581.159	80.009	19.995	103.241	20.042	3.651	0.476
1003.000	581.380	80.009	19.997	103.242	20.039	3.807	0.481
1003.500	581.679	80.008	19.995	103.243	20.045	3.431	0.497
1004.000	581.908	80.008	19.994	103.245	20.044	3.508	0.524
1004.500	582.151	80.009	19.996	103.246	20.042	3.612	0.500
1005.000	582.420	80.008	19.995	103.246	20.043	3.582	0.493
1005.500	582.685	80.009	19.995	103.244	20.046	3.385	0.523
1006.000	582.971	80.008	19.995	103.244	20.045	3.429	0.542
1006.500	583.200	80.008	19.994	103.242	20.047	3.275	0.533
1007.000	583.452	80.008	19.994	103.241	20.043	3.548	0.498
1007.500	583.697	80.010	19.995	103.243	20.044	3.488	0.489
1008.000	583.928	80.008	19.994	103.245	20.049	3.135	0.486
1008.500	584.189	80.007	19.994	103.245	20.042	3.634	0.484
1009.000	584.436	80.007	19.996	103.244	20.043	3.577	0.501
1009.500	584.722	80.007	19.995	103.244	20.042	3.630	0.521
1010.000	584.962	80.007	19.997	103.244	20.041	3.705	0.529
1010.500	585.211	80.008	19.995	103.243	20.044	3.487	0.507
1011.000	585.459	80.008	19.996	103.243	20.044	3.508	0.493
1011.500	585.713	80.007	19.995	103.243	20.040	3.749	0.500
1012.000	585.967	80.008	19.994	103.242	20.043	3.563	0.505
1012.500	586.188	80.008	19.996	103.241	20.039	3.786	0.491
1013.000	586.474	80.008	19.995	103.241	20.049	3.164	0.491
1013.500	586.747	80.007	19.995	103.239	20.045	3.428	0.533
1014.000	586.955	80.009	19.994	103.239	20.043	3.552	0.520
1014.500	587.197	80.006	19.995	103.238	20.039	3.805	0.465
1015.000	587.453	80.008	19.995	103.234	20.048	3.199	0.474
1015.500	587.709	80.009	19.995	103.232	20.045	3.411	0.505
1016.000	587.968	80.009	19.996	103.227	20.041	3.675	0.513
1016.500	588.226	80.007	19.994	103.224	20.048	3.218	0.516
1017.000	588.488	80.008	19.995	103.224	20.048	3.222	0.519
1017.500	588.751	80.006	19.995	103.227	20.041	3.708	0.523
1018.000	588.994	80.009	19.995	103.230	20.043	3.533	0.515
1018.500	589.226	80.008	19.997	103.234	20.043	3.554	0.490
1019.000	589.475	80.006	19.995	103.236	20.041	3.710	0.478
1019.500	589.721	80.008	19.997	103.237	20.039	3.843	0.488
1020.000	590.001	80.008	19.995	103.238	20.039	3.820	0.511
1020.500	590.239	80.009	19.996	103.238	20.048	3.210	0.522
1021.000	590.522	80.008	19.996	103.241	20.042	3.587	0.519
1021.500	590.717	80.008	19.997	103.243	20.044	3.493	0.499
1022.000	591.015	80.009	19.997	103.239	20.040	3.727	0.486
1022.500	591.253	80.008	19.996	103.234	20.041	3.665	0.514
1023.000	591.480	80.008	19.998	103.234	20.038	3.892	0.501
1023.500	591.718	80.008	19.997	103.234	20.045	3.419	0.465
1024.001	591.991	80.009	19.996	103.235	20.044	3.460	0.488
1024.501	592.205	80.009	19.996	103.237	20.041	3.708	0.499
1025.000	592.526	80.008	19.995	103.235	20.040	3.731	0.511
1025.499	592.781	80.009	19.995	103.231	20.046	3.344	0.555
1025.999	593.031	80.008	19.995	103.225	20.041	3.690	0.540
1026.499	593.222	80.009	19.996	103.219	20.043	3.531	0.473
1027.000	593.539	80.008	19.997	103.218	20.044	3.492	0.474
1027.500	593.797	80.007	19.995	103.223	20.041	3.692	0.542
1027.999	594.060	80.007	19.996	103.227	20.040	3.733	0.548
1028.500	594.301	80.009	19.996	103.232	20.046	3.383	0.512
1029.000	594.542	80.009	19.996	103.239	20.048	3.217	0.493
1029.499	594.826	80.009	19.996	103.242	20.047	3.298	0.504
1029.999	595.065	80.009	19.996	103.241	20.040	3.721	0.525
1030.499	595.328	80.010	19.996	103.242	20.047	3.313	0.513
1030.999	595.593	80.008	19.995	103.242	20.040	3.724	0.515
1031.499	595.846	80.008	19.994	103.240	20.038	3.905	0.523
1031.999	596.080	80.009	19.996	103.235	20.038	3.854	0.502
1032.499	596.331	80.007	19.994	103.235	20.044	3.463	0.486
1032.999	596.597	80.008	19.995	103.234	20.045	3.433	0.501
1033.499	596.842	80.009	19.994	103.233	20.045	3.434	0.514
1033.999	597.069	80.008	19.995	103.232	20.042	3.596	0.491
1034.499	597.373	80.008	19.995	103.234	20.042	3.631	0.501
1034.999	597.623	80.009	19.995	103.235	20.042	3.598	0.543
1035.499	597.872	80.009	19.995	103.233	20.045	3.408	0.527
1035.999	598.105	80.008	19.993	103.231	20.045	3.403	0.491
1036.499	598.406	80.008	19.995	103.232	20.045	3.452	0.508
1036.999	598.620	80.008	19.994	103.234	20.050	3.117	0.525
1037.499	598.861	80.008	19.995	103.232	20.040	3.738	0.485
1037.999	599.141	80.009	19.995	103.234	20.045	3.438	0.488
1038.499	599.408	80.010	19.994	103.236	20.044	3.520	0.534
1038.999	599.646	80.006	19.994	103.235	20.048	3.213	0.526
1039.499	599.898	80.008	19.994	103.233	20.046	3.350	0.497
1040.000	600.145	80.007	19.996	103.233	20.040	3.743	0.494
1040.501	600.377	80.009	19.994	103.235	20.035	4.109	0.489
1041.001	600.657	80.008	19.995	103.237	20.042	3.642	0.496
1041.500	600.906	80.008	19.995	103.238	20.045	3.450	0.521
1041.999	601.178	80.008	19.993	103.240	20.049	3.135	0.524
1042.499	601.425	80.009	19.995	103.243	20.043	3.573	0.520
1042.999	601.695	80.010	19.995	103.238	20.044	3.458	0.518
1043.500	601.944	80.009	19.994	103.231	20.040	3.764	0.518
1044.000	602.179	80.010	19.994	103.227	20.045	3.449	0.501
1044.500	602.462	80.008	19.994	103.222	20.044	3.490	0.501
1045.000	602.694	80.009	19.994	103.219	20.040	3.743	0.516
1045.499	602.953	80.007	19.994	103.219	20.045	3.426	0.503
1045.999	603.183	80.011	19.994	103.226	20.047	3.261	0.490
1046.500	603.443	80.010	19.996	103.229	20.048	3.235	0.490
1047.000	603.710	80.010	19.995	103.233	20.044	3.463	0.509
1047.500	603.976	80.010	19.995	103.227	20.039	3.829	0.530
1048.000	604.242	80.010	19.995	103.230	20.037	3.973	0.533
1048.499	604.476	80.009	19.995	103.230	20.046	3.389	0.516
1048.999	604.737	80.009	19.995	103.232	20.046	3.334	0.497
1049.499	605.007	80.011	19.997	103.233	20.045	3.410	0.513
1049.999	605.244	80.010	19.995	103.240	20.048	3.240	0.519
1050.499	605.529	80.009	19.995	103.239	20.036	3.986	0.514
1050.999	605.791	80.011	19.996	103.234	20.043	3.529	0.534
1051.499	606.032	80.010	19.994	103.228	20.046	3.373	0.525
1051.999	606.241	80.010	19.995	103.225	20.043	3.561	0.477
1052.499	606.501	80.010	19.996	103.221	20.046	3.339	0.460
1052.999	606.792	80.011	19.995	103.218	20.043	3.540	0.510
1053.500	607.032	80.011	19.995	103.222	20.038	3.870	0.541
1054.000	607.273	80.010	19.993	103.224	20.043	3.529	0.506
1054.499	607.496	80.008	19.992	103.224	20.044	3.515	0.473
1054.999	607.801	80.009	19.994	103.228	20.038	3.908	0.496
1055.499	608.004	80.009	19.994	103.233	20.042	3.635	0.518
1055.999	608.289	80.010	19.996	103.234	20.037	3.922	0.498
1056.499	608.558	80.008	19.994	103.236	20.046	3.358	0.521
1056.999	608.801	80.009	19.994	103.241	20.044	3.479	0.533
1057.500	609.066	80.008	19.993	103.242	20.041	3.663	0.510
1058.000	609.278	80.009	19.994	103.240	20.040	3.766	0.493
1058.499	609.608	80.011	19.996	103.242	20.042	3.651	0.510
1059.000	609.822	80.009	19.995	103.241	20.041	3.699	0.543
1059.501	610.073	80.009	19.995	103.240	20.039	3.846	0.504
1060.000	610.334	80.009	19.994	103.238	20.045	3.446	0.488
1060.499	610.582	80.010	19.995	103.237	20.048	3.234	0.511
1061.000	610.828	80.008	19.995	103.234	20.044	3.502	0.502
1061.500	611.092	80.009	19.996	103.236	20.041	3.688	0.502
1061.999	611.351	80.009	19.994	103.238	20.040	3.749	0.517
1062.499	611.651	80.007	19.994	103.239	20.050	3.091	0.541
1062.999	611.886	80.009	19.995	103.241	20.037	3.926	0.547
1063.499	612.165	80.008	19.994	103.242	20.040	3.759	0.525
1063.999	612.388	80.010	19.995	103.239	20.045	3.431	0.509
1064.499	612.675	80.010	19.994	103.239	20.044	3.502	0.506
1064.999	612.899	80.008	19.994	103.237	20.039	3.834	0.510
1065.499	613.167	80.010	19.995	103.234	20.040	3.722	0.501
1066.000	613.403	80.008	19.994	103.234	20.049	3.167	0.498
1066.501	613.672	80.009	19.995	103.233	20.040	3.735	0.505
1067.000	613.966	80.009	19.993	103.228	20.041	3.701	0.534
1067.499	614.177	80.009	19.994	103.226	20.037	3.949	0.534
1068.000	614.465	80.009	19.995	103.223	20.040	3.781	0.502
1068.500	614.704	80.009	19.995	103.224	20.037	3.967	0.513
1068.999	614.956	80.009	19.994	103.227	20.045	3.399	0.509
1069.500	615.207	80.009	19.994	103.232	20.042	3.619	0.497
1070.001	615.479	80.009	19.992	103.234	20.040	3.757	0.513
1070.500	615.732	80.009	19.994	103.235	20.045	3.393	0.524
1070.999	615.988	80.009	19.995	103.235	20.048	3.223	0.517
1071.499	616.232	80.009	19.993	103.233	20.044	3.457	0.505
1071.999	616.515	80.008	19.993	103.231	20.042	3.630	0.514
1072.499	616.742	80.011	19.995	103.228	20.041	3.669	0.519
1072.999	617.026	80.011	19.993	103.227	20.047	3.298	0.510
1073.499	617.280	80.010	19.994	103.225	20.040	3.777	0.524
1073.999	617.502	80.010	19.995	103.223	20.043	3.538	0.507
1074.499	617.754	80.011	19.995	103.224	20.039	3.829	0.475
1074.999	618.028	80.011	19.996	103.228	20.043	3.549	0.500
1075.499	618.303	80.010	19.995	103.231	20.041	3.692	0.537
1076.000	618.484	80.011	19.993	103.230	20.039	3.827	0.502
1076.500	618.758	80.009	19.993	103.231	20.038	3.891	0.456
1076.999	619.007	80.010	19.994	103.233	20.047	3.307	0.489
1077.499	619.264	80.010	19.993	103.235	20.040	3.750	0.514
1077.999	619.554	80.010	19.993	103.237	20.039	3.811	0.527
1078.499	619.803	80.010	19.995	103.239	20.043	3.578	0.543
1079.000	620.069	80.010	19.993	103.240	20.043	3.538	0.527
1079.500	620.303	80.010	19.994	103.233	20.038	3.914	0.507
1080.000	620.564	80.010	19.994	103.228	20.039	3.784	0.497
1080.501	620.813	80.010	19.995	103.222	20.038	3.869	0.503
1081.001	621.040	80.009	19.994	103.218	20.043	3.550	0.493
1081.501	621.285	80.010	19.995	103.214	20.039	3.831	0.474
1082.000	621.553	80.009	19.995	103.216	20.041	3.698	0.493
1082.500	621.767	80.010	19.994	103.219	20.041	3.691	0.498
1083.001	622.045	80.009	19.995	103.224	20.038	3.851	0.487
1083.501	622.323	80.009	19.995	103.227	20.040	3.767	0.524
1084.000	622.584	80.009	19.993	103.231	20.038	3.853	0.548
1084.499	622.805	80.011	19.996	103.235	20.041	3.681	0.511
1084.999	623.116	80.009	19.996	103.236	20.045	3.431	0.507
1085.499	623.332	80.009	19.996	103.236	20.039	3.844	0.529
1085.999	623.610	80.009	19.994	103.239	20.038	3.904	0.510
1086.499	623.813	80.006	19.994	103.238	20.038	3.908	0.487
1086.999	624.059	80.008	19.996	103.238	20.041	3.682	0.465
1087.499	624.321	80.007	19.995	103.238	20.042	3.587	0.479
1087.999	624.564	80.007	19.996	103.235	20.039	3.847	0.507
1088.499	624.809	80.008	19.996	103.229	20.038	3.858	0.496
1089.000	625.087	80.008	19.995	103.229	20.043	3.532	0.505
1089.500	625.331	80.008	19.995	103.228	20.038	3.902	0.523
1089.999	625.581	80.008	19.994	103.229	20.036	4.023	0.508
1090.499	625.837	80.007	19.995	103.233	20.034	4.165	0.500
1091.000	626.093	80.007	19.995	103.235	20.044	3.465	0.508
1091.500	626.348	80.008	19.995	103.230	20.043	3.555	0.511
1091.999	626.606	80.007	19.995	103.224	20.042	3.640	0.512
1092.499	626.861	80.008	19.995	103.216	20.035	4.062	0.513
1092.999	627.092	80.008	19.995	103.209	20.039	3.821	0.500
1093.499	627.326	80.007	19.996	103.207	20.041	3.688	0.475
1093.999	627.618	80.008	19.996	103.210	20.043	3.551	0.495
1094.499	627.868	80.007	19.995	103.211	20.041	3.692	0.534
1094.999	628.113	80.009	19.996	103.215	20.038	3.853	0.519
1095.499	628.357	80.008	19.995	103.219	20.039	3.794	0.492
1095.999	628.601	80.007	19.995	103.220	20.040	3.720	0.488
1096.500	628.842	80.009	19.996	103.219	20.034	4.174	0.486
1097.000	629.105	80.008	19.995	103.218	20.040	3.729	0.495
1097.499	629.340	80.009	19.994	103.215	20.039	3.798	0.501
1097.999	629.579	80.008	19.994	103.211	20.039	3.842	0.486
1098.499	629.851	80.008	19.995	103.210	20.041	3.688	0.493
1098.999	630.104	80.008	19.996	103.209	20.037	3.936	0.518
1099.499	630.372	80.009	19.995	103.212	20.038	3.909	0.523
1099.999	630.580	80.008	19.995	103.216	20.039	3.798	0.499
1100.499	630.875	80.008	19.996	103.219	20.045	3.441	0.489
1100.999	631.096	80.007	19.996	103.220	20.040	3.759	0.510
1101.499	631.367	80.008	19.995	103.221	20.039	3.784	0.504
1101.999	631.589	80.006	19.994	103.220	20.043	3.553	0.492
1102.499	631.863	80.009	19.995	103.216	20.035	4.081	0.494
1102.999	632.103	80.010	19.995	103.214	20.046	3.338	0.504
1103.500	632.377	80.008	19.994	103.219	20.041	3.682	0.514
1104.000	632.627	80.008	19.994	103.223	20.043	3.544	0.519
1104.499	632.871	80.008	19.993	103.221	20.042	3.606	0.509
1105.000	633.125	80.009	19.996	103.220	20.041	3.674	0.496
1105.500	633.366	80.008	19.994	103.222	20.041	3.692	0.496
1105.999	633.620	80.008	19.995	103.217	20.046	3.363	0.495
1106.499	633.850	80.009	19.995	103.212	20.044	3.512	0.489
1106.999	634.107	80.009	19.994	103.212	20.041	3.674	0.486
1107.499	634.417	80.008	19.995	103.216	20.042	3.633	0.528
1107.999	634.686	80.009	19.995	103.215	20.040	3.732	0.573
1108.500	634.880	80.009	19.994	103.217	20.041	3.684	0.520
1109.001	635.153	80.008	19.995	103.219	20.040	3.734	0.465
1109.500	635.407	80.009	19.995	103.220	20.041	3.704	0.497
1109.999	635.655	80.008	19.995	103.216	20.041	3.674	0.514
1110.499	635.915	80.008	19.994	103.214	20.045	3.391	0.505
1110.999	636.140	80.008	19.997	103.210	20.041	3.662	0.497
1111.500	636.427	80.007	19.995	103.211	20.047	3.284	0.498
1112.001	636.699	80.008	19.996	103.212	20.040	3.751	0.536
1112.500	636.932	80.009	19.996	103.216	20.046	3.362	0.532
1112.999	637.156	80.007	19.996	103.218	20.042	3.605	0.481
1113.500	637.383	80.009	19.997	103.217	20.035	4.070	0.454
1114.000	637.686	80.008	19.996	103.212	20.044	3.479	0.491
1114.499	637.929	80.009	19.996	103.214	20.043	3.537	0.538
1114.999	638.201	80.008	19.995	103.214	20.045	3.397	0.530
1115.499	638.460	80.009	19.996	103.214	20.037	3.929	0.523
1116.000	638.729	80.008	19.996	103.217	20.040	3.775	0.530
1116.501	638.942	80.007	19.995	103.219	20.036	4.014	0.505
1117.000	639.223	80.008	19.997	103.218	20.040	3.748	0.488
1117.500	639.470	80.009	19.995	103.220	20.036	3.982	0.511
1118.000	639.734	80.007	19.996	103.221	20.039	3.847	0.519
1118.499	639.931	80.007	19.994	103.219	20.039	3.837	0.486
1118.999	640.195	80.006	19.995	103.217	20.044	3.493	0.461
1119.499	640.438	80.007	19.995	103.219	20.044	3.516	0.484
1119.999	640.745	80.006	19.996	103.219	20.038	3.865	0.528
1120.500	640.972	80.007	19.997	103.222	20.040	3.767	0.543
1121.000	641.222	80.006	19.996	103.228	20.037	3.954	0.505
1121.499	641.446	80.006	19.996	103.234	20.041	3.666	0.475
1121.999	641.711	80.007	19.995	103.236	20.040	3.739	0.482
1122.500	641.941	80.006	19.996	103.236	20.035	4.072	0.492
1123.001	642.230	80.007	19.995	103.239	20.037	3.936	0.507
1123.501	642.469	80.007	19.996	103.237	20.035	4.062	0.523
1124.000	642.743	80.009	19.996	103.233	20.038	3.878	0.521
1124.499	642.959	80.008	19.996	103.228	20.042	3.614	0.502
1124.999	643.245	80.009	19.996	103.226	20.044	3.502	0.496
1125.499	643.480	80.007	19.996	103.223	20.041	3.683	0.511
1126.000	643.725	80.007	19.995	103.220	20.041	3.706	0.500
1126.500	643.990	80.008	19.997	103.219	20.043	3.556	0.495
1126.999	644.212	80.008	19.996	103.219	20.041	3.698	0.499
1127.500	644.479	80.008	19.994	103.217	20.039	3.799	0.488
1128.000	644.722	80.008	19.995	103.212	20.032	4.301	0.500
1128.499	644.966	80.009	19.995	103.211	20.036	4.019	0.498
1128.999	645.166	80.008	19.995	103.212	20.038	3.855	0.465
1129.499	645.451	80.008	19.994	103.211	20.039	3.837	0.465
1129.999	645.635	80.009	19.994	103.211	20.043	3.574	0.477
1130.499	645.909	80.009	19.995	103.211	20.036	4.005	0.463
1130.999	646.197	80.010	19.995	103.212	20.035	4.094	0.510
1131.500	646.399	80.010	19.994	103.212	20.037	3.918	0.526
1132.000	646.639	80.009	19.994	103.211	20.037	3.961	0.466
1132.500	646.939	80.009	19.995	103.208	20.042	3.633	0.491
1133.000	647.159	80.010	19.994	103.208	20.033	4.243	0.530
1133.500	647.432	80.009	19.995	103.211	20.039	3.830	0.506
1134.001	647.679	80.009	19.994	103.212	20.042	3.638	0.506
1134.500	647.916	80.011	19.995	103.213	20.037	3.920	0.502
1134.999	648.168	80.009	19.994	103.219	20.044	3.512	0.487
1135.499	648.404	80.011	19.994	103.223	20.038	3.893	0.488
1135.999	648.674	80.010	19.993	103.220	20.036	3.993	0.496
1136.500	648.916	80.009	19.993	103.219	20.043	3.535	0.509
1137.000	649.164	80.009	19.993	103.217	20.041	3.686	0.501
1137.500	649.423	80.010	19.994	103.211	20.044	3.479	0.499
1138.000	649.681	80.010	19.994	103.208	20.040	3.736	0.512
1138.499	649.935	80.009	19.994	103.210	20.040	3.780	0.515
1138.999	650.188	80.009	19.995	103.211	20.040	3.748	0.510
1139.499	650.462	80.009	19.994	103.214	20.037	3.977	0.517
1140.000	650.701	80.010	19.994	103.217	20.040	3.755	0.520
1140.501	650.924	80.009	19.994	103.217	20.039	3.849	0.487
1141.001	651.212	80.009	19.994	103.214	20.040	3.769	0.487
1141.501	651.429	80.009	19.994	103.214	20.034	4.117	0.509
1142.000	651.672	80.010	19.994	103.211	20.041	3.709	0.483
1142.500	651.930	80.008	19.994	103.209	20.041	3.654	0.480
1143.000	652.203	80.010	19.994	103.210	20.036	3.996	0.516
1143.499	652.468	80.008	19.994	103.213	20.041	3.659	0.535
1143.999	652.701	80.010	19.994	103.217	20.041	3.664	0.518
1144.500	652.945	80.009	19.994	103.218	20.038	3.874	0.488
1145.000	653.209	80.007	19.994	103.222	20.040	3.721	0.492
1145.499	653.455	80.009	19.995	103.222	20.037	3.971	0.509
1145.999	653.669	80.010	19.995	103.218	20.037	3.972	0.485
1146.499	653.937	80.008	19.995	103.214	20.034	4.129	0.471
1146.999	654.197	80.009	19.995	103.219	20.040	3.725	0.505
1147.499	654.473	80.008	19.994	103.218	20.042	3.592	0.532
1147.999	654.695	80.010	19.996	103.218	20.039	3.832	0.517
1148.499	654.973	80.009	19.995	103.220	20.042	3.610	0.499
1148.999	655.264	80.009	19.994	103.221	20.044	3.505	0.534
1149.499	655.508	80.008	19.995	103.216	20.039	3.837	0.552
1149.999	655.717	80.009	19.995	103.214	20.038	3.897	0.494
1150.499	655.970	80.008	19.995	103.214	20.037	3.931	0.457
1150.999	656.233	80.009	19.994	103.216	20.036	4.026	0.489
1151.499	656.457	80.009	19.995	103.218	20.038	3.876	0.502
1151.999	656.729	80.009	19.995	103.218	20.040	3.718	0.491
1152.500	656.955	80.010	19.995	103.217	20.039	3.850	0.497
1153.000	657.215	80.010	19.995	103.215	20.044	3.482	0.492
1153.499	657.459	80.009	19.995	103.211	20.045	3.431	0.495
1153.999	657.683	80.009	19.995	103.208	20.041	3.681	0.486
1154.499	657.929	80.009	19.994	103.206	20.041	3.676	0.469
1154.999	658.211	80.009	19.993	103.206	20.038	3.911	0.499
1155.499	658.430	80.010	19.995	103.207	20.041	3.665	0.515
1155.999	658.717	80.011	19.995	103.213	20.042	3.628	0.504
1156.500	658.950	80.013	19.995	103.214	20.044	3.482	0.513
1157.001	659.229	80.010	19.994	103.216	20.038	3.893	0.516
1157.501	659.487	80.011	19.994	103.219	20.038	3.899	0.524
1158.001	659.821	80.009	19.994	103.225	20.043	3.581	0.564
1158.500	660.044	80.011	19.995	103.225	20.039	3.849	0.575
1159.000	660.234	80.011	19.994	103.225	20.043	3.562	0.485
1159.500	660.479	80.010	19.994	103.223	20.043	3.530	0.424
1159.999	660.763	80.011	19.994	103.221	20.037	3.962	0.482
1160.499	661.013	80.011	19.994	103.216	20.039	3.797	0.531
1160.999	661.280	80.011	19.994	103.210	20.040	3.780	0.525
1161.499	661.550	80.012	19.994	103.211	20.045	3.450	0.527
1161.999	661.771	80.012	19.994	103.215	20.043	3.585	0.514
1162.499	662.052	80.013	19.994	103.219	20.043	3.564	0.497
1162.999	662.306	80.010	19.994	103.221	20.042	3.614	0.518
1163.499	662.551	80.010	19.993	103.227	20.041	3.695	0.517
1163.999	662.804	80.012	19.994	103.225	20.035	4.085	0.499
1164.499	663.122	80.011	19.994	103.227	20.038	3.915	0.535
1164.999	663.312	80.010	19.994	103.226	20.046	3.373	0.539
1165.499	663.578	80.011	19.994	103.228	20.041	3.665	0.482
1165.999	663.867	80.010	19.994	103.222	20.040	3.738	0.506
1166.499	664.104	80.010	19.994	103.222	20.037	3.951	0.540
1166.999	664.349	80.010	19.994	103.216	20.040	3.773	0.504
1167.500	664.613	80.011	19.995	103.216	20.037	3.931	0.496
1168.000	664.915	80.010	19.994	103.211	20.039	3.837	0.537
1168.499	665.161	80.011	19.994	103.211	20.034	4.151	0.557
1168.999	665.378	80.009	19.994	103.212	20.039	3.809	0.505
1169.499	665.697	80.009	19.994	103.212	20.040	3.782	0.500
1170.000	665.945	80.008	19.994	103.208	20.037	3.947	0.551
1170.501	666.259	80.009	19.993	103.206	20.037	3.965	0.564
1171.000	666.455	80.010	19.995	103.208	20.036	4.000	0.536
1171.500	666.727	80.010	19.994	103.208	20.038	3.901	0.489
1172.000	667.032	80.009	19.995	103.210	20.034	4.160	0.522
1172.499	667.259	80.010	19.995	103.215	20.038	3.868	0.554
1172.999	667.571	80.010	19.995	103.216	20.041	3.673	0.536
1173.499	667.764	80.009	19.995	103.220	20.038	3.853	0.522
1173.999	668.046	80.009	19.994	103.227	20.041	3.701	0.490
1174.499	668.324	80.009	19.995	103.227	20.039	3.846	0.517
1174.999	668.600	80.010	19.995	103.228	20.035	4.110	0.557
1175.499	668.878	80.009	19.995	103.227	20.035	4.111	0.554
1175.999	669.152	80.009	19.994	103.224	20.040	3.771	0.553
1176.499	669.398	80.008	19.993	103.221	20.039	3.819	0.536
1176.999	669.657	80.010	19.995	103.222	20.042	3.606	0.512
1177.499	669.925	80.009	19.995	103.224	20.042	3.613	0.516
1178.000	670.202	80.009	19.994	103.230	20.045	3.436	0.536
1178.500	670.437	80.008	19.994	103.234	20.044	3.512	0.528
1178.999	670.729	80.009	19.995	103.232	20.043	3.566	0.519
1179.500	670.995	80.010	19.996	103.230	20.036	3.995	0.543
1180.000	671.273	80.008	19.995	103.228	20.041	3.675	0.551
1180.499	671.519	80.009	19.995	103.224	20.038	3.899	0.535
1180.999	671.777	80.008	19.997	103.222	20.037	3.932	0.514
1181.499	672.038	80.009	19.997	103.226	20.043	3.544	0.512
1181.999	672.333	80.009	19.996	103.232	20.037	3.916	0.537
1182.499	672.558	80.009	19.995	103.233	20.038	3.869	0.538
1182.999	672.846	80.008	19.994	103.232	20.043	3.581	0.516
1183.499	673.108	80.010	19.995	103.233	20.041	3.658	0.532
1183.999	673.387	80.009	19.995	103.234	20.044	3.507	0.546
1184.499	673.518	80.009	19.996	103.233	20.042	3.587	0.475
1184.999	673.914	80.008	19.995	103.226	20.038	3.887	0.468
1185.499	674.193	80.009	19.995	103.225	20.039	3.849	0.601
1185.999	674.475	80.009	19.995	103.220	20.037	3.924	0.618
1186.499	674.731	80.008	19.994	103.213	20.036	3.995	0.549
1186.999	675.025	80.009	19.995	103.207	20.038	3.911	0.544
1187.499	675.256	80.009	19.996	103.207	20.042	3.595	0.537
1187.999	675.571	80.009	19.995	103.207	20.043	3.549	0.536
1188.500	675.807	80.010	19.995	103.212	20.040	3.753	0.548
1189.000	676.091	80.009	19.994	103.216	20.039	3.840	0.535
1189.499	676.381	80.009	19.995	103.217	20.042	3.599	0.547
1189.999	676.620	80.009	19.995	103.216	20.039	3.821	0.552
1190.499	676.901	80.009	19.996	103.216	20.038	3.900	0.525
1190.999	677.195	80.010	19.995	103.211	20.042	3.626	0.547
1191.499	677.467	80.009	19.994	103.208	20.043	3.562	0.570
1191.999	677.729	80.009	19.995	103.208	20.043	3.548	0.550
1192.499	678.023	80.009	19.994	103.209	20.040	3.767	0.545
1193.000	678.264	80.009	19.995	103.210	20.045	3.427	0.546
1193.500	678.522	80.009	19.995	103.213	20.044	3.473	0.517
1194.000	678.803	80.009	19.995	103.217	20.044	3.514	0.519
1194.500	679.055	80.009	19.994	103.217	20.043	3.521	0.537
1194.999	679.296	80.009	19.995	103.219	20.040	3.748	0.514
1195.499	679.597	80.009	19.996	103.221	20.043	3.578	0.518
1196.000	679.824	80.009	19.995	103.222	20.040	3.739	0.535
1196.500	680.109	80.008	19.995	103.217	20.040	3.755	0.520
1197.000	680.376	80.009	19.995	103.217	20.039	3.789	0.531
1197.500	680.625	80.009	19.995	103.216	20.041	3.657	0.534
1197.999	680.888	80.008	19.995	103.213	20.040	3.732	0.514
1198.499	681.156	80.008	19.996	103.210	20.042	3.588	0.522
1198.999	681.404	80.009	19.995	103.210	20.040	3.752	0.524
1199.499	681.679	80.008	19.995	103.209	20.041	3.709	0.520
1199.999	681.940	80.009	19.994	103.208	20.041	3.688	0.529
1200.499	682.204	80.009	19.995	103.208	20.040	3.764	0.530
1200.999	682.478	80.009	19.997	103.208	20.043	3.574	0.531
1201.499	682.718	80.007	19.995	103.208	20.040	3.762	0.527
1201.999	682.998	80.008	19.995	103.210	20.041	3.681	0.517
1202.499	683.252	80.007	19.995	103.210	20.040	3.743	0.527
1202.999	683.547	80.007	19.995	103.211	20.042	3.647	0.541
1203.500	683.742	80.008	19.995	103.211	20.040	3.780	0.519
1204.001	684.003	80.008	19.995	103.211	20.041	3.688	0.473
1204.501	684.252	80.007	19.995	103.211	20.039	3.838	0.483
1205.000	684.533	80.008	19.995	103.212	20.039	3.803	0.520
1205.499	684.772	80.007	19.996	103.212	20.040	3.732	0.524
1205.999	685.023	80.008	19.996	103.212	20.041	3.703	0.504
1206.499	685.256	80.008	19.994	103.212	20.040	3.737	0.487
1206.999	685.502	80.008	19.996	103.210	20.043	3.540	0.482
1207.500	685.790	80.009	19.995	103.209	20.042	3.641	0.507
1208.000	686.029	80.009	19.996	103.209	20.038	3.859	0.531
1208.499	686.285	80.008	19.997	103.209	20.042	3.588	0.511
1208.999	686.559	80.008	19.996	103.210	20.042	3.620	0.513
1209.499	686.812	80.008	19.996	103.212	20.042	3.620	0.529
1209.999	687.053	80.009	19.995	103.212	20.038	3.854	0.511
1210.499	687.300	80.009	19.995	103.213	20.041	3.716	0.491
1210.999	687.577	80.007	19.995	103.213	20.044	3.480	0.506
1211.500	687.809	80.009	19.996	103.215	20.040	3.782	0.516
1212.000	688.097	80.008	19.997	103.216	20.042	3.606	0.514
1212.499	688.346	80.009	19.995	103.215	20.038	3.852	0.529
1212.999	688.575	80.009	19.994	103.214	20.037	3.975	0.508
1213.499	688.854	80.008	19.995	103.213	20.043	3.553	0.493
1213.999	689.079	80.009	19.995	103.211	20.039	3.794	0.506
1214.499	689.334	80.010	19.995	103.208	20.040	3.774	0.492
1215.000	689.585	80.010	19.996	103.208	20.044	3.517	0.493
1215.500	689.844	80.010	19.996	103.207	20.037	3.960	0.508
1215.999	690.108	80.010	19.996	103.207	20.040	3.732	0.517
1216.500	690.325	80.010	19.995	103.205	20.041	3.684	0.502
1217.000	690.613	80.010	19.994	103.203	20.037	3.957	0.493
1217.499	690.871	80.009	19.995	103.202	20.036	3.987	0.526
1217.999	691.089	80.011	19.995	103.201	20.037	3.957	0.511
1218.499	691.381	80.010	19.996	103.200	20.039	3.848	0.493
1218.999	691.627	80.010	19.995	103.200	20.041	3.653	0.524
1219.499	691.911	80.010	19.995	103.201	20.039	3.796	0.534
1219.999	692.118	80.011	19.996	103.203	20.041	3.691	0.511
1220.500	692.391	80.011	19.995	103.203	20.036	3.998	0.486
1221.000	692.706	80.011	19.994	103.205	20.039	3.810	0.534
1221.500	692.887	80.010	19.994	103.206	20.043	3.551	0.542
1222.001	693.131	80.011	19.995	103.205	20.040	3.759	0.461
1222.500	693.404	80.011	19.994	103.210	20.040	3.734	0.471
1223.000	693.633	80.009	19.994	103.211	20.043	3.551	0.509
1223.500	693.907	80.010	19.994	103.210	20.039	3.833	0.502
1223.999	694.182	80.011	19.994	103.210	20.041	3.682	0.526
1224.499	694.422	80.011	19.993	103.211	20.045	3.418	0.533
1224.999	694.696	80.010	19.994	103.206	20.041	3.663	0.514
1225.499	694.970	80.009	19.994	103.205	20.035	4.056	0.530
1225.999	695.197	80.010	19.994	103.205	20.039	3.817	0.524
1226.499	695.434	80.011	19.994	103.205	20.038	3.893	0.483
1226.999	695.705	80.011	19.994	103.205	20.037	3.931	0.486
1227.499	695.980	80.011	19.995	103.205	20.040	3.732	0.527
1227.999	696.203	80.010	19.995	103.206	20.037	3.972	0.522
1228.499	696.497	80.011	19.995	103.210	20.039	3.799	0.507
1229.000	696.727	80.009	19.995	103.218	20.045	3.422	0.521
1229.500	697.002	80.011	19.994	103.220	20.039	3.831	0.514
1229.999	697.239	80.009	19.994	103.220	20.040	3.720	0.508
1230.499	697.480	80.010	19.995	103.219	20.039	3.796	0.495
1230.999	697.765	80.010	19.994	103.217	20.041	3.654	0.502
1231.499	698.010	80.012	19.995	103.211	20.038	3.867	0.528
1231.999	698.286	80.012	19.995	103.211	20.042	3.650	0.526
1232.499	698.535	80.010	19.995	103.210	20.041	3.698	0.523
1232.999	698.812	80.011	19.994	103.210	20.043	3.555	0.525
1233.500	699.044	80.009	19.995	103.209	20.040	3.759	0.518
1234.000	699.324	80.010	19.995	103.208	20.042	3.613	0.511
1234.499	699.580	80.009	19.995	103.205	20.042	3.599	0.524
1234.999	699.848	80.011	19.994	103.205	20.039	3.797	0.530
1235.499	700.085	80.011	19.995	103.207	20.046	3.368	0.514
1235.999	700.327	80.012	19.996	103.207	20.039	3.843	0.492
1236.499	700.587	80.009	19.994	103.206	20.039	3.813	0.491
1236.999	700.833	80.009	19.994	103.208	20.042	3.638	0.504
1237.499	701.123	80.012	19.995	103.209	20.046	3.352	0.521
1237.999	701.345	80.011	19.994	103.210	20.040	3.719	0.524
1238.499	701.643	80.011	19.993	103.211	20.040	3.751	0.517
1239.000	701.870	80.011	19.995	103.216	20.040	3.751	0.523
1239.501	702.106	80.012	19.994	103.213	20.041	3.682	0.494
1240.000	702.408	80.011	19.994	103.212	20.042	3.590	0.500
1240.499	702.616	80.011	19.995	103.211	20.041	3.679	0.524
1240.999	702.910	80.013	19.994	103.209	20.038	3.877	0.506
1241.500	703.129	80.012	19.994	103.204	20.040	3.739	0.508
1242.000	703.389	80.013	19.995	103.205	20.042	3.645	0.496
1242.499	703.660	80.013	19.994	103.209	20.040	3.778	0.505
1243.000	703.898	80.012	19.995	103.209	20.038	3.881	0.520
1243.501	704.133	80.014	19.995	103.211	20.039	3.804	0.491
1244.000	704.383	80.011	19.995	103.211	20.037	3.929	0.479
1244.499	704.669	80.011	19.994	103.209	20.036	4.019	0.511
1244.999	704.908	80.010	19.994	103.207	20.035	4.088	0.530
1245.499	705.189	80.012	19.994	103.207	20.038	3.906	0.522
1245.999	705.423	80.011	19.994	103.205	20.040	3.753	0.517
1246.499	705.663	80.012	19.994	103.205	20.039	3.783	0.494
1246.999	705.912	80.012	19.995	103.205	20.041	3.656	0.481
1247.499	706.225	80.012	19.994	103.204	20.037	3.945	0.526
1248.000	706.463	80.011	19.994	103.204	20.038	3.852	0.557
1248.501	706.710	80.011	19.994	103.203	20.040	3.748	0.518
1249.000	706.952	80.010	19.994	103.203	20.035	4.090	0.487
1249.500	707.224	80.010	19.994	103.204	20.038	3.900	0.501
1250.000	707.470	80.012	19.993	103.206	20.040	3.778	0.516
1250.499	707.720	80.010	19.994	103.212	20.040	3.755	0.507
1251.000	707.966	80.010	19.994	103.213	20.037	3.929	0.496
1251.500	708.257	80.010	19.995	103.214	20.037	3.922	0.516
1251.999	708.503	80.010	19.995	103.214	20.039	3.840	0.537
1252.499	708.718	80.009	19.993	103.212	20.042	3.631	0.500
1252.999	708.998	80.008	19.994	103.207	20.035	4.074	0.478
1253.499	709.299	80.009	19.994	103.206	20.039	3.796	0.538
1253.999	709.535	80.008	19.995	103.206	20.038	3.856	0.559
1254.499	709.768	80.009	19.994	103.206	20.041	3.686	0.503
1255.000	710.002	80.008	19.994	103.206	20.037	3.962	0.468
1255.501	710.265	80.010	19.994	103.207	20.042	3.645	0.482
1256.001	710.556	80.008	19.995	103.207	20.041	3.704	0.526
1256.501	710.794	80.010	19.993	103.209	20.042	3.634	0.542
1257.001	711.072	80.009	19.993	103.210	20.041	3.661	0.523
1257.501	711.321	80.010	19.994	103.210	20.039	3.847	0.521
1258.001	711.545	80.011	19.994	103.210	20.039	3.797	0.499
1258.501	711.778	80.009	19.993	103.210	20.037	3.952	0.465
1259.000	712.028	80.008	19.993	103.208	20.039	3.847	0.470
1259.500	712.263	80.009	19.993	103.207	20.043	3.544	0.484
1260.001	712.581	80.009	19.995	103.206	20.040	3.767	0.519
1260.501	712.841	80.008	19.993	103.207	20.039	3.831	0.565
1261.000	713.107	80.009	19.994	103.206	20.042	3.617	0.552
1261.499	713.341	80.008	19.993	103.207	20.039	3.799	0.513
1261.999	713.537	80.008	19.994	103.207	20.039	3.837	0.465
1262.499	713.815	80.010	19.995	103.208	20.037	3.950	0.452
1262.999	714.100	80.009	19.994	103.208	20.036	4.010	0.518
1263.500	714.307	80.011	19.994	103.208	20.038	3.893	0.527
1264.001	714.628	80.008	19.995	103.207	20.037	3.948	0.510
1264.501	714.857	80.009	19.994	103.207	20.037	3.959	0.539
1265.001	715.133	80.009	19.994	103.207	20.035	4.071	0.528
1265.500	715.369	80.008	19.994	103.207	20.041	3.675	0.509
1265.999	715.668	80.008	19.995	103.208	20.040	3.732	0.524
1266.499	715.888	80.009	19.993	103.208	20.038	3.874	0.527
1266.999	716.157	80.010	19.993	103.208	20.041	3.698	0.504
1267.499	716.432	80.008	19.993	103.208	20.042	3.619	0.517
1267.999	716.629	80.008	19.994	103.207	20.039	3.799	0.508
1268.500	716.929	80.009	19.994	103.207	20.040	3.723	0.485
1269.000	717.183	80.008	19.994	103.207	20.041	3.682	0.525
1269.499	717.460	80.008	19.995	103.207	20.037	3.959	0.542
1269.999	717.693	80.008	19.993	103.207	20.040	3.751	0.520
1270.499	717.924	80.009	19.994	103.208	20.035	4.070	0.487
1270.999	718.199	80.009	19.994	103.208	20.043	3.585	0.486
1271.499	718.451	80.008	19.995	103.209	20.036	3.996	0.517
1272.000	718.681	80.007	19.994	103.210	20.037	3.955	0.504
1272.500	718.964	80.010	19.994	103.211	20.040	3.741	0.497
1272.999	719.227	80.009	19.994	103.211	20.041	3.707	0.529
1273.499	719.516	80.008	19.996	103.211	20.037	3.918	0.549
1273.999	719.732	80.008	19.994	103.211	20.038	3.907	0.529
1274.500	719.998	80.008	19.995	103.209	20.038	3.907	0.494
1275.001	720.257	80.009	19.995	103.210	20.041	3.657	0.503
1275.500	720.524	80.009	19.995	103.210	20.044	3.512	0.526
1275.999	720.769	80.009	19.995	103.210	20.043	3.555	0.519
1276.499	721.014	80.008	19.996	103.209	20.042	3.641	0.501
1277.000	721.283	80.009	19.995	103.209	20.041	3.668	0.503
1277.500	721.535	80.010	19.995	103.210	20.042	3.633	0.518
1278.000	721.806	80.010	19.994	103.212	20.042	3.641	0.522
1278.501	722.065	80.009	19.995	103.211	20.045	3.429	0.526
1279.001	722.324	80.010	19.994	103.211	20.045	3.429	0.524
1279.500	722.579	80.008	19.995	103.210	20.039	3.843	0.516
1280.000	722.821	80.009	19.995	103.206	20.046	3.377	0.506
1280.501	723.068	80.010	19.995	103.202	20.045	3.450	0.493
1281.001	723.369	80.009	19.995	103.202	20.041	3.663	0.518
1281.501	723.602	80.010	19.996	103.201	20.038	3.861	0.541
1282.001	723.846	80.008	19.995	103.202	20.042	3.615	0.505
1282.501	724.119	80.009	19.995	103.204	20.042	3.618	0.497
1283.001	724.330	80.009	19.994	103.206	20.039	3.789	0.501
1283.501	724.620	80.010	19.995	103.207	20.042	3.594	0.493
1284.001	724.909	80.010	19.995	103.207	20.041	3.686	0.541
1284.500	725.129	80.009	19.995	103.207	20.043	3.567	0.544
1284.999	725.404	80.008	19.995	103.207	20.045	3.413	0.502
1285.500	725.644	80.010	19.995	103.206	20.041	3.661	0.505
1286.000	725.889	80.009	19.995	103.205	20.040	3.760	0.500
1286.499	726.141	80.010	19.995	103.206	20.045	3.413	0.491
1287.000	726.395	80.007	19.995	103.206	20.039	3.844	0.501
1287.501	726.633	80.009	19.994	103.207	20.042	3.612	0.499
1288.001	726.905	80.008	19.996	103.207	20.047	3.305	0.501
1288.501	727.161	80.009	19.994	103.208	20.044	3.496	0.519
1289.001	727.447	80.009	19.995	103.207	20.043	3.574	0.535
1289.500	727.690	80.010	19.995	103.206	20.043	3.570	0.535
1290.000	727.953	80.007	19.995	103.206	20.042	3.647	0.517
1290.500	728.229	80.008	19.995	103.206	20.042	3.599	0.523
1291.000	728.453	80.009	19.994	103.207	20.038	3.900	0.520
1291.500	728.699	80.009	19.994	103.207	20.048	3.251	0.485
1292.000	728.971	80.009	19.994	103.207	20.043	3.560	0.493
1292.500	729.213	80.009	19.994	103.208	20.045	3.390	0.515
1292.999	729.481	80.011	19.995	103.207	20.047	3.315	0.512
1293.499	729.736	80.009	19.994	103.207	20.046	3.383	0.517
1293.999	729.973	80.009	19.994	103.209	20.048	3.251	0.507
1294.499	730.230	80.008	19.995	103.208	20.046	3.352	0.493
1294.999	730.490	80.009	19.995	103.208	20.039	3.813	0.506
1295.499	730.728	80.009	19.995	103.208	20.044	3.482	0.507
1295.999	730.979	80.010	19.995	103.208	20.044	3.489	0.494
1296.499	731.294	80.012	19.995	103.206	20.045	3.425	0.528
1296.999	731.512	80.010	19.995	103.207	20.042	3.640	0.549
1297.499	731.772	80.010	19.995	103.208	20.037	3.946	0.505
1297.999	732.023	80.009	19.995	103.213	20.039	3.849	0.494
1298.499	732.271	80.010	19.995	103.213	20.041	3.679	0.505
1299.000	732.526	80.011	19.996	103.213	20.047	3.274	0.501
1299.500	732.773	80.010	19.996	103.212	20.044	3.471	0.502
1299.999	733.051	80.011	19.994	103.210	20.048	3.248	0.514
1300.499	733.308	80.009	19.995	103.205	20.039	3.795	0.530
1300.999	733.565	80.010	19.996	103.204	20.044	3.501	0.524
1301.499	733.834	80.010	19.996	103.204	20.040	3.725	0.520
1301.999	734.039	80.011	19.997	103.203	20.042	3.648	0.500
1302.499	734.312	80.010	19.995	103.203	20.043	3.537	0.476
1302.999	734.562	80.010	19.994	103.205	20.042	3.634	0.501
1303.499	734.845	80.010	19.995	103.205	20.043	3.524	0.528
1303.999	735.068	80.010	19.995	103.205	20.044	3.459	0.519
1304.499	735.308	80.010	19.996	103.206	20.042	3.618	0.484
1304.999	735.543	80.011	19.996	103.204	20.043	3.556	0.469
1305.499	735.797	80.010	19.995	103.202	20.043	3.542	0.482
1305.999	736.084	80.010	19.995	103.202	20.043	3.563	0.515
1306.499	736.353	80.010	19.996	103.201	20.039	3.804	0.548
1307.000	736.578	80.009	19.995	103.200	20.042	3.617	0.525
1307.500	736.843	80.010	19.995	103.202	20.044	3.507	0.493
1307.999	737.095	80.008	19.996	103.203	20.044	3.510	0.504
1308.499	737.333	80.008	19.995	103.203	20.043	3.555	0.503
1308.999	737.590	80.011	19.996	103.204	20.045	3.453	0.492
1309.499	737.862	80.009	19.995	103.204	20.042	3.595	0.512
1310.000	738.141	80.009	19.997	103.203	20.044	3.487	0.540
1310.500	738.387	80.010	19.996	103.202	20.042	3.624	0.538
1310.999	738.641	80.011	19.995	103.202	20.049	3.159	0.513
1311.499	738.892	80.009	19.995	103.201	20.046	3.336	0.502
1312.000	739.125	80.009	19.995	103.202	20.048	3.232	0.494
1312.501	739.388	80.009	19.995	103.204	20.045	3.393	0.490
1313.001	739.634	80.010	19.995	103.203	20.049	3.154	0.503
1313.500	739.915	80.009	19.994	103.203	20.043	3.546	0.518
1313.999	740.145	80.009	19.993	103.204	20.043	3.581	0.519
1314.500	740.411	80.009	19.995	103.203	20.041	3.695	0.503
1315.000	740.655	80.009	19.995	103.203	20.040	3.778	0.503
1315.500	740.930	80.010	19.994	103.204	20.039	3.787	0.515
1316.000	741.161	80.010	19.995	103.204	20.044	3.484	0.513
1316.500	741.429	80.010	19.994	103.204	20.046	3.358	0.502
1317.001	741.689	80.009	19.994	103.205	20.043	3.556	0.513
1317.500	741.936	80.010	19.995	103.206	20.048	3.216	0.518
1317.999	742.225	80.010	19.994	103.206	20.040	3.780	0.522
1318.499	742.443	80.011	19.995	103.206	20.041	3.686	0.522
1318.999	742.753	80.011	19.995	103.206	20.044	3.478	0.518
1319.499	742.978	80.010	19.994	103.207	20.044	3.464	0.532
1319.999	743.246	80.011	19.994	103.206	20.042	3.636	0.514
1320.499	743.464	80.011	19.994	103.207	20.041	3.703	0.489
