Sample ID:	C:\MCC\MCC Cal\Test\Bamboo_RugB_MCC_30K_min_211124_R1.txt
Sample Weight (mg):	4.69
Heating Rate (C/s):	0.5
Combustor Temp (C):	900
N2 Flow Rate (cc/min):	80
O2 Flow Rate (cc/min):	20
Calibration File:	C:\MCC\MCC Cal\Coeff1 JN10440_30_210304.txt.txt
T Correction Coefficients:	0	1.024463	0
Time Shift (s):	14
*
Time (s)	Temperature (C)	N2 flow rate (cc/min)	O2 flow rate (cc/min)	Flow Rate (cc/min)	Oxygen (%)	HRR (W/g)	Heating rate (C/s)
0.000	107.600	80.008	19.997	103.050	20.157	-0.157	0.006
0.499	107.618	80.007	19.996	103.053	20.155	-0.030	0.028
1.000	107.565	80.007	19.996	103.053	20.155	-0.026	-0.001
1.500	107.640	80.005	19.996	103.052	20.155	-0.065	-0.006
2.000	107.595	80.006	19.995	103.052	20.155	-0.054	0.026
2.499	107.567	80.006	19.995	103.052	20.155	-0.061	-0.021
3.000	107.597	80.006	19.995	103.049	20.156	-0.117	-0.036
3.500	107.569	80.005	19.995	103.049	20.156	-0.093	0.002
4.000	107.592	80.006	19.996	103.049	20.155	-0.043	-0.001
4.499	107.595	80.006	19.996	103.049	20.157	-0.148	0.010
5.000	107.599	80.005	19.995	103.049	20.154	0.031	0.016
5.500	107.580	80.005	19.996	103.051	20.154	0.054	-0.004
6.000	107.627	80.005	19.996	103.053	20.154	0.026	0.006
6.500	107.589	80.004	19.996	103.054	20.157	-0.157	0.018
7.000	107.608	80.005	19.996	103.054	20.154	-0.004	-0.005
7.500	107.591	80.005	19.996	103.055	20.156	-0.137	-0.008
8.000	107.589	80.004	19.995	103.055	20.153	0.091	-0.009
8.499	107.588	80.006	19.995	103.059	20.155	-0.065	-0.011
9.000	107.585	80.006	19.996	103.061	20.156	-0.093	-0.004
9.501	107.580	80.005	19.997	103.066	20.154	0.031	-0.006
10.001	107.559	80.006	19.995	103.072	20.154	0.048	-0.017
10.500	107.556	80.006	19.995	103.078	20.148	0.426	-0.025
10.999	107.586	80.005	19.996	103.087	20.150	0.319	0.002
11.499	107.612	80.005	19.996	103.101	20.147	0.539	0.042
11.999	107.630	80.004	19.996	103.115	20.147	0.504	0.050
12.499	107.598	80.006	19.997	103.133	20.146	0.582	0.015
12.999	107.632	80.007	19.996	103.154	20.141	0.917	-0.006
13.499	107.633	80.006	19.997	103.171	20.143	0.764	0.019
13.999	107.638	80.006	19.996	103.182	20.143	0.808	0.020
14.499	107.661	80.005	19.997	103.189	20.141	0.903	0.017
14.999	107.643	80.006	19.995	103.195	20.137	1.199	0.017
15.499	107.678	80.006	19.997	103.196	20.136	1.296	0.011
15.999	107.700	80.007	19.996	103.197	20.134	1.375	0.037
16.500	107.745	80.006	19.995	103.201	20.136	1.288	0.062
17.000	107.740	80.006	19.995	103.206	20.133	1.472	0.053
17.500	107.800	80.007	19.995	103.211	20.129	1.748	0.048
18.000	107.826	80.007	19.995	103.219	20.129	1.750	0.071
18.500	107.842	80.006	19.994	103.227	20.128	1.841	0.064
19.000	107.834	80.007	19.995	103.235	20.131	1.600	0.025
19.500	107.898	80.008	19.995	103.242	20.129	1.739	0.032
20.000	107.968	80.007	19.995	103.245	20.129	1.724	0.095
20.500	107.948	80.007	19.996	103.246	20.127	1.893	0.092
21.000	108.000	80.007	19.996	103.247	20.127	1.915	0.041
21.500	108.048	80.008	19.995	103.252	20.123	2.147	0.065
22.000	108.104	80.009	19.994	103.255	20.120	2.384	0.102
22.500	108.166	80.006	19.995	103.259	20.122	2.228	0.112
23.000	108.186	80.008	19.995	103.263	20.121	2.310	0.101
23.500	108.257	80.007	19.996	103.266	20.121	2.286	0.086
24.000	108.300	80.007	19.995	103.268	20.119	2.432	0.102
24.500	108.368	80.007	19.994	103.271	20.118	2.484	0.112
25.000	108.396	80.007	19.994	103.273	20.118	2.499	0.103
25.500	108.503	80.008	19.995	103.276	20.117	2.568	0.116
26.000	108.540	80.007	19.995	103.278	20.118	2.510	0.140
26.500	108.590	80.005	19.995	103.278	20.116	2.661	0.116
27.000	108.633	80.007	19.995	103.280	20.119	2.449	0.090
27.500	108.739	80.006	19.993	103.281	20.119	2.414	0.121
28.000	108.821	80.006	19.995	103.282	20.117	2.590	0.169
28.500	108.885	80.005	19.995	103.283	20.119	2.442	0.168
29.000	108.932	80.006	19.995	103.284	20.119	2.425	0.128
29.500	109.027	80.006	19.995	103.285	20.117	2.592	0.126
30.000	109.121	80.005	19.995	103.285	20.119	2.416	0.166
30.500	109.182	80.005	19.996	103.285	20.115	2.674	0.172
31.000	109.278	80.007	19.994	103.286	20.113	2.837	0.156
31.500	109.360	80.008	19.995	103.287	20.113	2.820	0.167
32.000	109.437	80.005	19.995	103.287	20.116	2.646	0.168
32.499	109.520	80.005	19.995	103.290	20.113	2.859	0.159
32.999	109.603	80.005	19.994	103.295	20.114	2.802	0.163
33.499	109.689	80.005	19.995	103.299	20.112	2.896	0.167
33.999	109.784	80.006	19.995	103.301	20.109	3.111	0.175
34.499	109.903	80.006	19.996	103.303	20.115	2.737	0.198
34.999	110.005	80.006	19.995	103.305	20.111	2.996	0.218
35.500	110.094	80.006	19.995	103.307	20.110	3.035	0.206
36.000	110.234	80.007	19.995	103.307	20.114	2.796	0.210
36.499	110.314	80.006	19.994	103.311	20.111	2.997	0.225
36.999	110.442	80.007	19.995	103.313	20.111	2.984	0.214
37.499	110.516	80.005	19.995	103.311	20.113	2.867	0.205
37.999	110.642	80.006	19.995	103.305	20.111	2.958	0.201
38.500	110.697	80.008	19.995	103.302	20.111	2.973	0.191
39.000	110.866	80.006	19.996	103.300	20.110	3.084	0.202
39.499	110.956	80.006	19.995	103.301	20.110	3.034	0.241
39.999	111.082	80.007	19.996	103.305	20.106	3.331	0.237
40.499	111.233	80.007	19.995	103.311	20.111	2.988	0.247
40.999	111.338	80.009	19.995	103.316	20.110	3.019	0.267
41.499	111.467	80.010	19.995	103.319	20.107	3.225	0.245
41.999	111.597	80.007	19.995	103.319	20.105	3.363	0.247
42.499	111.692	80.008	19.995	103.320	20.106	3.329	0.242
42.999	111.832	80.009	19.995	103.320	20.107	3.235	0.230
43.499	111.963	80.007	19.995	103.319	20.108	3.192	0.253
43.999	112.085	80.009	19.995	103.318	20.105	3.411	0.262
44.499	112.220	80.008	19.995	103.318	20.108	3.179	0.255
44.999	112.373	80.007	19.994	103.318	20.105	3.428	0.272
45.499	112.518	80.009	19.995	103.319	20.103	3.558	0.293
45.999	112.652	80.007	19.995	103.320	20.105	3.420	0.289
46.499	112.799	80.007	19.995	103.322	20.105	3.369	0.280
46.999	112.913	80.008	19.995	103.322	20.102	3.604	0.271
47.499	113.037	80.007	19.995	103.322	20.102	3.576	0.250
48.000	113.187	80.009	19.997	103.321	20.106	3.326	0.256
48.500	113.325	80.008	19.994	103.322	20.104	3.489	0.281
48.999	113.429	80.007	19.995	103.322	20.102	3.611	0.265
49.499	113.611	80.007	19.994	103.327	20.104	3.454	0.263
50.000	113.761	80.007	19.994	103.332	20.105	3.419	0.309
50.501	113.904	80.006	19.993	103.336	20.104	3.445	0.313
51.000	114.093	80.007	19.993	103.341	20.103	3.561	0.313
51.499	114.226	80.007	19.995	103.345	20.103	3.554	0.327
52.000	114.365	80.006	19.994	103.344	20.100	3.752	0.297
52.501	114.557	80.006	19.994	103.342	20.102	3.584	0.301
53.000	114.709	80.006	19.994	103.344	20.102	3.634	0.338
53.499	114.845	80.006	19.994	103.344	20.102	3.632	0.316
53.999	115.045	80.006	19.994	103.345	20.103	3.515	0.312
54.499	115.150	80.005	19.995	103.346	20.099	3.812	0.320
54.999	115.348	80.006	19.994	103.348	20.101	3.682	0.304
55.499	115.510	80.006	19.995	103.348	20.101	3.678	0.332
55.999	115.675	80.005	19.995	103.350	20.097	3.958	0.344
56.499	115.846	80.006	19.994	103.352	20.098	3.858	0.332
57.000	116.038	80.006	19.995	103.354	20.100	3.723	0.350
57.501	116.178	80.005	19.995	103.358	20.098	3.880	0.347
58.000	116.342	80.007	19.994	103.359	20.098	3.901	0.318
58.500	116.507	80.006	19.995	103.358	20.098	3.877	0.316
59.000	116.698	80.006	19.995	103.356	20.098	3.908	0.342
59.499	116.865	80.006	19.996	103.356	20.100	3.765	0.357
59.999	117.063	80.005	19.995	103.356	20.097	3.932	0.362
60.500	117.246	80.005	19.994	103.356	20.099	3.821	0.373
61.000	117.461	80.006	19.994	103.356	20.097	3.916	0.390
61.500	117.624	80.006	19.996	103.357	20.096	4.040	0.388
62.001	117.833	80.006	19.994	103.354	20.099	3.810	0.375
62.501	117.974	80.006	19.995	103.353	20.098	3.910	0.361
63.000	118.157	80.005	19.995	103.353	20.097	3.958	0.337
63.499	118.397	80.005	19.994	103.352	20.096	4.029	0.374
63.999	118.576	80.006	19.995	103.351	20.097	3.955	0.421
64.499	118.758	80.006	19.995	103.354	20.098	3.912	0.390
64.999	118.924	80.005	19.994	103.355	20.095	4.110	0.355
65.499	119.169	80.005	19.994	103.355	20.099	3.838	0.380
65.999	119.358	80.005	19.995	103.351	20.098	3.873	0.422
66.500	119.502	80.005	19.995	103.350	20.096	3.989	0.383
67.000	119.707	80.006	19.996	103.349	20.097	3.917	0.341
67.499	119.924	80.004	19.994	103.349	20.097	3.930	0.386
67.999	120.110	80.005	19.995	103.348	20.101	3.639	0.413
68.499	120.308	80.006	19.994	103.352	20.099	3.819	0.394
69.000	120.494	80.006	19.994	103.351	20.097	3.966	0.384
69.500	120.699	80.005	19.994	103.351	20.100	3.706	0.387
69.999	120.944	80.005	19.995	103.352	20.098	3.843	0.420
70.499	121.122	80.006	19.994	103.353	20.099	3.814	0.436
70.999	121.333	80.007	19.994	103.355	20.098	3.901	0.406
71.500	121.524	80.006	19.996	103.358	20.096	4.031	0.395
72.001	121.734	80.006	19.994	103.357	20.099	3.827	0.401
72.500	121.946	80.006	19.994	103.356	20.099	3.823	0.412
72.999	122.183	80.007	19.995	103.355	20.098	3.871	0.436
73.499	122.412	80.007	19.994	103.355	20.097	3.973	0.457
74.000	122.601	80.008	19.994	103.356	20.097	3.919	0.442
74.501	122.802	80.006	19.994	103.357	20.097	3.945	0.404
75.000	123.022	80.006	19.994	103.357	20.097	3.923	0.406
75.500	123.231	80.006	19.994	103.356	20.099	3.841	0.425
76.001	123.472	80.005	19.994	103.355	20.096	4.042	0.439
76.500	123.663	80.006	19.995	103.355	20.097	3.917	0.441
76.999	123.845	80.004	19.995	103.350	20.097	3.965	0.403
77.500	124.076	80.006	19.995	103.345	20.097	3.949	0.393
78.000	124.298	80.005	19.994	103.346	20.101	3.652	0.433
78.499	124.507	80.005	19.995	103.345	20.099	3.780	0.441
78.999	124.769	80.006	19.994	103.343	20.100	3.720	0.451
79.499	124.966	80.004	19.993	103.346	20.100	3.724	0.465
79.999	125.189	80.007	19.994	103.350	20.103	3.561	0.440
80.499	125.405	80.006	19.994	103.349	20.101	3.672	0.429
80.999	125.636	80.006	19.994	103.349	20.102	3.620	0.443
81.499	125.853	80.007	19.995	103.353	20.105	3.390	0.448
81.999	126.103	80.006	19.995	103.355	20.101	3.685	0.457
82.499	126.307	80.006	19.995	103.355	20.105	3.398	0.460
82.999	126.518	80.006	19.994	103.357	20.099	3.813	0.434
83.499	126.753	80.007	19.994	103.359	20.102	3.594	0.431
83.999	126.987	80.004	19.993	103.358	20.099	3.778	0.458
84.499	127.232	80.005	19.993	103.359	20.101	3.672	0.474
84.999	127.443	80.006	19.994	103.358	20.099	3.798	0.467
85.499	127.685	80.006	19.994	103.355	20.102	3.629	0.454
86.000	127.922	80.006	19.994	103.352	20.103	3.561	0.466
86.500	128.141	80.004	19.995	103.348	20.100	3.705	0.468
86.999	128.326	80.007	19.995	103.348	20.099	3.826	0.430
87.500	128.614	80.006	19.994	103.346	20.096	3.993	0.438
88.001	128.840	80.006	19.994	103.344	20.098	3.868	0.494
88.501	129.085	80.006	19.994	103.344	20.099	3.813	0.492
89.000	129.277	80.006	19.994	103.345	20.096	4.026	0.454
89.499	129.535	80.005	19.993	103.343	20.098	3.904	0.443
89.999	129.779	80.006	19.994	103.342	20.098	3.878	0.476
90.500	130.017	80.007	19.994	103.343	20.097	3.952	0.492
91.001	130.219	80.006	19.994	103.343	20.100	3.718	0.461
91.501	130.469	80.007	19.994	103.343	20.098	3.892	0.446
92.000	130.679	80.004	19.995	103.341	20.100	3.742	0.456
92.499	130.957	80.004	19.995	103.338	20.097	3.913	0.474
92.999	131.209	80.006	19.995	103.338	20.099	3.837	0.509
93.500	131.456	80.005	19.994	103.336	20.102	3.603	0.515
94.000	131.696	80.008	19.995	103.335	20.100	3.709	0.493
94.499	131.895	80.006	19.994	103.335	20.101	3.648	0.463
94.999	132.153	80.006	19.994	103.336	20.099	3.800	0.448
95.500	132.385	80.006	19.995	103.334	20.097	3.924	0.474
96.000	132.634	80.007	19.995	103.335	20.101	3.670	0.486
96.499	132.878	80.007	19.995	103.333	20.100	3.749	0.487
97.000	133.110	80.006	19.995	103.331	20.100	3.760	0.484
97.501	133.364	80.006	19.994	103.331	20.100	3.772	0.481
98.001	133.616	80.007	19.995	103.331	20.098	3.861	0.496
98.500	133.794	80.008	19.995	103.329	20.101	3.668	0.468
98.999	134.100	80.006	19.995	103.329	20.099	3.799	0.457
99.499	134.314	80.007	19.995	103.330	20.097	3.974	0.502
99.999	134.572	80.008	19.995	103.331	20.100	3.727	0.496
100.499	134.830	80.005	19.995	103.333	20.103	3.566	0.494
100.999	135.048	80.007	19.995	103.334	20.100	3.729	0.496
101.499	135.287	80.006	19.995	103.332	20.102	3.612	0.466
101.999	135.512	80.007	19.995	103.331	20.103	3.519	0.460
102.500	135.760	80.008	19.995	103.328	20.103	3.558	0.469
103.000	136.013	80.008	19.995	103.327	20.101	3.683	0.487
103.499	136.235	80.008	19.995	103.326	20.101	3.701	0.488
104.000	136.534	80.007	19.996	103.326	20.101	3.658	0.498
104.500	136.725	80.007	19.994	103.329	20.102	3.627	0.506
104.999	136.963	80.007	19.995	103.330	20.102	3.614	0.460
105.499	137.218	80.007	19.995	103.329	20.105	3.403	0.461
105.999	137.478	80.006	19.996	103.329	20.100	3.723	0.504
106.499	137.699	80.006	19.995	103.327	20.101	3.638	0.498
106.999	137.975	80.007	19.995	103.323	20.102	3.616	0.489
107.499	138.239	80.006	19.996	103.323	20.099	3.818	0.519
107.999	138.475	80.007	19.996	103.322	20.102	3.575	0.520
108.500	138.744	80.007	19.995	103.321	20.102	3.584	0.502
109.001	138.976	80.006	19.995	103.321	20.102	3.586	0.503
109.500	139.236	80.005	19.996	103.321	20.097	3.937	0.496
110.000	139.493	80.005	19.995	103.320	20.103	3.519	0.504
110.501	139.716	80.007	19.995	103.320	20.101	3.673	0.498
111.001	139.972	80.007	19.995	103.320	20.101	3.694	0.480
111.500	140.233	80.007	19.995	103.320	20.102	3.588	0.498
111.999	140.445	80.006	19.995	103.321	20.099	3.818	0.495
112.499	140.723	80.007	19.994	103.321	20.101	3.653	0.481
112.999	141.012	80.007	19.995	103.321	20.104	3.447	0.529
113.499	141.230	80.008	19.995	103.322	20.103	3.527	0.537
114.000	141.529	80.007	19.995	103.321	20.100	3.727	0.512
114.500	141.758	80.007	19.994	103.321	20.103	3.555	0.522
114.999	142.004	80.008	19.995	103.321	20.103	3.514	0.502
115.500	142.235	80.006	19.994	103.321	20.103	3.549	0.476
116.000	142.519	80.007	19.995	103.321	20.101	3.681	0.496
116.499	142.719	80.007	19.994	103.321	20.098	3.849	0.499
117.000	143.006	80.006	19.996	103.320	20.102	3.593	0.485
117.500	143.270	80.007	19.995	103.321	20.103	3.564	0.519
117.999	143.517	80.008	19.996	103.321	20.102	3.623	0.531
118.499	143.784	80.007	19.994	103.321	20.100	3.727	0.513
118.999	144.051	80.008	19.994	103.321	20.103	3.499	0.524
119.499	144.318	80.009	19.996	103.321	20.103	3.521	0.534
119.999	144.593	80.007	19.995	103.321	20.105	3.397	0.538
120.499	144.817	80.010	19.995	103.320	20.105	3.378	0.520
120.999	145.049	80.009	19.994	103.320	20.106	3.351	0.478
121.499	145.306	80.007	19.995	103.319	20.104	3.452	0.472
121.999	145.554	80.008	19.995	103.319	20.105	3.412	0.497
122.499	145.795	80.008	19.996	103.318	20.104	3.449	0.497
122.999	146.088	80.008	19.995	103.318	20.106	3.304	0.512
123.500	146.325	80.008	19.996	103.318	20.106	3.336	0.532
124.000	146.567	80.009	19.995	103.318	20.109	3.154	0.504
124.499	146.811	80.010	19.995	103.318	20.106	3.304	0.482
124.999	147.076	80.008	19.995	103.318	20.105	3.376	0.497
125.499	147.319	80.008	19.995	103.318	20.105	3.419	0.509
126.000	147.563	80.008	19.995	103.318	20.108	3.170	0.498
126.500	147.821	80.009	19.996	103.318	20.105	3.408	0.494
126.999	148.092	80.009	19.996	103.318	20.105	3.398	0.515
127.500	148.343	80.008	19.995	103.318	20.103	3.526	0.526
128.000	148.598	80.007	19.995	103.318	20.105	3.426	0.515
128.500	148.879	80.008	19.996	103.318	20.102	3.579	0.521
129.000	149.092	80.008	19.995	103.318	20.105	3.391	0.515
129.500	149.363	80.007	19.996	103.318	20.104	3.475	0.489
130.000	149.616	80.007	19.996	103.318	20.105	3.399	0.504
130.500	149.882	80.007	19.996	103.317	20.105	3.384	0.521
131.000	150.091	80.007	19.996	103.316	20.103	3.552	0.497
131.500	150.377	80.007	19.996	103.317	20.103	3.524	0.485
132.000	150.634	80.005	19.995	103.316	20.107	3.265	0.519
132.500	150.863	80.005	19.997	103.316	20.106	3.350	0.515
133.000	151.135	80.006	19.996	103.317	20.105	3.402	0.493
133.500	151.383	80.006	19.996	103.317	20.105	3.395	0.510
134.000	151.652	80.006	19.997	103.317	20.105	3.369	0.518
134.500	151.901	80.005	19.996	103.317	20.104	3.472	0.518
135.000	152.196	80.007	19.996	103.317	20.105	3.380	0.532
135.500	152.429	80.005	19.997	103.314	20.107	3.250	0.536
136.000	152.685	80.005	19.997	103.310	20.106	3.339	0.509
136.500	152.899	80.006	19.996	103.308	20.106	3.304	0.479
137.000	153.169	80.005	19.997	103.305	20.104	3.474	0.476
137.500	153.409	80.005	19.996	103.304	20.104	3.448	0.497
138.000	153.678	80.005	19.996	103.305	20.106	3.355	0.510
138.500	153.959	80.004	19.995	103.310	20.103	3.530	0.530
139.000	154.166	80.005	19.995	103.314	20.104	3.483	0.519
139.500	154.398	80.006	19.995	103.317	20.108	3.172	0.463
140.000	154.665	80.004	19.994	103.318	20.106	3.318	0.469
140.500	154.931	80.006	19.995	103.318	20.105	3.387	0.517
141.000	155.138	80.005	19.995	103.312	20.106	3.303	0.503
141.500	155.395	80.005	19.994	103.309	20.106	3.313	0.469
142.000	155.650	80.006	19.993	103.308	20.105	3.409	0.488
142.500	155.920	80.006	19.994	103.306	20.106	3.344	0.518
143.000	156.172	80.005	19.997	103.308	20.105	3.370	0.523
143.500	156.392	80.006	19.996	103.312	20.105	3.363	0.497
144.000	156.645	80.006	19.995	103.309	20.105	3.413	0.472
144.500	156.900	80.005	19.994	103.304	20.103	3.515	0.491
145.000	157.162	80.006	19.995	103.303	20.104	3.472	0.513
145.500	157.423	80.005	19.994	103.300	20.103	3.542	0.520
146.000	157.662	80.007	19.996	103.299	20.105	3.363	0.511
146.500	157.907	80.007	19.995	103.298	20.107	3.248	0.492
147.000	158.193	80.006	19.995	103.301	20.107	3.244	0.508
147.500	158.426	80.007	19.994	103.298	20.105	3.402	0.525
148.000	158.662	80.007	19.995	103.295	20.105	3.413	0.494
148.500	158.922	80.007	19.995	103.292	20.102	3.600	0.482
149.000	159.158	80.008	19.996	103.292	20.105	3.422	0.496
149.500	159.429	80.007	19.995	103.291	20.105	3.414	0.502
150.000	159.630	80.007	19.996	103.292	20.104	3.442	0.490
150.500	159.905	80.006	19.995	103.294	20.100	3.718	0.474
151.000	160.165	80.006	19.995	103.295	20.104	3.448	0.505
151.500	160.388	80.007	19.995	103.296	20.106	3.342	0.508
152.000	160.673	80.006	19.995	103.295	20.105	3.407	0.496
152.500	160.925	80.006	19.994	103.296	20.106	3.353	0.523
153.000	161.155	80.007	19.995	103.294	20.103	3.563	0.510
153.500	161.413	80.005	19.995	103.292	20.105	3.374	0.485
154.000	161.679	80.006	19.995	103.291	20.106	3.348	0.506
154.500	161.938	80.008	19.994	103.290	20.103	3.539	0.524
155.000	162.179	80.006	19.995	103.289	20.102	3.578	0.512
155.500	162.426	80.006	19.995	103.290	20.103	3.509	0.494
156.000	162.639	80.006	19.994	103.289	20.101	3.687	0.474
156.500	162.916	80.005	19.994	103.288	20.103	3.555	0.475
157.000	163.132	80.005	19.994	103.288	20.099	3.778	0.491
157.500	163.400	80.006	19.995	103.288	20.103	3.557	0.489
158.000	163.649	80.006	19.994	103.288	20.102	3.568	0.501
158.500	163.909	80.005	19.995	103.288	20.104	3.485	0.513
159.000	164.171	80.006	19.994	103.287	20.100	3.768	0.515
159.500	164.406	80.005	19.993	103.288	20.103	3.565	0.509
160.000	164.699	80.005	19.995	103.288	20.101	3.650	0.513
160.500	164.920	80.005	19.994	103.288	20.100	3.744	0.521
161.000	165.179	80.005	19.995	103.288	20.103	3.538	0.497
161.500	165.442	80.005	19.994	103.288	20.099	3.789	0.501
162.000	165.665	80.004	19.995	103.287	20.102	3.579	0.504
162.500	165.919	80.005	19.994	103.287	20.104	3.468	0.482
163.000	166.169	80.005	19.994	103.287	20.104	3.490	0.491
163.500	166.452	80.006	19.995	103.287	20.106	3.333	0.518
164.000	166.669	80.007	19.995	103.288	20.102	3.622	0.516
164.500	166.928	80.005	19.994	103.290	20.101	3.681	0.488
165.000	167.167	80.004	19.994	103.291	20.105	3.407	0.488
165.500	167.408	80.005	19.994	103.292	20.105	3.422	0.489
166.000	167.648	80.005	19.994	103.292	20.101	3.644	0.480
166.500	167.897	80.005	19.995	103.290	20.103	3.498	0.485
167.000	168.135	80.006	19.994	103.288	20.102	3.605	0.488
167.500	168.396	80.007	19.994	103.286	20.098	3.859	0.493
168.000	168.634	80.006	19.994	103.286	20.101	3.698	0.499
168.500	168.886	80.006	19.994	103.285	20.099	3.820	0.494
169.000	169.133	80.006	19.996	103.287	20.100	3.757	0.494
169.500	169.389	80.006	19.995	103.287	20.099	3.829	0.501
170.000	169.591	80.007	19.994	103.287	20.099	3.800	0.481
170.500	169.841	80.006	19.995	103.286	20.101	3.651	0.455
171.000	170.111	80.006	19.995	103.286	20.103	3.540	0.486
171.500	170.373	80.006	19.995	103.283	20.099	3.837	0.526
172.000	170.599	80.006	19.994	103.283	20.098	3.842	0.510
172.500	170.844	80.006	19.994	103.282	20.098	3.848	0.480
173.000	171.097	80.008	19.994	103.283	20.100	3.724	0.484
173.500	171.303	80.007	19.995	103.283	20.102	3.594	0.478
174.000	171.564	80.007	19.994	103.283	20.100	3.712	0.463
174.500	171.816	80.007	19.994	103.283	20.101	3.677	0.490
175.000	172.046	80.008	19.994	103.283	20.101	3.701	0.498
175.500	172.316	80.008	19.994	103.283	20.100	3.712	0.491
176.000	172.585	80.009	19.995	103.283	20.100	3.768	0.519
176.500	172.816	80.009	19.994	103.283	20.100	3.747	0.520
177.000	173.052	80.008	19.995	103.283	20.099	3.777	0.484
177.500	173.298	80.008	19.994	103.283	20.099	3.825	0.474
178.000	173.575	80.009	19.994	103.282	20.100	3.740	0.502
178.500	173.817	80.009	19.995	103.283	20.102	3.610	0.521
179.000	174.023	80.009	19.995	103.283	20.097	3.927	0.483
179.500	174.326	80.009	19.994	103.282	20.102	3.625	0.478
180.000	174.508	80.008	19.994	103.282	20.101	3.696	0.497
180.500	174.756	80.010	19.994	103.281	20.103	3.550	0.458
181.000	175.002	80.009	19.995	103.281	20.102	3.581	0.462
181.500	175.224	80.009	19.993	103.281	20.100	3.750	0.481
182.000	175.480	80.008	19.994	103.281	20.103	3.514	0.473
182.500	175.704	80.008	19.995	103.281	20.100	3.766	0.479
183.000	175.953	80.007	19.994	103.282	20.100	3.716	0.477
183.500	176.185	80.009	19.994	103.282	20.099	3.835	0.477
184.000	176.467	80.009	19.994	103.282	20.101	3.644	0.497
184.500	176.693	80.008	19.995	103.281	20.102	3.568	0.511
185.000	176.932	80.009	19.994	103.275	20.100	3.765	0.487
185.500	177.153	80.008	19.995	103.270	20.102	3.588	0.463
186.000	177.424	80.007	19.994	103.265	20.103	3.500	0.476
186.500	177.684	80.008	19.994	103.264	20.099	3.774	0.511
187.000	177.926	80.008	19.994	103.262	20.100	3.737	0.516
187.500	178.172	80.007	19.994	103.266	20.100	3.770	0.495
188.000	178.407	80.007	19.994	103.270	20.097	3.937	0.484
188.500	178.665	80.007	19.995	103.271	20.100	3.731	0.487
189.000	178.878	80.007	19.996	103.269	20.101	3.687	0.482
189.500	179.147	80.009	19.994	103.270	20.101	3.685	0.477
190.000	179.395	80.008	19.996	103.273	20.099	3.807	0.500
190.500	179.621	80.008	19.996	103.275	20.099	3.839	0.496
191.000	179.868	80.008	19.995	103.278	20.098	3.887	0.474
191.500	180.090	80.006	19.996	103.282	20.100	3.720	0.471
192.000	180.337	80.007	19.996	103.283	20.098	3.883	0.469
192.500	180.583	80.008	19.995	103.283	20.098	3.872	0.481
193.000	180.795	80.006	19.995	103.283	20.094	4.132	0.475
193.500	181.080	80.008	19.996	103.283	20.095	4.089	0.478
194.000	181.338	80.007	19.995	103.283	20.095	4.081	0.520
194.500	181.584	80.009	19.995	103.282	20.096	4.007	0.523
195.000	181.830	80.009	19.995	103.282	20.098	3.872	0.498
195.500	182.060	80.009	19.996	103.281	20.097	3.970	0.484
196.000	182.306	80.006	19.996	103.281	20.098	3.883	0.475
196.500	182.550	80.008	19.996	103.281	20.097	3.913	0.483
197.000	182.765	80.008	19.995	103.282	20.096	4.044	0.475
197.500	182.985	80.009	19.995	103.282	20.100	3.761	0.447
198.000	183.270	80.008	19.995	103.282	20.098	3.841	0.470
198.500	183.483	80.008	19.996	103.282	20.097	3.944	0.501
199.000	183.742	80.008	19.995	103.281	20.098	3.892	0.485
199.500	184.000	80.010	19.995	103.280	20.098	3.889	0.495
200.000	184.212	80.007	19.995	103.278	20.095	4.083	0.494
200.500	184.459	80.008	19.994	103.277	20.096	3.996	0.464
201.000	184.699	80.008	19.994	103.276	20.097	3.978	0.473
201.500	184.964	80.009	19.995	103.275	20.094	4.161	0.496
202.000	185.188	80.009	19.995	103.277	20.098	3.890	0.497
202.500	185.444	80.010	19.994	103.279	20.095	4.101	0.485
203.000	185.700	80.008	19.994	103.279	20.099	3.809	0.496
203.500	185.938	80.010	19.996	103.280	20.097	3.974	0.503
204.000	186.168	80.009	19.994	103.281	20.096	4.039	0.482
204.500	186.469	80.010	19.995	103.279	20.095	4.085	0.500
205.000	186.676	80.009	19.993	103.278	20.096	3.983	0.520
205.500	186.920	80.009	19.994	103.278	20.096	4.022	0.479
206.000	187.170	80.008	19.994	103.279	20.096	4.013	0.472
206.500	187.405	80.009	19.994	103.280	20.096	4.030	0.489
207.000	187.588	80.009	19.995	103.281	20.094	4.150	0.451
207.500	187.876	80.008	19.995	103.281	20.094	4.156	0.445
208.000	188.109	80.008	19.994	103.281	20.095	4.067	0.497
208.500	188.361	80.007	19.994	103.281	20.094	4.143	0.503
209.000	188.600	80.007	19.994	103.281	20.094	4.167	0.488
209.500	188.864	80.007	19.995	103.281	20.092	4.283	0.497
210.000	189.117	80.006	19.994	103.281	20.094	4.120	0.510
210.500	189.330	80.006	19.996	103.281	20.092	4.295	0.491
211.000	189.583	80.007	19.995	103.281	20.093	4.226	0.466
211.500	189.803	80.007	19.995	103.281	20.097	3.974	0.470
212.000	190.060	80.006	19.995	103.277	20.094	4.174	0.475
212.500	190.345	80.006	19.995	103.275	20.092	4.289	0.509
213.000	190.549	80.005	19.994	103.273	20.095	4.065	0.515
213.500	190.828	80.005	19.995	103.269	20.092	4.265	0.486
214.000	191.065	80.004	19.996	103.269	20.093	4.185	0.500
214.500	191.288	80.006	19.996	103.274	20.093	4.246	0.489
215.000	191.543	80.004	19.996	103.276	20.091	4.359	0.469
215.500	191.792	80.006	19.995	103.278	20.095	4.068	0.490
216.000	192.054	80.006	19.995	103.281	20.096	4.029	0.508
216.500	192.292	80.007	19.995	103.282	20.094	4.170	0.506
217.000	192.509	80.006	19.995	103.282	20.095	4.089	0.478
217.500	192.737	80.005	19.996	103.282	20.096	4.031	0.450
218.000	193.021	80.005	19.994	103.280	20.092	4.257	0.478
218.500	193.236	80.006	19.995	103.279	20.091	4.370	0.506
219.000	193.499	80.005	19.995	103.279	20.090	4.394	0.489
219.500	193.739	80.004	19.994	103.278	20.091	4.385	0.491
220.000	193.965	80.005	19.995	103.277	20.090	4.398	0.484
220.500	194.251	80.006	19.994	103.279	20.093	4.224	0.488
221.000	194.474	80.006	19.995	103.280	20.090	4.433	0.510
221.500	194.740	80.005	19.995	103.279	20.090	4.444	0.499
222.000	194.962	80.005	19.994	103.274	20.091	4.372	0.489
222.500	195.193	80.005	19.995	103.276	20.091	4.331	0.471
223.000	195.455	80.005	19.995	103.276	20.093	4.210	0.473
223.500	195.709	80.005	19.995	103.275	20.092	4.314	0.505
224.000	195.949	80.005	19.995	103.275	20.092	4.303	0.505
224.500	196.210	80.006	19.996	103.279	20.092	4.301	0.497
225.000	196.441	80.005	19.995	103.278	20.094	4.175	0.497
225.500	196.670	80.004	19.995	103.271	20.091	4.369	0.477
226.000	196.939	80.006	19.996	103.271	20.091	4.369	0.479
226.500	197.174	80.005	19.996	103.272	20.085	4.742	0.501
227.000	197.436	80.005	19.996	103.272	20.087	4.607	0.500
227.500	197.625	80.005	19.995	103.272	20.086	4.705	0.474
228.000	197.886	80.006	19.995	103.277	20.090	4.417	0.451
228.500	198.140	80.006	19.996	103.275	20.089	4.475	0.482
229.000	198.383	80.006	19.995	103.272	20.087	4.642	0.506
229.500	198.639	80.007	19.995	103.271	20.090	4.393	0.498
230.000	198.911	80.005	19.995	103.270	20.088	4.556	0.513
230.500	199.139	80.005	19.994	103.270	20.087	4.603	0.513
231.000	199.377	80.007	19.995	103.270	20.090	4.456	0.483
231.500	199.581	80.007	19.995	103.275	20.085	4.745	0.454
232.000	199.833	80.006	19.994	103.275	20.087	4.595	0.449
232.500	200.069	80.007	19.995	103.271	20.092	4.312	0.472
233.000	200.317	80.005	19.994	103.267	20.084	4.810	0.486
233.500	200.576	80.006	19.995	103.263	20.087	4.616	0.496
234.000	200.851	80.007	19.995	103.255	20.088	4.540	0.520
234.500	201.059	80.006	19.994	103.250	20.086	4.710	0.508
235.000	201.314	80.007	19.995	103.248	20.087	4.638	0.473
235.500	201.551	80.006	19.995	103.247	20.086	4.664	0.478
236.000	201.803	80.007	19.994	103.249	20.085	4.744	0.491
236.500	202.049	80.006	19.995	103.251	20.087	4.644	0.493
237.000	202.311	80.007	19.996	103.253	20.088	4.584	0.503
237.500	202.523	80.005	19.994	103.253	20.087	4.658	0.491
238.000	202.816	80.005	19.995	103.251	20.087	4.638	0.489
238.500	203.014	80.006	19.994	103.249	20.090	4.402	0.498
239.000	203.245	80.004	19.994	103.248	20.085	4.782	0.460
239.500	203.475	80.007	19.994	103.248	20.087	4.643	0.445
240.000	203.720	80.006	19.994	103.249	20.086	4.699	0.468
240.500	203.943	80.006	19.994	103.249	20.085	4.786	0.471
241.000	204.210	80.006	19.994	103.249	20.089	4.501	0.479
241.500	204.430	80.005	19.994	103.247	20.089	4.490	0.488
242.000	204.690	80.006	19.996	103.245	20.088	4.532	0.483
242.500	204.912	80.006	19.995	103.245	20.086	4.723	0.481
243.000	205.173	80.007	19.995	103.245	20.086	4.723	0.482
243.500	205.391	80.005	19.995	103.245	20.087	4.654	0.481
244.000	205.639	80.006	19.995	103.245	20.085	4.760	0.473
244.500	205.884	80.005	19.995	103.245	20.088	4.547	0.480
245.000	206.123	80.005	19.995	103.245	20.086	4.701	0.489
245.500	206.333	80.007	19.995	103.245	20.086	4.703	0.466
246.000	206.615	80.004	19.995	103.245	20.085	4.777	0.470
246.500	206.829	80.006	19.995	103.246	20.088	4.527	0.494
247.000	207.048	80.005	19.995	103.249	20.089	4.512	0.465
247.500	207.295	80.005	19.995	103.249	20.086	4.718	0.450
248.000	207.512	80.007	19.994	103.249	20.087	4.649	0.465
248.500	207.743	80.007	19.994	103.249	20.087	4.621	0.456
249.000	207.988	80.006	19.995	103.247	20.086	4.706	0.462
249.500	208.234	80.007	19.995	103.244	20.085	4.747	0.484
250.000	208.464	80.005	19.995	103.244	20.086	4.671	0.484
250.500	208.674	80.006	19.995	103.244	20.086	4.704	0.458
251.000	208.962	80.006	19.996	103.244	20.086	4.721	0.469
251.500	209.154	80.007	19.994	103.244	20.083	4.908	0.489
252.000	209.395	80.006	19.994	103.244	20.087	4.604	0.457
252.500	209.682	80.007	19.997	103.243	20.087	4.638	0.481
253.000	209.885	80.006	19.996	103.243	20.084	4.868	0.509
253.500	210.119	80.006	19.996	103.243	20.087	4.662	0.464
254.000	210.313	80.007	19.996	103.243	20.082	4.940	0.433
254.500	210.598	80.007	19.995	103.243	20.085	4.773	0.454
255.000	210.827	80.008	19.996	103.244	20.082	4.957	0.497
255.500	211.028	80.008	19.996	103.243	20.083	4.877	0.472
256.000	211.253	80.008	19.996	103.243	20.083	4.873	0.427
256.500	211.499	80.008	19.994	103.243	20.085	4.777	0.449
257.000	211.751	80.009	19.995	103.243	20.086	4.731	0.485
257.500	211.950	80.007	19.995	103.243	20.083	4.912	0.475
258.000	212.170	80.008	19.996	103.244	20.084	4.818	0.435
258.500	212.422	80.008	19.994	103.246	20.086	4.695	0.445
259.000	212.695	80.007	19.995	103.246	20.083	4.873	0.498
259.500	212.932	80.008	19.994	103.246	20.083	4.870	0.518
260.000	213.086	80.007	19.994	103.246	20.083	4.903	0.451
260.500	213.309	80.008	19.995	103.245	20.083	4.925	0.384
261.000	213.586	80.007	19.995	103.243	20.085	4.749	0.438
261.500	213.814	80.008	19.994	103.242	20.087	4.645	0.502
262.000	214.029	80.007	19.994	103.242	20.086	4.703	0.474
262.500	214.301	80.009	19.994	103.243	20.082	4.946	0.465
263.000	214.560	80.007	19.994	103.244	20.083	4.892	0.509
263.500	214.745	80.008	19.995	103.245	20.080	5.087	0.488
264.000	215.003	80.007	19.994	103.245	20.080	5.090	0.444
264.500	215.197	80.008	19.995	103.246	20.081	5.052	0.448
265.000	215.429	80.008	19.994	103.245	20.077	5.317	0.439
265.500	215.654	80.007	19.994	103.246	20.078	5.259	0.441
266.000	215.919	80.007	19.994	103.247	20.078	5.265	0.473
266.500	216.118	80.007	19.994	103.247	20.080	5.109	0.477
267.000	216.352	80.006	19.996	103.248	20.079	5.146	0.449
267.500	216.618	80.007	19.995	103.248	20.079	5.179	0.466
268.000	216.824	80.007	19.994	103.247	20.079	5.199	0.486
268.500	217.052	80.006	19.995	103.246	20.079	5.212	0.454
269.000	217.262	80.008	19.994	103.247	20.080	5.129	0.436
269.500	217.497	80.007	19.994	103.247	20.081	5.047	0.441
270.000	217.782	80.006	19.994	103.248	20.080	5.131	0.483
270.500	217.983	80.006	19.995	103.248	20.081	5.073	0.503
271.000	218.173	80.008	19.994	103.250	20.079	5.168	0.438
271.500	218.452	80.007	19.994	103.250	20.080	5.118	0.430
272.000	218.676	80.007	19.994	103.250	20.079	5.183	0.486
272.500	218.948	80.007	19.994	103.250	20.080	5.129	0.500
273.000	219.161	80.006	19.994	103.250	20.077	5.331	0.491
273.500	219.367	80.007	19.995	103.251	20.079	5.205	0.452
274.000	219.609	80.006	19.994	103.254	20.079	5.164	0.433
274.500	219.857	80.007	19.994	103.253	20.078	5.244	0.469
275.000	220.067	80.007	19.994	103.255	20.080	5.139	0.474
275.500	220.309	80.008	19.995	103.255	20.077	5.285	0.455
276.000	220.558	80.008	19.994	103.256	20.077	5.336	0.472
276.500	220.744	80.006	19.994	103.253	20.078	5.265	0.463
277.000	220.994	80.008	19.995	103.254	20.074	5.530	0.436
277.500	221.219	80.008	19.994	103.252	20.078	5.276	0.455
278.000	221.454	80.007	19.995	103.251	20.077	5.318	0.467
278.500	221.664	80.007	19.995	103.248	20.077	5.303	0.452
279.000	221.895	80.008	19.994	103.248	20.075	5.439	0.443
279.500	222.118	80.008	19.995	103.247	20.076	5.370	0.448
280.000	222.347	80.008	19.995	103.248	20.073	5.572	0.453
280.500	222.616	80.007	19.994	103.247	20.077	5.337	0.475
281.000	222.827	80.007	19.995	103.247	20.077	5.315	0.489
281.500	223.028	80.008	19.996	103.247	20.077	5.292	0.447
282.000	223.294	80.009	19.995	103.247	20.071	5.716	0.440
282.500	223.500	80.007	19.995	103.245	20.074	5.511	0.469
283.000	223.752	80.008	19.995	103.248	20.071	5.706	0.464
283.500	223.981	80.007	19.995	103.250	20.072	5.643	0.469
284.000	224.245	80.009	19.995	103.252	20.072	5.652	0.487
284.500	224.444	80.008	19.995	103.252	20.074	5.531	0.479
285.000	224.716	80.008	19.995	103.254	20.070	5.776	0.467
285.500	224.927	80.007	19.996	103.252	20.070	5.808	0.477
286.000	225.181	80.007	19.994	103.255	20.072	5.672	0.474
286.500	225.435	80.006	19.996	103.259	20.070	5.778	0.487
287.000	225.647	80.006	19.994	103.265	20.068	5.945	0.487
287.500	225.892	80.007	19.995	103.265	20.075	5.433	0.461
288.000	226.111	80.007	19.995	103.264	20.074	5.544	0.460
288.500	226.357	80.007	19.995	103.258	20.073	5.564	0.464
289.000	226.577	80.006	19.995	103.255	20.072	5.679	0.465
289.500	226.815	80.006	19.995	103.250	20.073	5.590	0.462
290.000	227.027	80.005	19.995	103.250	20.072	5.672	0.454
290.500	227.263	80.005	19.995	103.255	20.072	5.678	0.449
291.000	227.506	80.005	19.994	103.256	20.070	5.772	0.464
291.500	227.725	80.006	19.995	103.255	20.070	5.822	0.470
292.000	227.951	80.005	19.994	103.255	20.072	5.653	0.453
292.500	228.213	80.005	19.995	103.255	20.074	5.520	0.466
293.000	228.455	80.005	19.996	103.250	20.071	5.740	0.496
293.500	228.674	80.005	19.995	103.251	20.071	5.739	0.483
294.000	228.942	80.006	19.995	103.252	20.071	5.755	0.474
294.500	229.185	80.005	19.996	103.253	20.074	5.505	0.499
295.000	229.440	80.004	19.995	103.253	20.071	5.705	0.504
295.500	229.652	80.005	19.995	103.254	20.071	5.700	0.483
296.000	229.867	80.005	19.995	103.252	20.072	5.668	0.447
296.500	230.093	80.005	19.996	103.255	20.070	5.779	0.434
297.000	230.355	80.005	19.996	103.257	20.072	5.635	0.464
297.500	230.611	80.004	19.995	103.257	20.071	5.711	0.503
298.000	230.871	80.004	19.995	103.258	20.071	5.752	0.517
298.500	231.062	80.005	19.996	103.257	20.068	5.911	0.483
299.000	231.299	80.006	19.995	103.251	20.068	5.969	0.439
299.500	231.508	80.004	19.994	103.248	20.066	6.093	0.437
300.000	231.805	80.006	19.996	103.249	20.069	5.887	0.477
300.500	232.012	80.005	19.996	103.249	20.068	5.957	0.505
301.000	232.293	80.006	19.996	103.249	20.071	5.739	0.496
301.500	232.544	80.006	19.995	103.250	20.069	5.893	0.510
302.000	232.785	80.004	19.995	103.252	20.070	5.806	0.512
302.500	232.991	80.005	19.995	103.252	20.070	5.825	0.469
303.000	233.250	80.006	19.994	103.248	20.067	6.029	0.456
303.500	233.500	80.005	19.995	103.248	20.062	6.337	0.487
304.000	233.708	80.005	19.995	103.248	20.066	6.107	0.483
304.500	233.926	80.005	19.994	103.248	20.067	6.033	0.442
305.000	234.180	80.005	19.995	103.246	20.067	6.007	0.449
305.500	234.470	80.005	19.995	103.247	20.061	6.420	0.508
306.000	234.696	80.005	19.995	103.247	20.064	6.227	0.530
306.500	234.929	80.005	19.995	103.248	20.063	6.293	0.488
307.000	235.178	80.005	19.995	103.247	20.065	6.130	0.471
307.500	235.407	80.005	19.995	103.247	20.059	6.537	0.480
308.000	235.665	80.005	19.995	103.247	20.064	6.219	0.482
308.500	235.912	80.006	19.996	103.248	20.063	6.299	0.496
309.000	236.149	80.006	19.995	103.251	20.063	6.265	0.495
309.500	236.403	80.004	19.995	103.252	20.065	6.139	0.487
310.000	236.619	80.005	19.996	103.253	20.061	6.405	0.481
310.500	236.857	80.006	19.996	103.254	20.062	6.323	0.462
311.000	237.126	80.006	19.995	103.254	20.060	6.470	0.480
311.500	237.369	80.006	19.995	103.252	20.063	6.286	0.509
312.000	237.587	80.005	19.996	103.256	20.060	6.477	0.487
312.500	237.840	80.005	19.996	103.261	20.057	6.677	0.466
313.000	238.081	80.005	19.996	103.266	20.061	6.431	0.482
313.500	238.322	80.005	19.997	103.272	20.060	6.507	0.488
314.000	238.528	80.005	19.995	103.277	20.061	6.412	0.465
314.500	238.835	80.005	19.996	103.276	20.061	6.449	0.480
315.000	239.116	80.005	19.997	103.275	20.060	6.465	0.551
315.500	239.296	80.005	19.996	103.274	20.059	6.568	0.525
316.000	239.557	80.005	19.996	103.268	20.062	6.363	0.451
316.500	239.796	80.005	19.996	103.262	20.059	6.539	0.470
317.000	240.042	80.004	19.996	103.258	20.059	6.552	0.492
317.500	240.247	80.007	19.996	103.254	20.059	6.548	0.468
318.000	240.520	80.005	19.996	103.251	20.057	6.724	0.465
318.500	240.771	80.004	19.995	103.251	20.056	6.754	0.501
319.000	241.030	80.004	19.996	103.254	20.058	6.650	0.516
319.500	241.263	80.007	19.995	103.256	20.055	6.837	0.501
320.000	241.504	80.006	19.994	103.258	20.054	6.922	0.483
320.500	241.731	80.004	19.997	103.258	20.054	6.865	0.471
321.000	242.022	80.005	19.996	103.262	20.055	6.806	0.493
321.500	242.222	80.004	19.996	103.261	20.056	6.774	0.504
322.000	242.470	80.005	19.996	103.261	20.056	6.788	0.470
322.500	242.723	80.004	19.995	103.260	20.054	6.928	0.475
323.000	242.976	80.004	19.996	103.264	20.053	6.989	0.503
323.500	243.233	80.005	19.995	103.262	20.052	7.017	0.508
324.000	243.472	80.005	19.995	103.263	20.050	7.193	0.503
324.500	243.744	80.005	19.995	103.265	20.054	6.927	0.503
325.000	243.971	80.005	19.995	103.268	20.054	6.880	0.505
325.500	244.228	80.004	19.994	103.267	20.050	7.145	0.492
326.000	244.475	80.005	19.994	103.270	20.050	7.186	0.495
326.500	244.721	80.006	19.995	103.271	20.048	7.314	0.498
327.000	244.941	80.005	19.994	103.272	20.048	7.312	0.479
327.500	245.212	80.005	19.995	103.275	20.047	7.371	0.479
328.000	245.487	80.006	19.994	103.277	20.047	7.366	0.519
328.500	245.740	80.006	19.994	103.274	20.047	7.408	0.537
329.000	245.975	80.005	19.995	103.274	20.045	7.508	0.508
329.500	246.270	80.006	19.995	103.274	20.042	7.694	0.509
330.000	246.488	80.005	19.994	103.274	20.039	7.938	0.521
330.500	246.727	80.005	19.995	103.270	20.041	7.775	0.485
331.000	246.973	80.004	19.993	103.272	20.041	7.824	0.471
331.500	247.224	80.006	19.995	103.274	20.040	7.857	0.491
332.000	247.493	80.006	19.994	103.276	20.041	7.768	0.509
332.500	247.727	80.007	19.995	103.275	20.038	8.026	0.512
333.000	247.953	80.006	19.994	103.279	20.038	8.020	0.482
333.500	248.218	80.007	19.995	103.278	20.038	8.029	0.475
334.000	248.460	80.007	19.995	103.277	20.039	7.905	0.499
334.500	248.747	80.007	19.993	103.277	20.037	8.044	0.518
335.000	249.021	80.006	19.994	103.277	20.036	8.120	0.545
335.500	249.242	80.008	19.995	103.278	20.033	8.374	0.528
336.000	249.534	80.006	19.994	103.280	20.036	8.150	0.504
336.500	249.793	80.006	19.994	103.278	20.033	8.332	0.532
337.000	250.048	80.007	19.993	103.277	20.036	8.145	0.533
337.500	250.312	80.006	19.994	103.278	20.031	8.448	0.516
338.000	250.588	80.007	19.994	103.277	20.030	8.519	0.529
338.500	250.820	80.006	19.994	103.275	20.031	8.446	0.524
339.000	251.084	80.006	19.994	103.277	20.028	8.717	0.503
339.500	251.354	80.007	19.994	103.274	20.025	8.874	0.515
340.000	251.597	80.008	19.994	103.274	20.025	8.921	0.523
340.500	251.840	80.007	19.994	103.273	20.024	8.956	0.499
341.000	252.125	80.008	19.995	103.276	20.024	8.943	0.507
341.500	252.358	80.006	19.994	103.276	20.023	9.032	0.523
342.001	252.606	80.006	19.994	103.280	20.025	8.921	0.499
342.500	252.850	80.006	19.994	103.280	20.026	8.854	0.487
343.000	253.108	80.004	19.993	103.281	20.021	9.151	0.497
343.500	253.312	80.005	19.995	103.281	20.019	9.314	0.482
344.000	253.567	80.006	19.995	103.281	20.019	9.329	0.461
344.500	253.865	80.005	19.994	103.279	20.019	9.275	0.506
345.000	254.088	80.006	19.994	103.280	20.019	9.327	0.537
345.500	254.352	80.006	19.993	103.282	20.017	9.465	0.504
346.000	254.579	80.006	19.994	103.281	20.018	9.387	0.490
346.500	254.869	80.004	19.994	103.282	20.015	9.568	0.504
347.000	255.105	80.005	19.993	103.283	20.012	9.807	0.521
347.500	255.388	80.006	19.995	103.283	20.013	9.739	0.522
348.000	255.588	80.004	19.995	103.282	20.014	9.663	0.501
348.500	255.896	80.005	19.994	103.279	20.009	9.974	0.495
349.000	256.162	80.005	19.994	103.277	20.011	9.844	0.541
349.500	256.356	80.005	19.993	103.276	20.011	9.843	0.517
350.000	256.649	80.005	19.993	103.276	20.010	9.924	0.474
350.500	256.864	80.005	19.995	103.277	20.008	10.089	0.498
351.000	257.140	80.005	19.995	103.280	20.007	10.143	0.500
351.500	257.404	80.005	19.994	103.281	20.006	10.170	0.515
352.000	257.624	80.005	19.993	103.279	20.004	10.343	0.512
352.500	257.883	80.005	19.993	103.280	20.001	10.550	0.481
353.000	258.155	80.006	19.995	103.280	19.998	10.728	0.505
353.500	258.382	80.006	19.995	103.280	20.000	10.624	0.515
354.000	258.639	80.005	19.993	103.282	19.999	10.708	0.491
354.500	258.920	80.006	19.993	103.284	20.000	10.628	0.511
355.000	259.153	80.005	19.995	103.284	19.996	10.916	0.526
355.500	259.437	80.005	19.993	103.284	19.997	10.791	0.515
356.000	259.694	80.006	19.995	103.285	19.994	11.021	0.529
356.500	259.905	80.006	19.994	103.284	19.995	10.947	0.504
357.000	260.175	80.007	19.995	103.284	19.995	10.966	0.475
357.500	260.409	80.006	19.994	103.284	19.993	11.090	0.493
358.000	260.689	80.007	19.994	103.284	19.993	11.112	0.509
358.500	260.921	80.008	19.994	103.283	19.991	11.233	0.513
359.000	261.162	80.007	19.994	103.284	19.989	11.348	0.493
359.500	261.443	80.007	19.993	103.284	19.989	11.348	0.497
360.000	261.687	80.008	19.994	103.283	19.986	11.550	0.524
360.500	261.944	80.006	19.994	103.283	19.987	11.505	0.513
361.000	262.214	80.009	19.994	103.282	19.985	11.654	0.514
361.500	262.458	80.008	19.994	103.281	19.982	11.819	0.521
362.000	262.690	80.008	19.994	103.281	19.980	11.980	0.495
362.500	262.982	80.008	19.994	103.279	19.981	11.917	0.500
363.000	263.227	80.008	19.994	103.279	19.981	11.940	0.530
363.500	263.447	80.009	19.995	103.278	19.980	11.999	0.501
364.000	263.715	80.008	19.993	103.278	19.978	12.147	0.477
364.500	263.953	80.007	19.993	103.278	19.979	12.080	0.497
365.000	264.217	80.008	19.993	103.279	19.975	12.306	0.504
365.500	264.501	80.006	19.993	103.280	19.974	12.393	0.525
366.000	264.741	80.007	19.995	103.281	19.968	12.827	0.536
366.500	264.981	80.008	19.993	103.281	19.972	12.536	0.502
367.000	265.236	80.008	19.993	103.281	19.969	12.753	0.487
367.500	265.489	80.006	19.994	103.282	19.965	13.029	0.501
368.000	265.724	80.005	19.996	103.281	19.967	12.882	0.498
368.500	265.954	80.006	19.994	103.282	19.964	13.064	0.476
369.000	266.230	80.006	19.995	103.282	19.965	13.029	0.485
369.500	266.507	80.007	19.995	103.282	19.963	13.138	0.530
370.000	266.761	80.006	19.994	103.282	19.963	13.120	0.542
370.500	267.014	80.006	19.994	103.282	19.964	13.078	0.519
371.000	267.283	80.005	19.994	103.281	19.959	13.430	0.514
371.500	267.580	80.007	19.994	103.283	19.960	13.359	0.544
372.000	267.784	80.005	19.995	103.283	19.958	13.486	0.534
372.500	268.069	80.005	19.995	103.284	19.958	13.528	0.496
373.000	268.321	80.005	19.995	103.285	19.953	13.810	0.513
373.500	268.550	80.005	19.996	103.289	19.950	14.031	0.509
374.000	268.806	80.005	19.997	103.289	19.952	13.941	0.483
374.500	269.038	80.005	19.995	103.288	19.951	13.945	0.486
375.000	269.280	80.005	19.996	103.288	19.949	14.089	0.481
375.500	269.559	80.005	19.996	103.287	19.949	14.094	0.497
376.000	269.814	80.005	19.996	103.282	19.949	14.129	0.528
376.500	270.120	80.006	19.996	103.283	19.943	14.501	0.548
377.000	270.339	80.005	19.996	103.284	19.943	14.535	0.543
377.500	270.629	80.006	19.996	103.284	19.939	14.778	0.517
378.000	270.888	80.004	19.996	103.284	19.942	14.619	0.529
378.500	271.122	80.004	19.995	103.284	19.939	14.785	0.521
379.000	271.379	80.006	19.996	103.283	19.937	14.918	0.492
379.500	271.609	80.006	19.995	103.282	19.936	15.038	0.489
380.000	271.896	80.006	19.996	103.281	19.936	14.988	0.502
380.500	272.202	80.005	19.996	103.282	19.934	15.116	0.555
381.000	272.371	80.006	19.996	103.286	19.934	15.156	0.534
381.500	272.604	80.006	19.994	103.287	19.932	15.271	0.438
382.000	272.894	80.006	19.995	103.287	19.927	15.621	0.463
382.500	273.176	80.005	19.995	103.287	19.929	15.515	0.548
383.000	273.395	80.005	19.994	103.288	19.926	15.679	0.536
383.500	273.658	80.006	19.995	103.288	19.926	15.718	0.491
384.000	273.890	80.005	19.994	103.290	19.923	15.882	0.488
384.500	274.152	80.006	19.995	103.295	19.921	16.021	0.494
385.000	274.435	80.004	19.995	103.298	19.920	16.120	0.519
385.500	274.663	80.007	19.996	103.297	19.920	16.135	0.528
386.000	274.931	80.007	19.995	103.295	19.921	16.043	0.504
386.500	275.206	80.006	19.995	103.291	19.919	16.149	0.520
387.000	275.435	80.006	19.994	103.290	19.916	16.368	0.523
387.500	275.697	80.005	19.995	103.288	19.917	16.325	0.497
388.000	275.925	80.006	19.994	103.292	19.915	16.462	0.491
388.500	276.201	80.005	19.996	103.292	19.913	16.555	0.497
389.000	276.400	80.006	19.995	103.297	19.910	16.819	0.489
389.500	276.676	80.005	19.995	103.298	19.910	16.773	0.475
390.000	276.962	80.006	19.996	103.300	19.910	16.821	0.518
390.500	277.177	80.008	19.994	103.297	19.909	16.867	0.532
391.000	277.416	80.004	19.995	103.297	19.909	16.867	0.478
391.500	277.755	80.005	19.994	103.292	19.909	16.866	0.516
392.000	277.955	80.005	19.994	103.289	19.903	17.241	0.558
392.500	278.182	80.006	19.993	103.287	19.904	17.204	0.482
393.000	278.440	80.005	19.994	103.289	19.904	17.208	0.456
393.500	278.669	80.006	19.994	103.289	19.900	17.483	0.487
394.000	278.973	80.005	19.995	103.290	19.899	17.535	0.510
394.500	279.193	80.004	19.995	103.292	19.900	17.507	0.528
395.000	279.408	80.004	19.993	103.296	19.897	17.657	0.479
395.500	279.652	80.005	19.995	103.297	19.898	17.649	0.448
396.000	279.958	80.005	19.996	103.300	19.894	17.904	0.505
396.500	280.226	80.004	19.994	103.304	19.894	17.915	0.561
397.000	280.437	80.004	19.995	103.308	19.892	18.052	0.526
397.500	280.706	80.004	19.994	103.310	19.892	18.031	0.480
398.000	280.953	80.004	19.997	103.312	19.890	18.202	0.498
398.500	281.195	80.005	19.995	103.310	19.891	18.135	0.503
399.000	281.433	80.006	19.996	103.305	19.887	18.388	0.484
399.500	281.701	80.003	19.995	103.299	19.889	18.221	0.493
400.000	281.936	80.005	19.995	103.292	19.888	18.279	0.504
400.500	282.219	80.003	19.995	103.291	19.887	18.403	0.510
401.000	282.443	80.004	19.996	103.291	19.885	18.489	0.512
401.500	282.702	80.004	19.996	103.292	19.884	18.613	0.495
402.000	282.952	80.004	19.996	103.293	19.882	18.728	0.496
402.500	283.188	80.004	19.996	103.293	19.882	18.743	0.498
403.000	283.421	80.004	19.995	103.290	19.881	18.807	0.477
403.500	283.679	80.004	19.996	103.288	19.878	18.981	0.479
404.000	283.944	80.004	19.996	103.289	19.879	18.916	0.507
404.500	284.215	80.005	19.995	103.291	19.875	19.169	0.530
405.000	284.402	80.003	19.995	103.291	19.874	19.298	0.497
405.500	284.678	80.003	19.996	103.291	19.871	19.481	0.460
406.000	284.941	80.005	19.995	103.294	19.874	19.270	0.501
406.500	285.177	80.004	19.997	103.299	19.878	18.991	0.519
407.000	285.401	80.004	19.996	103.303	19.873	19.331	0.480
407.500	285.674	80.003	19.997	103.307	19.872	19.381	0.479
408.000	285.876	80.004	19.996	103.313	19.871	19.460	0.486
408.500	286.180	80.003	19.997	103.313	19.871	19.466	0.490
409.000	286.385	80.004	19.995	103.311	19.872	19.391	0.507
409.500	286.639	80.004	19.996	103.312	19.869	19.621	0.484
410.000	286.857	80.006	19.996	103.314	19.870	19.581	0.465
410.500	287.126	80.005	19.997	103.314	19.867	19.782	0.479
411.000	287.402	80.006	19.996	103.317	19.867	19.745	0.516
411.500	287.630	80.005	19.995	103.319	19.865	19.864	0.525
412.000	287.898	80.004	19.996	103.320	19.867	19.724	0.500
412.500	288.176	80.005	19.995	103.321	19.864	19.975	0.521
413.000	288.362	80.006	19.995	103.320	19.865	19.860	0.505
413.500	288.594	80.006	19.994	103.319	19.862	20.068	0.441
414.000	288.856	80.007	19.995	103.319	19.862	20.076	0.456
414.500	289.056	80.004	19.994	103.315	19.862	20.076	0.478
415.000	289.376	80.007	19.995	103.313	19.859	20.285	0.491
415.500	289.607	80.006	19.994	103.311	19.859	20.297	0.535
416.000	289.810	80.006	19.995	103.313	19.858	20.404	0.492
416.500	290.111	80.006	19.995	103.313	19.857	20.410	0.469
417.000	290.337	80.007	19.994	103.315	19.858	20.365	0.516
417.500	290.583	80.005	19.993	103.318	19.855	20.582	0.499
418.000	290.800	80.008	19.994	103.320	19.854	20.614	0.468
418.500	291.083	80.006	19.994	103.320	19.856	20.540	0.482
419.000	291.360	80.005	19.995	103.319	19.857	20.475	0.530
419.500	291.524	80.007	19.994	103.319	19.853	20.695	0.500
420.000	291.795	80.006	19.994	103.317	19.851	20.851	0.438
420.500	292.088	80.007	19.994	103.319	19.853	20.733	0.500
421.000	292.302	80.008	19.994	103.319	19.849	20.970	0.536
421.500	292.629	80.008	19.995	103.316	19.850	20.944	0.524
422.000	292.812	80.007	19.993	103.316	19.848	21.076	0.525
422.500	293.054	80.006	19.994	103.315	19.847	21.102	0.467
423.000	293.320	80.007	19.994	103.314	19.844	21.341	0.466
423.500	293.574	80.006	19.994	103.314	19.845	21.272	0.514
424.000	293.786	80.007	19.994	103.317	19.844	21.324	0.493
424.500	294.020	80.006	19.995	103.319	19.845	21.287	0.456
425.000	294.260	80.007	19.994	103.320	19.843	21.374	0.460
425.500	294.530	80.007	19.993	103.320	19.845	21.282	0.492
426.000	294.789	80.006	19.995	103.320	19.842	21.454	0.520
426.500	295.018	80.008	19.995	103.320	19.844	21.313	0.509
427.000	295.291	80.006	19.996	103.320	19.841	21.524	0.495
427.500	295.517	80.006	19.994	103.320	19.840	21.630	0.500
428.000	295.739	80.007	19.995	103.320	19.841	21.534	0.473
428.500	295.988	80.006	19.995	103.320	19.837	21.825	0.460
429.000	296.300	80.006	19.994	103.320	19.837	21.827	0.516
429.500	296.515	80.006	19.996	103.320	19.834	22.047	0.544
430.000	296.756	80.006	19.996	103.320	19.835	21.953	0.492
430.500	296.974	80.006	19.995	103.321	19.833	22.075	0.457
431.000	297.224	80.005	19.996	103.321	19.833	22.088	0.463
431.500	297.470	80.006	19.995	103.322	19.834	22.042	0.482
432.000	297.728	80.006	19.994	103.322	19.831	22.238	0.500
432.500	297.977	80.006	19.993	103.322	19.833	22.056	0.506
433.000	298.243	80.006	19.995	103.322	19.831	22.244	0.511
433.500	298.475	80.007	19.996	103.321	19.832	22.132	0.507
434.000	298.735	80.006	19.995	103.321	19.828	22.453	0.495
434.500	298.987	80.007	19.995	103.321	19.830	22.318	0.502
435.000	299.206	80.008	19.993	103.321	19.827	22.503	0.491
435.500	299.454	80.006	19.995	103.321	19.826	22.549	0.469
436.000	299.690	80.008	19.995	103.321	19.827	22.509	0.476
436.500	299.938	80.007	19.995	103.321	19.825	22.672	0.484
437.000	300.182	80.007	19.994	103.321	19.825	22.629	0.488
437.500	300.403	80.008	19.995	103.320	19.822	22.831	0.479
438.000	300.689	80.006	19.994	103.321	19.822	22.857	0.486
438.500	300.899	80.008	19.995	103.321	19.822	22.859	0.501
439.000	301.111	80.008	19.994	103.321	19.821	22.885	0.459
439.500	301.421	80.006	19.994	103.321	19.822	22.835	0.472
440.000	301.677	80.007	19.994	103.322	19.816	23.281	0.544
440.500	301.922	80.008	19.994	103.321	19.817	23.223	0.534
441.000	302.139	80.007	19.994	103.321	19.814	23.370	0.482
441.500	302.410	80.009	19.995	103.321	19.813	23.464	0.474
442.000	302.660	80.009	19.994	103.321	19.812	23.512	0.505
442.500	302.907	80.008	19.993	103.321	19.811	23.584	0.510
443.000	303.164	80.007	19.994	103.321	19.810	23.706	0.500
443.500	303.415	80.008	19.994	103.321	19.807	23.858	0.506
444.000	303.671	80.008	19.994	103.321	19.808	23.778	0.507
444.500	303.899	80.009	19.994	103.320	19.807	23.894	0.495
445.000	304.189	80.008	19.993	103.319	19.806	23.944	0.501
445.500	304.400	80.009	19.995	103.319	19.809	23.769	0.510
446.000	304.661	80.008	19.995	103.319	19.804	24.057	0.486
446.500	304.905	80.007	19.994	103.319	19.803	24.123	0.489
447.000	305.121	80.006	19.996	103.319	19.801	24.275	0.483
447.500	305.416	80.007	19.994	103.319	19.800	24.333	0.485
448.000	305.655	80.007	19.993	103.320	19.798	24.483	0.522
448.500	305.943	80.007	19.994	103.320	19.801	24.322	0.531
449.000	306.156	80.007	19.994	103.320	19.798	24.496	0.514
449.500	306.410	80.006	19.995	103.321	19.796	24.624	0.484
450.000	306.653	80.005	19.994	103.321	19.794	24.778	0.482
450.500	306.932	80.005	19.993	103.321	19.794	24.785	0.509
451.000	307.161	80.005	19.994	103.323	19.793	24.807	0.515
451.500	307.397	80.005	19.994	103.323	19.793	24.865	0.486
452.000	307.656	80.005	19.995	103.325	19.789	25.113	0.480
452.500	307.911	80.005	19.994	103.327	19.787	25.219	0.505
453.000	308.146	80.007	19.994	103.328	19.785	25.393	0.502
453.500	308.385	80.006	19.993	103.326	19.785	25.391	0.482
454.000	308.639	80.006	19.994	103.326	19.782	25.568	0.483
454.500	308.903	80.005	19.994	103.326	19.781	25.653	0.505
455.000	309.154	80.004	19.994	103.326	19.777	25.974	0.516
455.500	309.397	80.005	19.995	103.326	19.778	25.898	0.505
456.000	309.652	80.005	19.993	103.326	19.776	26.019	0.496
456.500	309.897	80.006	19.994	103.326	19.778	25.864	0.499
457.000	310.160	80.005	19.994	103.326	19.777	25.935	0.504
457.500	310.414	80.006	19.994	103.326	19.771	26.343	0.513
458.000	310.658	80.004	19.994	103.326	19.771	26.367	0.508
458.500	310.911	80.005	19.996	103.326	19.766	26.716	0.497
459.000	311.186	80.005	19.994	103.327	19.767	26.612	0.512
459.500	311.453	80.005	19.995	103.327	19.767	26.666	0.535
460.000	311.729	80.004	19.996	103.325	19.766	26.693	0.543
460.500	311.955	80.005	19.995	103.325	19.763	26.937	0.522
461.000	312.204	80.005	19.994	103.325	19.761	27.017	0.489
461.500	312.528	80.005	19.995	103.324	19.760	27.137	0.525
462.000	312.736	80.004	19.995	103.325	19.758	27.269	0.553
462.500	313.007	80.005	19.994	103.325	19.755	27.461	0.505
463.000	313.209	80.004	19.994	103.325	19.754	27.511	0.476
463.500	313.477	80.004	19.994	103.327	19.749	27.868	0.471
464.000	313.720	80.005	19.994	103.329	19.753	27.614	0.490
464.500	313.991	80.004	19.996	103.332	19.747	28.001	0.513
465.000	314.225	80.006	19.994	103.332	19.750	27.829	0.510
465.500	314.459	80.004	19.995	103.331	19.740	28.482	0.487
466.000	314.756	80.004	19.994	103.332	19.740	28.465	0.499
466.500	314.977	80.005	19.994	103.334	19.737	28.699	0.524
467.000	315.204	80.006	19.994	103.336	19.737	28.699	0.483
467.500	315.479	80.005	19.995	103.339	19.735	28.820	0.475
468.000	315.719	80.005	19.994	103.342	19.730	29.213	0.509
468.500	315.956	80.004	19.994	103.342	19.728	29.318	0.496
469.000	316.212	80.005	19.995	103.342	19.725	29.514	0.485
469.500	316.452	80.004	19.995	103.342	19.725	29.524	0.494
470.000	316.694	80.004	19.995	103.346	19.721	29.778	0.489
470.500	316.956	80.006	19.995	103.349	19.722	29.727	0.493
471.000	317.183	80.005	19.994	103.354	19.718	30.038	0.497
471.500	317.422	80.005	19.994	103.355	19.714	30.296	0.477
472.000	317.672	80.005	19.994	103.357	19.712	30.433	0.477
472.500	317.929	80.006	19.995	103.357	19.709	30.639	0.498
473.000	318.185	80.005	19.994	103.358	19.705	30.890	0.510
473.500	318.411	80.006	19.995	103.359	19.703	31.072	0.497
474.000	318.686	80.005	19.994	103.361	19.701	31.208	0.491
474.500	318.924	80.005	19.995	103.361	19.696	31.547	0.506
475.000	319.138	80.005	19.995	103.362	19.697	31.451	0.483
475.500	319.410	80.005	19.995	103.361	19.693	31.772	0.470
476.000	319.634	80.005	19.994	103.361	19.690	31.965	0.491
476.500	319.890	80.005	19.994	103.361	19.688	32.065	0.488
477.000	320.102	80.005	19.994	103.363	19.683	32.413	0.474
477.500	320.356	80.006	19.994	103.363	19.680	32.606	0.467
478.000	320.581	80.005	19.995	103.364	19.679	32.706	0.472
478.500	320.860	80.004	19.993	103.365	19.676	32.911	0.491
479.000	321.088	80.005	19.995	103.369	19.673	33.095	0.506
479.500	321.328	80.004	19.995	103.374	19.668	33.481	0.488
480.000	321.580	80.005	19.996	103.379	19.665	33.697	0.480
480.500	321.807	80.005	19.996	103.382	19.662	33.914	0.485
481.000	322.059	80.006	19.994	103.388	19.656	34.320	0.479
481.500	322.303	80.005	19.994	103.391	19.654	34.404	0.488
482.000	322.564	80.004	19.994	103.392	19.654	34.423	0.500
482.500	322.760	80.005	19.994	103.394	19.649	34.768	0.481
483.000	323.012	80.005	19.994	103.399	19.644	35.089	0.453
483.500	323.233	80.004	19.994	103.400	19.640	35.415	0.461
484.000	323.484	80.005	19.996	103.401	19.634	35.823	0.472
484.500	323.734	80.005	19.994	103.401	19.629	36.124	0.486
485.000	324.017	80.005	19.995	103.402	19.625	36.417	0.517
485.500	324.267	80.005	19.995	103.402	19.624	36.467	0.533
486.000	324.496	80.005	19.995	103.402	19.617	36.987	0.506
486.500	324.732	80.005	19.995	103.401	19.614	37.212	0.472
487.000	324.947	80.005	19.994	103.403	19.609	37.521	0.458
487.500	325.212	80.005	19.996	103.403	19.606	37.763	0.465
488.000	325.487	80.005	19.994	103.404	19.602	38.004	0.510
488.500	325.713	80.004	19.995	103.404	19.595	38.517	0.521
489.000	325.968	80.005	19.994	103.405	19.591	38.801	0.491
489.500	326.257	80.005	19.996	103.407	19.583	39.307	0.512
490.000	326.483	80.005	19.994	103.414	19.580	39.520	0.530
490.500	326.746	80.006	19.995	103.419	19.574	39.948	0.502
491.000	326.957	80.006	19.996	103.426	19.570	40.229	0.481
491.500	327.238	80.006	19.995	103.433	19.566	40.513	0.483
492.000	327.467	80.005	19.994	103.436	19.557	41.156	0.501
492.500	327.708	80.006	19.997	103.437	19.551	41.561	0.490
493.000	327.970	80.006	19.997	103.438	19.548	41.766	0.487
493.500	328.226	80.006	19.996	103.438	19.543	42.130	0.511
494.000	328.453	80.005	19.996	103.438	19.534	42.696	0.500
494.500	328.696	80.006	19.996	103.440	19.531	42.968	0.476
495.000	328.969	80.007	19.995	103.440	19.524	43.433	0.493
495.500	329.239	80.006	19.995	103.440	19.517	43.892	0.529
496.000	329.497	80.006	19.995	103.440	19.511	44.337	0.535
496.500	329.745	80.006	19.996	103.445	19.504	44.819	0.517
497.000	329.996	80.007	19.996	103.450	19.496	45.355	0.503
497.500	330.199	80.006	19.997	103.457	19.488	45.923	0.476
498.000	330.445	80.008	19.995	103.465	19.483	46.252	0.451
498.500	330.713	80.006	19.996	103.471	19.473	46.924	0.481
499.000	330.961	80.006	19.996	103.474	19.465	47.509	0.515
499.500	331.198	80.007	19.996	103.477	19.459	47.938	0.501
500.000	331.473	80.007	19.995	103.479	19.450	48.553	0.498
500.500	331.714	80.006	19.996	103.481	19.442	49.081	0.514
501.000	331.964	80.007	19.995	103.485	19.432	49.782	0.504
501.500	332.224	80.007	19.995	103.489	19.425	50.263	0.500
502.000	332.482	80.006	19.995	103.490	19.417	50.834	0.514
502.500	332.712	80.007	19.996	103.494	19.405	51.622	0.503
503.000	332.977	80.007	19.995	103.499	19.396	52.277	0.492
503.500	333.229	80.006	19.994	103.503	19.387	52.867	0.506
504.000	333.483	80.007	19.995	103.507	19.380	53.359	0.512
504.500	333.728	80.006	19.995	103.516	19.366	54.377	0.503
505.000	333.993	80.007	19.995	103.521	19.360	54.742	0.504
505.500	334.255	80.006	19.995	103.528	19.349	55.502	0.518
506.000	334.503	80.006	19.995	103.534	19.341	56.091	0.519
506.500	334.770	80.006	19.996	103.542	19.324	57.250	0.512
507.000	335.046	80.005	19.994	103.546	19.316	57.825	0.528
507.500	335.256	80.006	19.994	103.551	19.305	58.553	0.514
508.000	335.500	80.006	19.996	103.552	19.295	59.272	0.470
508.500	335.797	80.006	19.994	103.556	19.283	60.073	0.498
509.000	336.043	80.005	19.995	103.563	19.274	60.758	0.542
509.500	336.290	80.006	19.994	103.571	19.260	61.675	0.518
510.000	336.534	80.005	19.995	103.577	19.247	62.580	0.492
510.500	336.816	80.007	19.996	103.585	19.232	63.650	0.509
511.000	337.066	80.007	19.996	103.591	19.225	64.103	0.529
511.500	337.300	80.005	19.995	103.592	19.210	65.128	0.508
512.000	337.523	80.006	19.996	103.593	19.198	66.001	0.470
512.500	337.807	80.006	19.995	103.594	19.185	66.893	0.482
513.000	338.087	80.006	19.994	103.598	19.172	67.780	0.536
513.500	338.326	80.005	19.994	103.606	19.160	68.589	0.541
514.000	338.559	80.006	19.994	103.614	19.144	69.725	0.495
514.500	338.818	80.007	19.994	103.622	19.133	70.464	0.482
515.000	339.091	80.006	19.994	103.632	19.116	71.651	0.512
515.500	339.312	80.008	19.994	103.636	19.103	72.524	0.513
516.000	339.612	80.007	19.995	103.641	19.086	73.709	0.508
516.500	339.855	80.006	19.995	103.642	19.071	74.771	0.533
517.000	340.143	80.007	19.995	103.649	19.057	75.693	0.537
517.500	340.374	80.007	19.995	103.656	19.039	76.950	0.525
518.000	340.627	80.007	19.995	103.663	19.029	77.616	0.502
518.500	340.861	80.006	19.994	103.667	19.013	78.742	0.486
519.000	341.147	80.007	19.996	103.678	18.996	79.891	0.504
519.500	341.404	80.007	19.994	103.686	18.983	80.843	0.532
520.000	341.661	80.007	19.995	103.693	18.968	81.859	0.528
520.500	341.946	80.008	19.996	103.701	18.952	82.912	0.528
521.000	342.190	80.007	19.994	103.708	18.938	83.869	0.536
521.500	342.418	80.008	19.995	103.711	18.922	84.995	0.501
522.000	342.669	80.008	19.993	103.711	18.910	85.791	0.475
522.500	342.957	80.009	19.994	103.712	18.892	87.040	0.509
523.000	343.208	80.006	19.994	103.712	18.879	87.926	0.539
523.500	343.466	80.008	19.995	103.718	18.865	88.861	0.524
524.000	343.708	80.008	19.994	103.719	18.851	89.881	0.504
524.500	343.979	80.005	19.993	103.720	18.838	90.723	0.507
525.000	344.215	80.007	19.994	103.722	18.825	91.626	0.510
525.500	344.529	80.006	19.995	103.721	18.811	92.585	0.528
526.000	344.749	80.007	19.995	103.716	18.797	93.558	0.542
526.500	345.027	80.007	19.993	103.716	18.782	94.556	0.516
527.000	345.304	80.007	19.994	103.715	18.773	95.161	0.526
527.500	345.550	80.006	19.995	103.714	18.763	95.850	0.539
528.000	345.792	80.006	19.994	103.714	18.756	96.319	0.506
528.500	346.077	80.005	19.995	103.713	18.740	97.412	0.507
529.000	346.328	80.007	19.996	103.712	18.731	97.994	0.531
529.500	346.601	80.007	19.994	103.709	18.726	98.318	0.530
530.000	346.819	80.004	19.995	103.706	18.717	98.960	0.508
530.500	347.100	80.005	19.995	103.700	18.710	99.419	0.495
531.000	347.376	80.004	19.995	103.693	18.707	99.633	0.528
531.500	347.614	80.005	19.995	103.685	18.702	99.944	0.535
532.000	347.918	80.005	19.994	103.677	18.700	100.087	0.528
532.500	348.194	80.006	19.994	103.666	18.700	100.067	0.561
533.000	348.411	80.005	19.995	103.656	18.699	100.142	0.536
533.500	348.637	80.005	19.995	103.649	18.700	100.012	0.468
534.000	348.962	80.004	19.994	103.641	18.701	99.951	0.497
534.500	349.200	80.004	19.995	103.631	18.703	99.853	0.557
535.000	349.470	80.005	19.994	103.622	18.706	99.585	0.536
535.500	349.744	80.004	19.993	103.614	18.710	99.304	0.526
536.000	350.030	80.005	19.993	103.605	18.720	98.646	0.552
536.500	350.273	80.004	19.994	103.590	18.728	98.072	0.545
537.000	350.538	80.004	19.993	103.578	18.737	97.471	0.519
537.500	350.788	80.005	19.994	103.566	18.747	96.770	0.511
538.000	351.069	80.006	19.996	103.551	18.760	95.842	0.523
538.500	351.301	80.006	19.994	103.537	18.773	95.002	0.522
539.000	351.587	80.005	19.995	103.521	18.790	93.788	0.515
539.500	351.847	80.003	19.994	103.506	18.805	92.789	0.532
540.000	352.134	80.006	19.995	103.495	18.818	91.834	0.547
540.500	352.391	80.005	19.994	103.480	18.837	90.559	0.545
541.000	352.649	80.005	19.994	103.466	18.858	89.135	0.529
541.500	352.943	80.005	19.994	103.458	18.880	87.615	0.533
542.000	353.179	80.005	19.993	103.449	18.897	86.392	0.541
542.500	353.473	80.005	19.994	103.435	18.920	84.864	0.530
543.000	353.745	80.004	19.994	103.426	18.945	83.158	0.548
543.500	353.971	80.005	19.994	103.418	18.967	81.616	0.532
544.000	354.275	80.005	19.994	103.409	18.988	80.178	0.514
544.500	354.540	80.004	19.993	103.400	19.012	78.524	0.549
545.000	354.762	80.006	19.995	103.394	19.036	76.889	0.528
545.500	355.050	80.007	19.995	103.387	19.058	75.330	0.499
546.000	355.345	80.006	19.993	103.378	19.080	73.866	0.547
546.500	355.595	80.005	19.993	103.371	19.107	71.950	0.564
547.000	355.890	80.005	19.994	103.366	19.128	70.507	0.545
547.500	356.145	80.006	19.994	103.361	19.153	68.820	0.547
548.000	356.379	80.006	19.992	103.360	19.178	67.094	0.519
548.500	356.654	80.004	19.994	103.360	19.197	65.771	0.499
549.000	356.890	80.006	19.994	103.357	19.222	64.092	0.510
549.500	357.175	80.005	19.994	103.353	19.241	62.725	0.517
550.000	357.451	80.005	19.994	103.351	19.265	61.135	0.542
550.500	357.727	80.006	19.994	103.343	19.284	59.776	0.557
551.000	357.984	80.006	19.995	103.335	19.307	58.200	0.542
551.500	358.234	80.006	19.995	103.329	19.327	56.842	0.520
552.000	358.477	80.005	19.993	103.325	19.345	55.620	0.500
552.500	358.797	80.005	19.994	103.321	19.367	54.067	0.528
553.000	359.060	80.005	19.995	103.320	19.385	52.871	0.573
553.500	359.307	80.006	19.993	103.320	19.401	51.746	0.546
554.000	359.580	80.006	19.995	103.320	19.420	50.445	0.515
554.500	359.850	80.006	19.996	103.319	19.436	49.366	0.532
555.000	360.118	80.006	19.995	103.318	19.452	48.274	0.541
555.500	360.372	80.005	19.995	103.318	19.470	47.019	0.530
556.000	360.643	80.006	19.995	103.316	19.482	46.168	0.524
556.500	360.916	80.004	19.995	103.313	19.499	45.030	0.534
557.000	361.192	80.005	19.996	103.310	19.513	44.038	0.546
557.500	361.449	80.005	19.995	103.305	19.528	43.039	0.541
558.000	361.685	80.004	19.995	103.299	19.542	42.074	0.513
558.500	361.996	80.005	19.994	103.294	19.552	41.422	0.520
559.000	362.273	80.005	19.995	103.288	19.565	40.499	0.567
559.500	362.503	80.004	19.996	103.286	19.576	39.761	0.547
560.000	362.791	80.004	19.995	103.283	19.586	39.038	0.513
560.500	363.006	80.005	19.996	103.282	19.598	38.219	0.510
561.000	363.303	80.005	19.996	103.282	19.609	37.466	0.507
561.500	363.581	80.004	19.996	103.282	19.620	36.684	0.544
562.000	363.812	80.003	19.995	103.282	19.627	36.202	0.542
562.500	364.098	80.003	19.995	103.282	19.634	35.735	0.513
563.000	364.353	80.003	19.995	103.282	19.645	35.027	0.529
563.500	364.589	80.004	19.996	103.282	19.652	34.530	0.516
564.000	364.892	80.005	19.994	103.282	19.662	33.818	0.515
564.500	365.142	80.005	19.996	103.282	19.668	33.451	0.546
565.000	365.420	80.003	19.994	103.282	19.677	32.772	0.540
565.500	365.703	80.004	19.995	103.282	19.683	32.381	0.545
566.000	365.903	80.004	19.995	103.281	19.692	31.793	0.522
566.500	366.193	80.003	19.995	103.281	19.695	31.564	0.487
567.000	366.485	80.006	19.995	103.280	19.701	31.173	0.536
567.500	366.747	80.005	19.996	103.280	19.704	30.950	0.568
568.000	366.991	80.005	19.996	103.280	19.711	30.467	0.531
568.500	367.266	80.005	19.996	103.281	19.715	30.189	0.512
569.000	367.514	80.005	19.995	103.282	19.723	29.631	0.520
569.500	367.748	80.005	19.995	103.282	19.724	29.570	0.502
570.000	368.027	80.006	19.995	103.282	19.730	29.177	0.497
570.500	368.265	80.005	19.994	103.282	19.733	28.943	0.515
571.000	368.530	80.006	19.995	103.282	19.735	28.813	0.511
571.500	368.825	80.006	19.995	103.282	19.742	28.334	0.531
572.000	369.088	80.006	19.995	103.282	19.742	28.360	0.558
572.500	369.354	80.007	19.994	103.281	19.747	27.985	0.543
573.000	369.616	80.006	19.995	103.281	19.751	27.718	0.529
573.500	369.852	80.005	19.995	103.281	19.752	27.631	0.513
574.000	370.150	80.004	19.993	103.281	19.754	27.500	0.516
574.500	370.427	80.006	19.995	103.281	19.756	27.342	0.555
575.000	370.644	80.006	19.993	103.281	19.760	27.112	0.535
575.500	370.897	80.006	19.994	103.280	19.760	27.085	0.482
576.000	371.160	80.006	19.996	103.279	19.764	26.816	0.493
576.500	371.405	80.006	19.994	103.279	19.766	26.657	0.512
577.000	371.666	80.007	19.995	103.279	19.767	26.634	0.506
577.500	371.909	80.006	19.994	103.279	19.768	26.527	0.505
578.000	372.195	80.007	19.994	103.279	19.771	26.371	0.517
578.500	372.453	80.006	19.996	103.280	19.770	26.391	0.537
579.000	372.736	80.005	19.994	103.280	19.773	26.212	0.542
579.500	372.997	80.006	19.996	103.280	19.773	26.230	0.542
580.000	373.281	80.007	19.995	103.280	19.775	26.095	0.545
580.500	373.549	80.006	19.995	103.280	19.774	26.117	0.549
581.000	373.782	80.006	19.994	103.280	19.776	25.980	0.526
581.500	374.028	80.007	19.995	103.280	19.779	25.824	0.490
582.000	374.290	80.006	19.995	103.281	19.776	26.011	0.493
582.500	374.572	80.005	19.995	103.281	19.779	25.787	0.526
583.000	374.817	80.005	19.995	103.282	19.779	25.780	0.536
583.500	375.081	80.005	19.995	103.282	19.784	25.470	0.518
584.000	375.373	80.005	19.995	103.282	19.780	25.701	0.532
584.500	375.602	80.005	19.995	103.283	19.783	25.519	0.538
585.000	375.847	80.005	19.995	103.283	19.780	25.755	0.497
585.500	376.101	80.005	19.995	103.283	19.783	25.516	0.486
586.000	376.374	80.005	19.996	103.283	19.782	25.571	0.513
586.500	376.638	80.004	19.995	103.283	19.781	25.654	0.532
587.000	376.902	80.005	19.995	103.283	19.783	25.497	0.533
587.500	377.154	80.004	19.995	103.283	19.779	25.767	0.522
588.000	377.393	80.005	19.994	103.284	19.783	25.552	0.503
588.500	377.686	80.004	19.996	103.283	19.784	25.469	0.511
589.000	377.894	80.005	19.995	103.283	19.782	25.561	0.517
589.500	378.197	80.006	19.995	103.283	19.782	25.574	0.507
590.000	378.446	80.005	19.996	103.283	19.783	25.552	0.532
590.500	378.717	80.005	19.997	103.283	19.781	25.683	0.536
591.000	378.955	80.004	19.996	103.283	19.784	25.480	0.514
591.500	379.212	80.006	19.994	103.283	19.784	25.426	0.502
592.000	379.463	80.004	19.994	103.284	19.782	25.608	0.502
592.500	379.723	80.006	19.995	103.283	19.784	25.424	0.510
593.000	379.986	80.006	19.995	103.283	19.782	25.618	0.517
593.500	380.224	80.005	19.995	103.283	19.783	25.548	0.512
594.000	380.486	80.005	19.995	103.283	19.780	25.747	0.500
594.500	380.742	80.005	19.996	103.284	19.781	25.667	0.509
595.000	381.016	80.004	19.994	103.286	19.780	25.703	0.525
595.500	381.273	80.008	19.996	103.287	19.780	25.758	0.531
596.000	381.503	80.006	19.996	103.287	19.781	25.653	0.509
596.500	381.781	80.006	19.995	103.288	19.781	25.648	0.498
597.000	382.033	80.006	19.995	103.287	19.779	25.808	0.519
597.500	382.282	80.007	19.995	103.286	19.779	25.822	0.515
598.000	382.560	80.007	19.994	103.286	19.779	25.784	0.514
598.500	382.836	80.007	19.994	103.286	19.780	25.717	0.540
599.000	383.068	80.008	19.994	103.285	19.777	25.958	0.531
599.500	383.338	80.008	19.994	103.285	19.774	26.123	0.505
600.000	383.543	80.007	19.992	103.284	19.776	25.976	0.489
600.500	383.821	80.008	19.993	103.283	19.774	26.123	0.479
601.000	384.058	80.006	19.994	103.283	19.778	25.893	0.498
601.500	384.333	80.007	19.993	103.283	19.775	26.072	0.513
602.000	384.641	80.008	19.994	103.284	19.772	26.309	0.548
602.500	384.866	80.008	19.994	103.284	19.773	26.182	0.558
603.000	385.123	80.008	19.993	103.287	19.774	26.149	0.508
603.500	385.366	80.007	19.994	103.290	19.773	26.190	0.491
604.000	385.664	80.007	19.994	103.294	19.772	26.308	0.521
604.500	385.844	80.007	19.992	103.300	19.774	26.163	0.509
605.000	386.152	80.006	19.994	103.302	19.770	26.390	0.483
605.500	386.417	80.006	19.993	103.300	19.770	26.402	0.531
606.000	386.626	80.008	19.994	103.304	19.769	26.456	0.523
606.500	386.896	80.005	19.994	103.307	19.770	26.446	0.477
607.000	387.188	80.006	19.994	103.303	19.768	26.536	0.521
607.500	387.432	80.006	19.993	103.305	19.769	26.456	0.549
608.000	387.663	80.005	19.993	103.305	19.767	26.626	0.505
608.500	387.933	80.005	19.994	103.298	19.769	26.514	0.488
609.000	388.181	80.004	19.994	103.292	19.764	26.816	0.510
609.500	388.445	80.005	19.995	103.292	19.762	26.952	0.515
610.000	388.729	80.006	19.992	103.292	19.765	26.763	0.530
610.500	388.981	80.005	19.994	103.293	19.762	26.998	0.542
611.000	389.225	80.004	19.993	103.297	19.761	27.026	0.516
611.500	389.468	80.005	19.995	103.299	19.762	26.933	0.491
612.000	389.724	80.005	19.995	103.299	19.764	26.862	0.493
612.500	389.991	80.004	19.995	103.301	19.758	27.225	0.511
613.000	390.196	80.005	19.994	103.303	19.758	27.266	0.498
613.500	390.479	80.005	19.996	103.303	19.757	27.313	0.481
614.000	390.724	80.004	19.995	103.306	19.758	27.272	0.508
614.500	390.977	80.006	19.995	103.306	19.758	27.260	0.513
615.000	391.233	80.005	19.995	103.306	19.755	27.424	0.504
615.500	391.506	80.006	19.995	103.303	19.752	27.646	0.519
616.000	391.768	80.005	19.995	103.301	19.752	27.633	0.532
616.500	392.017	80.003	19.994	103.297	19.748	27.911	0.523
617.000	392.307	80.005	19.995	103.295	19.749	27.894	0.525
617.500	392.549	80.005	19.994	103.295	19.749	27.874	0.536
618.000	392.786	80.004	19.994	103.297	19.747	27.988	0.505
618.500	393.051	80.004	19.994	103.297	19.749	27.847	0.490
619.000	393.322	80.005	19.995	103.295	19.745	28.166	0.519
619.500	393.554	80.004	19.995	103.298	19.747	28.011	0.520
620.000	393.825	80.006	19.995	103.299	19.746	28.078	0.503
620.500	394.083	80.005	19.996	103.298	19.742	28.357	0.515
621.000	394.346	80.005	19.995	103.301	19.742	28.354	0.525
621.500	394.597	80.007	19.994	103.304	19.741	28.400	0.518
622.000	394.836	80.006	19.995	103.305	19.740	28.464	0.502
622.500	395.110	80.006	19.994	103.307	19.736	28.772	0.501
623.000	395.377	80.006	19.994	103.312	19.735	28.832	0.527
623.500	395.601	80.006	19.994	103.315	19.734	28.921	0.516
624.000	395.871	80.006	19.995	103.318	19.734	28.909	0.493
624.500	396.081	80.005	19.994	103.318	19.733	28.994	0.487
625.000	396.324	80.005	19.994	103.317	19.729	29.214	0.466
625.500	396.632	80.005	19.994	103.317	19.733	28.966	0.502
626.000	396.857	80.005	19.994	103.317	19.729	29.261	0.542
626.500	397.098	80.006	19.995	103.315	19.725	29.531	0.500
627.000	397.371	80.006	19.994	103.315	19.722	29.716	0.490
627.500	397.598	80.006	19.993	103.316	19.725	29.538	0.507
628.000	397.883	80.007	19.994	103.316	19.724	29.601	0.506
628.500	398.125	80.005	19.993	103.316	19.723	29.633	0.520
629.000	398.342	80.006	19.995	103.318	19.718	29.993	0.493
629.500	398.597	80.007	19.994	103.320	19.717	30.041	0.465
630.000	398.836	80.008	19.995	103.321	19.718	29.995	0.483
630.500	399.106	80.006	19.995	103.322	19.713	30.305	0.502
631.000	399.352	80.006	19.994	103.321	19.715	30.227	0.513
631.500	399.604	80.006	19.995	103.321	19.712	30.424	0.507
632.000	399.851	80.006	19.995	103.321	19.711	30.498	0.499
632.500	400.145	80.006	19.995	103.320	19.708	30.657	0.520
633.000	400.379	80.006	19.994	103.319	19.708	30.681	0.534
633.500	400.639	80.006	19.994	103.320	19.706	30.813	0.511
634.000	400.893	80.006	19.994	103.320	19.705	30.859	0.504
634.500	401.123	80.006	19.994	103.321	19.703	31.037	0.498
635.000	401.368	80.006	19.993	103.322	19.702	31.128	0.479
635.500	401.599	80.007	19.994	103.323	19.700	31.251	0.476
636.000	401.854	80.006	19.995	103.323	19.697	31.436	0.481
636.500	402.108	80.007	19.994	103.322	19.697	31.474	0.497
637.000	402.342	80.005	19.994	103.322	19.697	31.435	0.499
637.500	402.584	80.006	19.993	103.320	19.693	31.684	0.482
638.000	402.832	80.006	19.994	103.320	19.692	31.806	0.483
638.500	403.101	80.006	19.994	103.320	19.691	31.821	0.504
639.000	403.352	80.005	19.994	103.319	19.688	32.045	0.519
639.500	403.576	80.005	19.994	103.319	19.689	31.995	0.497
640.000	403.827	80.006	19.995	103.321	19.688	32.080	0.475
640.500	404.107	80.005	19.994	103.321	19.684	32.323	0.503
641.000	404.339	80.006	19.994	103.321	19.682	32.500	0.522
641.500	404.586	80.005	19.994	103.322	19.680	32.585	0.495
642.000	404.800	80.005	19.995	103.323	19.679	32.700	0.470
642.500	405.070	80.005	19.993	103.323	19.678	32.779	0.473
643.000	405.326	80.005	19.995	103.323	19.678	32.742	0.505
643.500	405.570	80.004	19.995	103.323	19.676	32.906	0.513
644.000	405.818	80.006	19.993	103.322	19.671	33.220	0.496
644.500	406.047	80.005	19.996	103.322	19.669	33.342	0.484
645.000	406.294	80.004	19.994	103.322	19.664	33.732	0.477
645.500	406.551	80.005	19.995	103.323	19.663	33.800	0.490
646.000	406.770	80.004	19.995	103.323	19.664	33.677	0.490
646.500	407.057	80.005	19.996	103.324	19.662	33.853	0.491
647.000	407.289	80.005	19.995	103.324	19.662	33.840	0.513
647.500	407.523	80.005	19.993	103.326	19.662	33.836	0.492
648.000	407.785	80.004	19.995	103.326	19.659	34.023	0.480
648.500	408.043	80.006	19.995	103.326	19.655	34.314	0.508
649.000	408.284	80.006	19.996	103.326	19.655	34.330	0.510
649.500	408.503	80.005	19.995	103.325	19.656	34.257	0.480
650.000	408.769	80.005	19.996	103.324	19.651	34.586	0.473
650.500	409.001	80.005	19.995	103.324	19.654	34.375	0.492
651.000	409.262	80.005	19.993	103.325	19.650	34.658	0.496
651.500	409.474	80.006	19.994	103.326	19.649	34.740	0.483
652.000	409.741	80.004	19.996	103.327	19.649	34.773	0.476
652.500	410.009	80.006	19.995	103.327	19.648	34.839	0.507
653.000	410.232	80.005	19.995	103.326	19.645	35.028	0.513
653.500	410.507	80.006	19.995	103.325	19.645	34.994	0.495
654.000	410.762	80.005	19.994	103.325	19.645	35.000	0.514
654.500	410.976	80.007	19.995	103.328	19.642	35.197	0.499
655.000	411.229	80.006	19.995	103.329	19.643	35.159	0.468
655.500	411.443	80.007	19.995	103.332	19.641	35.302	0.467
656.000	411.711	80.007	19.995	103.334	19.640	35.360	0.474
656.500	411.964	80.006	19.994	103.334	19.638	35.485	0.502
657.000	412.193	80.006	19.995	103.331	19.640	35.336	0.502
657.500	412.452	80.007	19.995	103.332	19.638	35.487	0.485
658.000	412.691	80.006	19.994	103.332	19.636	35.602	0.493
658.500	412.922	80.006	19.994	103.330	19.632	35.893	0.484
659.000	413.151	80.007	19.994	103.329	19.634	35.777	0.465
659.500	413.375	80.007	19.993	103.330	19.632	35.932	0.457
660.000	413.634	80.006	19.994	103.328	19.633	35.876	0.468
660.500	413.882	80.006	19.994	103.326	19.632	35.927	0.495
661.000	414.145	80.006	19.994	103.326	19.632	35.939	0.509
661.500	414.376	80.006	19.993	103.327	19.631	35.995	0.502
662.000	414.605	80.005	19.994	103.326	19.632	35.890	0.477
662.500	414.860	80.005	19.995	103.326	19.631	36.006	0.472
663.000	415.088	80.006	19.994	103.326	19.627	36.245	0.484
663.500	415.340	80.004	19.992	103.329	19.630	36.040	0.482
664.000	415.605	80.005	19.993	103.330	19.631	35.959	0.498
664.500	415.852	80.004	19.994	103.332	19.632	35.938	0.514
665.000	416.081	80.005	19.994	103.334	19.629	36.109	0.494
665.500	416.357	80.005	19.996	103.335	19.627	36.228	0.491
666.000	416.579	80.003	19.994	103.333	19.629	36.149	0.502
666.500	416.855	80.004	19.995	103.332	19.627	36.222	0.498
667.000	417.077	80.004	19.994	103.330	19.626	36.350	0.498
667.500	417.337	80.005	19.995	103.330	19.625	36.370	0.490
668.000	417.599	80.004	19.993	103.329	19.626	36.296	0.502
668.500	417.833	80.006	19.995	103.331	19.627	36.258	0.509
669.000	418.066	80.005	19.994	103.332	19.629	36.115	0.482
669.500	418.329	80.006	19.995	103.333	19.627	36.221	0.481
670.000	418.554	80.005	19.995	103.333	19.628	36.176	0.492
670.500	418.812	80.005	19.994	103.335	19.627	36.243	0.485
671.000	419.032	80.005	19.995	103.336	19.630	36.020	0.481
671.500	419.309	80.006	19.996	103.338	19.631	35.996	0.488
672.000	419.532	80.004	19.994	103.336	19.630	36.041	0.499
672.500	419.813	80.005	19.994	103.336	19.632	35.904	0.502
673.000	420.021	80.006	19.995	103.334	19.631	36.004	0.496
673.500	420.279	80.004	19.994	103.336	19.630	36.045	0.477
674.000	420.514	80.006	19.995	103.336	19.631	36.001	0.479
674.500	420.761	80.005	19.995	103.339	19.630	36.075	0.488
675.000	421.027	80.005	19.994	103.341	19.635	35.733	0.498
675.500	421.267	80.006	19.994	103.343	19.638	35.527	0.510
676.000	421.519	80.006	19.995	103.338	19.636	35.623	0.499
676.500	421.773	80.006	19.995	103.334	19.638	35.472	0.499
677.000	421.988	80.008	19.997	103.331	19.639	35.458	0.488
677.500	422.270	80.007	19.995	103.328	19.639	35.402	0.484
678.000	422.490	80.007	19.996	103.323	19.639	35.437	0.499
678.500	422.728	80.007	19.994	103.322	19.640	35.342	0.479
679.000	423.022	80.007	19.995	103.321	19.645	34.999	0.495
679.500	423.256	80.008	19.996	103.321	19.645	34.988	0.530
680.000	423.474	80.008	19.993	103.320	19.648	34.789	0.490
680.500	423.732	80.007	19.994	103.320	19.647	34.868	0.464
681.000	423.929	80.007	19.996	103.320	19.650	34.637	0.465
681.500	424.161	80.008	19.996	103.320	19.652	34.542	0.442
682.000	424.440	80.008	19.996	103.319	19.654	34.384	0.470
682.500	424.676	80.008	19.996	103.319	19.654	34.407	0.513
683.000	424.928	80.008	19.995	103.319	19.655	34.299	0.501
683.500	425.168	80.007	19.994	103.319	19.658	34.091	0.490
684.000	425.396	80.006	19.996	103.319	19.660	33.965	0.480
684.500	425.671	80.008	19.995	103.320	19.660	33.993	0.485
685.000	425.920	80.007	19.996	103.322	19.665	33.646	0.513
685.500	426.165	80.007	19.994	103.322	19.665	33.663	0.509
686.000	426.383	80.006	19.995	103.323	19.668	33.461	0.479
686.500	426.634	80.007	19.997	103.323	19.672	33.153	0.467
687.000	426.874	80.007	19.996	103.323	19.671	33.198	0.480
687.500	427.118	80.006	19.994	103.322	19.676	32.866	0.487
688.000	427.360	80.006	19.994	103.322	19.678	32.738	0.485
688.500	427.601	80.006	19.995	103.321	19.683	32.404	0.485
689.000	427.837	80.005	19.995	103.322	19.684	32.363	0.480
689.500	428.112	80.005	19.994	103.324	19.685	32.246	0.494
690.000	428.376	80.006	19.994	103.325	19.690	31.945	0.525
690.500	428.650	80.006	19.995	103.325	19.692	31.789	0.538
691.000	428.884	80.006	19.995	103.325	19.691	31.848	0.523
691.500	429.132	80.005	19.995	103.326	19.699	31.331	0.495
692.000	429.412	80.006	19.994	103.324	19.701	31.187	0.505
692.500	429.629	80.006	19.995	103.323	19.703	31.042	0.512
693.000	429.929	80.006	19.994	103.323	19.705	30.905	0.507
693.500	430.159	80.006	19.995	103.323	19.707	30.770	0.524
694.000	430.387	80.006	19.994	103.323	19.713	30.334	0.494
694.500	430.692	80.005	19.994	103.323	19.713	30.365	0.495
695.000	430.915	80.006	19.994	103.323	19.717	30.077	0.531
695.500	431.162	80.004	19.994	103.322	19.718	29.973	0.499
696.000	431.420	80.004	19.994	103.323	19.723	29.617	0.487
696.500	431.682	80.005	19.994	103.323	19.727	29.385	0.512
697.000	431.935	80.005	19.995	103.323	19.726	29.431	0.518
697.500	432.175	80.005	19.994	103.323	19.733	28.979	0.504
698.000	432.460	80.005	19.995	103.323	19.734	28.889	0.509
698.500	432.756	80.005	19.994	103.323	19.736	28.743	0.553
699.000	433.020	80.005	19.995	103.322	19.738	28.621	0.571
699.500	433.306	80.006	19.995	103.322	19.744	28.193	0.555
700.000	433.530	80.005	19.995	103.322	19.745	28.145	0.530
700.500	433.829	80.006	19.995	103.321	19.749	27.847	0.516
701.000	434.083	80.006	19.995	103.320	19.751	27.736	0.538
701.500	434.389	80.006	19.995	103.319	19.753	27.575	0.557
702.000	434.640	80.006	19.995	103.319	19.757	27.287	0.559
702.500	434.946	80.006	19.995	103.318	19.760	27.124	0.557
703.000	435.189	80.006	19.994	103.315	19.761	27.005	0.553
703.500	435.457	80.006	19.994	103.314	19.764	26.808	0.530
704.000	435.774	80.007	19.994	103.314	19.770	26.396	0.548
704.500	436.018	80.005	19.995	103.315	19.771	26.348	0.573
705.000	436.275	80.006	19.994	103.314	19.773	26.179	0.531
705.500	436.570	80.006	19.994	103.314	19.776	26.007	0.527
706.000	436.828	80.007	19.994	103.310	19.778	25.894	0.552
706.500	437.106	80.005	19.994	103.305	19.780	25.723	0.544
707.000	437.367	80.005	19.994	103.305	19.787	25.245	0.538
707.500	437.602	80.005	19.996	103.303	19.787	25.252	0.517
708.000	437.900	80.006	19.994	103.302	19.788	25.186	0.515
708.500	438.153	80.005	19.995	103.302	19.789	25.124	0.542
709.000	438.444	80.006	19.995	103.300	19.793	24.832	0.547
709.500	438.715	80.005	19.995	103.292	19.798	24.518	0.553
710.000	438.997	80.006	19.995	103.289	19.795	24.680	0.558
710.500	439.232	80.006	19.994	103.291	19.800	24.372	0.535
711.000	439.509	80.006	19.995	103.291	19.802	24.229	0.515
711.500	439.804	80.005	19.996	103.291	19.804	24.083	0.542
712.000	440.069	80.005	19.994	103.294	19.808	23.793	0.566
712.500	440.341	80.005	19.995	103.295	19.812	23.528	0.548
713.000	440.583	80.004	19.995	103.291	19.810	23.675	0.525
713.500	440.885	80.004	19.995	103.290	19.814	23.365	0.529
714.000	441.169	80.004	19.995	103.289	19.817	23.185	0.565
714.500	441.414	80.005	19.994	103.287	19.820	22.965	0.557
715.000	441.699	80.004	19.995	103.286	19.823	22.770	0.529
715.500	441.955	80.005	19.994	103.286	19.826	22.574	0.535
716.000	442.258	80.005	19.995	103.286	19.829	22.325	0.550
716.500	442.527	80.005	19.994	103.286	19.832	22.121	0.566
717.000	442.809	80.006	19.994	103.286	19.831	22.210	0.562
717.500	443.072	80.005	19.995	103.286	19.833	22.068	0.548
718.000	443.339	80.005	19.994	103.287	19.836	21.909	0.537
718.500	443.665	80.005	19.994	103.287	19.837	21.825	0.562
719.000	443.916	80.004	19.994	103.286	19.841	21.512	0.585
719.500	444.136	80.005	19.994	103.287	19.842	21.458	0.524
720.000	444.450	80.005	19.994	103.286	19.844	21.333	0.502
720.500	444.700	80.004	19.994	103.286	19.845	21.225	0.549
721.000	444.968	80.004	19.995	103.287	19.848	21.063	0.541
721.500	445.238	80.004	19.995	103.286	19.850	20.899	0.528
722.000	445.519	80.005	19.994	103.287	19.855	20.570	0.544
722.500	445.771	80.003	19.994	103.286	19.857	20.455	0.542
723.000	446.053	80.005	19.995	103.286	19.856	20.498	0.534
723.500	446.345	80.004	19.993	103.285	19.862	20.088	0.555
724.000	446.586	80.005	19.994	103.285	19.861	20.133	0.553
724.500	446.866	80.004	19.994	103.285	19.865	19.901	0.527
725.000	447.122	80.005	19.995	103.285	19.866	19.781	0.529
725.500	447.411	80.006	19.994	103.285	19.871	19.440	0.540
726.000	447.681	80.004	19.993	103.286	19.870	19.533	0.551
726.500	447.967	80.004	19.994	103.286	19.875	19.194	0.558
727.000	448.217	80.005	19.994	103.286	19.875	19.205	0.547
727.500	448.495	80.004	19.994	103.286	19.877	19.084	0.533
728.000	448.787	80.006	19.994	103.284	19.882	18.714	0.549
728.500	449.043	80.005	19.994	103.280	19.884	18.607	0.558
729.000	449.312	80.004	19.994	103.279	19.883	18.675	0.536
729.500	449.610	80.005	19.993	103.280	19.887	18.373	0.546
730.000	449.861	80.005	19.994	103.279	19.889	18.211	0.558
730.500	450.140	80.004	19.993	103.280	19.889	18.222	0.540
731.000	450.386	80.005	19.995	103.284	19.892	18.048	0.527
731.500	450.731	80.005	19.994	103.282	19.893	17.957	0.558
732.000	450.979	80.005	19.993	103.276	19.898	17.619	0.592
732.500	451.252	80.005	19.995	103.271	19.898	17.627	0.558
733.000	451.507	80.006	19.995	103.270	19.901	17.426	0.524
733.500	451.780	80.006	19.994	103.269	19.903	17.265	0.527
734.000	452.056	80.006	19.993	103.268	19.904	17.213	0.538
734.500	452.338	80.005	19.994	103.269	19.908	16.928	0.553
735.000	452.607	80.006	19.995	103.269	19.909	16.824	0.555
735.500	452.902	80.006	19.993	103.267	19.912	16.670	0.558
736.000	453.159	80.004	19.996	103.262	19.910	16.804	0.558
736.500	453.456	80.005	19.995	103.260	19.917	16.335	0.553
737.000	453.706	80.006	19.995	103.260	19.917	16.302	0.551
737.500	453.974	80.005	19.994	103.262	19.918	16.216	0.533
738.000	454.227	80.006	19.994	103.261	19.922	15.940	0.519
738.500	454.532	80.005	19.995	103.262	19.924	15.842	0.540
739.000	454.811	80.005	19.993	103.261	19.925	15.785	0.571
739.500	455.089	80.006	19.994	103.259	19.927	15.608	0.570
740.000	455.391	80.006	19.994	103.255	19.928	15.520	0.568
740.500	455.640	80.007	19.996	103.252	19.930	15.386	0.566
741.000	455.973	80.005	19.994	103.248	19.930	15.407	0.567
741.500	456.221	80.005	19.993	103.248	19.936	14.967	0.582
742.000	456.526	80.005	19.995	103.248	19.939	14.771	0.567
742.500	456.743	80.005	19.994	103.247	19.938	14.882	0.537
743.000	457.027	80.006	19.994	103.245	19.938	14.830	0.512
743.500	457.310	80.004	19.993	103.245	19.945	14.356	0.534
744.000	457.582	80.005	19.994	103.243	19.947	14.252	0.561
744.500	457.851	80.006	19.994	103.243	19.945	14.354	0.548
745.000	458.101	80.006	19.995	103.243	19.951	13.990	0.530
745.500	458.362	80.004	19.994	103.243	19.955	13.677	0.515
746.000	458.690	80.005	19.995	103.243	19.959	13.421	0.550
746.500	458.956	80.005	19.996	103.242	19.959	13.445	0.591
747.000	459.228	80.005	19.995	103.242	19.960	13.324	0.566
747.500	459.506	80.006	19.994	103.243	19.962	13.229	0.545
748.000	459.778	80.006	19.995	103.244	19.960	13.324	0.550
748.500	460.056	80.005	19.993	103.243	19.967	12.890	0.550
749.000	460.335	80.007	19.994	103.244	19.967	12.894	0.553
749.500	460.601	80.006	19.994	103.243	19.970	12.637	0.551
750.000	460.831	80.004	19.994	103.242	19.969	12.711	0.521
750.500	461.118	80.005	19.994	103.242	19.972	12.549	0.507
751.000	461.396	80.006	19.995	103.242	19.973	12.425	0.541
751.500	461.688	80.005	19.994	103.243	19.975	12.290	0.568
752.000	461.930	80.006	19.995	103.242	19.978	12.125	0.551
752.500	462.222	80.005	19.995	103.242	19.978	12.125	0.534
753.000	462.480	80.005	19.994	103.242	19.981	11.891	0.542
753.500	462.764	80.006	19.994	103.242	19.985	11.655	0.546
754.000	463.047	80.006	19.994	103.242	19.986	11.570	0.555
754.500	463.288	80.007	19.995	103.242	19.989	11.334	0.545
755.000	463.585	80.007	19.994	103.241	19.990	11.321	0.531
755.500	463.831	80.007	19.995	103.238	19.991	11.206	0.541
756.000	464.093	80.007	19.994	103.236	19.992	11.167	0.525
756.500	464.391	80.006	19.995	103.235	19.994	11.019	0.533
757.000	464.659	80.007	19.994	103.235	19.998	10.754	0.563
757.500	464.940	80.007	19.994	103.230	19.997	10.810	0.558
758.000	465.196	80.006	19.995	103.226	20.002	10.476	0.543
758.500	465.462	80.007	19.995	103.225	20.000	10.613	0.529
759.000	465.770	80.007	19.993	103.226	20.002	10.459	0.548
759.500	466.053	80.006	19.995	103.226	20.001	10.517	0.582
760.000	466.323	80.007	19.994	103.229	20.006	10.202	0.572
760.500	466.612	80.007	19.995	103.231	20.007	10.137	0.556
761.000	466.870	80.006	19.994	103.229	20.009	10.013	0.553
761.500	467.117	80.006	19.995	103.226	20.008	10.064	0.526
762.000	467.427	80.009	19.995	103.226	20.010	9.933	0.531
762.500	467.682	80.007	19.994	103.226	20.010	9.920	0.560
763.000	467.956	80.007	19.995	103.224	20.013	9.713	0.547
763.500	468.197	80.007	19.995	103.222	20.017	9.466	0.522
764.000	468.497	80.006	19.994	103.220	20.017	9.431	0.528
764.500	468.756	80.007	19.995	103.216	20.017	9.450	0.550
765.000	469.031	80.006	19.995	103.212	20.016	9.490	0.546
765.500	469.284	80.006	19.995	103.209	20.018	9.385	0.531
766.000	469.593	80.006	19.995	103.209	20.021	9.152	0.545
766.500	469.839	80.005	19.996	103.209	20.022	9.078	0.559
767.000	470.127	80.006	19.995	103.207	20.023	8.992	0.545
767.500	470.392	80.005	19.996	103.208	20.024	8.959	0.544
768.000	470.682	80.004	19.995	103.209	20.027	8.768	0.554
768.500	470.978	80.005	19.996	103.209	20.028	8.692	0.570
769.000	471.207	80.004	19.996	103.207	20.027	8.753	0.555
769.500	471.456	80.005	19.996	103.206	20.029	8.581	0.501
770.000	471.754	80.004	19.995	103.205	20.029	8.626	0.513
770.500	471.986	80.003	19.996	103.204	20.030	8.555	0.539
771.000	472.263	80.005	19.996	103.204	20.031	8.468	0.520
771.500	472.535	80.004	19.995	103.203	20.033	8.320	0.529
772.000	472.823	80.004	19.995	103.201	20.034	8.285	0.554
772.500	473.085	80.005	19.995	103.201	20.035	8.220	0.555
773.000	473.379	80.005	19.995	103.201	20.035	8.168	0.553
773.500	473.647	80.003	19.995	103.202	20.036	8.096	0.559
774.000	473.948	80.005	19.994	103.203	20.038	7.974	0.566
774.500	474.172	80.005	19.995	103.203	20.040	7.874	0.547
775.000	474.435	80.005	19.995	103.203	20.038	8.014	0.506
775.500	474.739	80.005	19.996	103.203	20.037	8.079	0.527
776.000	475.025	80.004	19.994	103.202	20.044	7.605	0.579
776.500	475.262	80.003	19.994	103.202	20.042	7.714	0.557
777.000	475.535	80.005	19.995	103.204	20.039	7.890	0.516
777.500	475.785	80.005	19.994	103.204	20.045	7.540	0.517
778.000	476.079	80.005	19.995	103.205	20.042	7.705	0.534
778.500	476.344	80.004	19.995	103.205	20.044	7.610	0.552
779.000	476.581	80.004	19.994	103.206	20.047	7.347	0.530
779.500	476.856	80.005	19.995	103.206	20.047	7.344	0.507
780.000	477.109	80.004	19.995	103.205	20.046	7.414	0.520
780.500	477.402	80.004	19.995	103.205	20.051	7.096	0.537
781.000	477.651	80.004	19.995	103.205	20.048	7.274	0.544
781.500	477.909	80.005	19.994	103.205	20.047	7.348	0.524
782.000	478.209	80.005	19.994	103.205	20.049	7.213	0.532
782.500	478.446	80.004	19.994	103.206	20.050	7.177	0.548
783.000	478.731	80.004	19.994	103.206	20.051	7.073	0.530
783.500	478.958	80.006	19.994	103.205	20.052	7.034	0.517
784.000	479.272	80.002	19.995	103.205	20.054	6.888	0.526
784.500	479.534	80.005	19.994	103.205	20.057	6.713	0.558
785.000	479.790	80.005	19.993	103.204	20.053	6.959	0.547
785.500	480.039	80.006	19.995	103.204	20.054	6.913	0.512
786.000	480.334	80.004	19.995	103.205	20.055	6.856	0.525
786.500	480.603	80.005	19.994	103.203	20.057	6.680	0.554
787.000	480.856	80.005	19.994	103.202	20.058	6.624	0.543
787.500	481.138	80.004	19.995	103.202	20.057	6.692	0.528
788.000	481.396	80.005	19.994	103.203	20.057	6.694	0.537
788.500	481.659	80.005	19.995	103.201	20.057	6.690	0.531
789.000	481.949	80.004	19.995	103.203	20.060	6.463	0.537
789.500	482.192	80.005	19.993	103.202	20.058	6.613	0.543
790.000	482.458	80.005	19.995	103.202	20.059	6.559	0.521
790.500	482.745	80.005	19.994	103.200	20.058	6.633	0.531
791.000	482.997	80.005	19.994	103.201	20.061	6.407	0.546
791.500	483.271	80.004	19.994	103.203	20.059	6.519	0.533
792.000	483.521	80.006	19.993	103.204	20.060	6.458	0.525
792.500	483.772	80.004	19.995	103.205	20.060	6.495	0.512
793.000	484.064	80.005	19.996	103.206	20.065	6.117	0.522
793.500	484.302	80.004	19.995	103.205	20.060	6.473	0.536
794.000	484.556	80.004	19.995	103.204	20.062	6.310	0.510
794.500	484.830	80.003	19.995	103.198	20.060	6.465	0.510
795.000	485.099	80.004	19.994	103.195	20.060	6.474	0.536
795.500	485.334	80.004	19.994	103.192	20.064	6.207	0.524
796.000	485.584	80.005	19.994	103.188	20.061	6.380	0.494
796.500	485.847	80.005	19.994	103.184	20.065	6.160	0.499
797.000	486.146	80.004	19.994	103.187	20.066	6.087	0.537
797.500	486.421	80.004	19.995	103.185	20.065	6.135	0.568
798.000	486.675	80.002	19.994	103.184	20.066	6.061	0.552
798.500	486.929	80.005	19.996	103.184	20.068	5.911	0.519
799.000	487.178	80.004	19.993	103.183	20.068	5.928	0.506
799.500	487.459	80.003	19.994	103.182	20.068	5.935	0.517
800.000	487.688	80.004	19.994	103.183	20.069	5.863	0.520
800.500	487.958	80.004	19.995	103.181	20.067	5.970	0.504
801.000	488.213	80.003	19.994	103.182	20.070	5.819	0.512
801.500	488.516	80.005	19.994	103.184	20.067	5.996	0.542
802.000	488.777	80.004	19.994	103.187	20.069	5.856	0.561
802.500	488.997	80.004	19.994	103.186	20.067	5.967	0.523
803.000	489.292	80.004	19.995	103.190	20.068	5.898	0.498
803.500	489.538	80.003	19.994	103.195	20.069	5.888	0.528
804.000	489.810	80.004	19.995	103.198	20.069	5.894	0.529
804.500	490.056	80.004	19.994	103.195	20.069	5.837	0.518
805.000	490.288	80.003	19.995	103.194	20.068	5.900	0.498
805.500	490.612	80.005	19.995	103.192	20.073	5.605	0.518
806.000	490.825	80.005	19.995	103.189	20.073	5.572	0.547
806.500	491.086	80.004	19.995	103.185	20.072	5.674	0.505
807.000	491.341	80.005	19.994	103.188	20.072	5.662	0.495
807.500	491.624	80.005	19.993	103.192	20.072	5.653	0.527
808.000	491.889	80.005	19.995	103.192	20.074	5.494	0.543
808.500	492.141	80.006	19.994	103.191	20.075	5.429	0.532
809.000	492.398	80.007	19.995	103.189	20.076	5.359	0.513
809.500	492.627	80.007	19.994	103.188	20.076	5.394	0.497
810.000	492.937	80.005	19.994	103.184	20.075	5.422	0.512
810.500	493.200	80.005	19.995	103.181	20.076	5.393	0.556
811.000	493.451	80.008	19.995	103.183	20.075	5.443	0.543
811.500	493.692	80.007	19.994	103.187	20.078	5.213	0.503
812.000	494.002	80.006	19.994	103.186	20.076	5.411	0.522
812.500	494.249	80.007	19.995	103.189	20.077	5.287	0.554
813.000	494.526	80.007	19.994	103.189	20.076	5.383	0.541
813.500	494.792	80.007	19.994	103.185	20.078	5.253	0.533
814.000	495.043	80.007	19.994	103.181	20.075	5.425	0.530
814.500	495.299	80.006	19.993	103.179	20.079	5.207	0.512
815.000	495.551	80.006	19.995	103.178	20.077	5.288	0.507
815.500	495.845	80.007	19.994	103.179	20.078	5.272	0.527
816.000	496.112	80.007	19.994	103.179	20.078	5.253	0.553
816.500	496.346	80.007	19.994	103.179	20.080	5.120	0.531
817.000	496.600	80.007	19.993	103.180	20.083	4.910	0.495
817.500	496.845	80.007	19.994	103.177	20.079	5.203	0.494
818.000	497.107	80.007	19.993	103.174	20.081	5.051	0.503
818.500	497.388	80.007	19.994	103.174	20.082	4.988	0.525
819.000	497.651	80.006	19.993	103.172	20.080	5.099	0.544
819.500	497.895	80.007	19.993	103.171	20.081	5.044	0.525
820.000	498.183	80.006	19.995	103.172	20.080	5.084	0.519
820.500	498.440	80.007	19.994	103.178	20.081	5.068	0.539
821.000	498.723	80.007	19.995	103.183	20.081	5.040	0.542
821.500	498.974	80.008	19.994	103.189	20.082	4.983	0.537
822.000	499.264	80.007	19.994	103.193	20.081	5.031	0.538
822.500	499.510	80.007	19.994	103.191	20.078	5.259	0.538
823.000	499.768	80.005	19.995	103.186	20.081	5.018	0.520
823.500	500.030	80.007	19.995	103.180	20.081	5.038	0.512
824.000	500.273	80.006	19.995	103.174	20.080	5.118	0.513
824.500	500.575	80.007	19.994	103.171	20.081	5.038	0.526
825.000	500.808	80.007	19.994	103.173	20.082	4.979	0.540
825.500	501.085	80.006	19.994	103.174	20.080	5.092	0.522
826.000	501.314	80.005	19.994	103.178	20.082	4.979	0.508
826.500	501.588	80.006	19.996	103.179	20.081	5.038	0.505
827.000	501.830	80.005	19.995	103.177	20.084	4.808	0.509
827.500	502.136	80.006	19.994	103.175	20.086	4.690	0.531
828.000	502.378	80.006	19.995	103.171	20.084	4.805	0.548
828.500	502.629	80.006	19.994	103.168	20.080	5.138	0.521
829.000	502.888	80.006	19.995	103.167	20.083	4.914	0.501
829.500	503.178	80.006	19.995	103.166	20.083	4.916	0.529
830.000	503.448	80.006	19.995	103.168	20.085	4.783	0.555
830.500	503.668	80.006	19.995	103.169	20.085	4.764	0.525
831.000	503.953	80.007	19.994	103.169	20.082	4.964	0.498
831.500	504.179	80.006	19.995	103.168	20.085	4.745	0.508
832.000	504.433	80.007	19.995	103.170	20.088	4.585	0.495
832.500	504.705	80.006	19.995	103.171	20.090	4.440	0.503
833.000	504.974	80.007	19.994	103.173	20.086	4.683	0.534
833.500	505.253	80.008	19.995	103.173	20.087	4.638	0.544
834.000	505.500	80.007	19.994	103.176	20.086	4.664	0.537
834.500	505.803	80.007	19.995	103.177	20.089	4.488	0.538
835.000	506.030	80.006	19.994	103.176	20.086	4.703	0.540
835.500	506.297	80.006	19.995	103.176	20.086	4.720	0.512
836.000	506.564	80.007	19.994	103.179	20.085	4.759	0.514
836.500	506.832	80.008	19.995	103.178	20.088	4.576	0.535
837.000	507.072	80.006	19.995	103.175	20.091	4.370	0.521
837.500	507.304	80.008	19.995	103.172	20.088	4.557	0.490
838.000	507.591	80.008	19.994	103.170	20.088	4.562	0.496
838.500	507.838	80.007	19.995	103.167	20.087	4.603	0.527
839.000	508.126	80.008	19.995	103.166	20.089	4.507	0.535
839.500	508.366	80.007	19.993	103.167	20.088	4.568	0.531
840.000	508.658	80.007	19.994	103.168	20.088	4.532	0.530
840.500	508.892	80.007	19.995	103.168	20.090	4.451	0.529
841.000	509.184	80.008	19.993	103.168	20.087	4.610	0.526
841.500	509.477	80.005	19.995	103.168	20.088	4.529	0.555
842.000	509.700	80.008	19.993	103.169	20.089	4.509	0.550
842.500	509.955	80.006	19.994	103.169	20.088	4.579	0.497
843.000	510.188	80.006	19.994	103.171	20.087	4.654	0.483
843.500	510.458	80.007	19.995	103.174	20.090	4.402	0.495
844.000	510.750	80.007	19.994	103.174	20.091	4.356	0.532
844.500	510.988	80.008	19.994	103.173	20.091	4.335	0.546
845.000	511.228	80.006	19.994	103.174	20.087	4.613	0.504
845.500	511.518	80.007	19.993	103.174	20.093	4.244	0.504
846.000	511.772	80.007	19.995	103.172	20.091	4.379	0.537
846.500	512.020	80.005	19.995	103.175	20.093	4.203	0.523
847.000	512.285	80.006	19.995	103.176	20.091	4.334	0.508
847.500	512.497	80.005	19.993	103.177	20.094	4.144	0.495
848.000	512.778	80.005	19.994	103.177	20.095	4.057	0.485
848.500	513.028	80.004	19.994	103.177	20.089	4.486	0.512
849.000	513.303	80.006	19.994	103.174	20.092	4.297	0.528
849.500	513.541	80.005	19.996	103.174	20.093	4.238	0.519
850.000	513.838	80.005	19.994	103.171	20.092	4.264	0.524
850.500	514.119	80.005	19.994	103.166	20.093	4.181	0.557
851.000	514.345	80.006	19.995	103.163	20.092	4.277	0.543
851.500	514.641	80.005	19.994	103.163	20.093	4.225	0.515
852.000	514.896	80.004	19.994	103.163	20.095	4.097	0.536
852.500	515.168	80.005	19.995	103.167	20.089	4.466	0.539
853.000	515.413	80.004	19.996	103.171	20.089	4.473	0.522
853.500	515.703	80.006	19.994	103.178	20.090	4.442	0.526
854.000	515.931	80.003	19.995	103.189	20.093	4.212	0.527
854.500	516.180	80.004	19.995	103.187	20.091	4.344	0.498
855.000	516.440	80.005	19.995	103.186	20.094	4.175	0.493
855.500	516.692	80.006	19.996	103.184	20.093	4.218	0.510
856.000	516.968	80.004	19.995	103.178	20.093	4.240	0.520
856.500	517.221	80.004	19.995	103.166	20.092	4.257	0.528
857.000	517.454	80.003	19.995	103.168	20.091	4.336	0.507
857.500	517.723	80.004	19.995	103.168	20.091	4.355	0.494
858.000	518.013	80.005	19.994	103.168	20.094	4.112	0.531
858.500	518.263	80.003	19.995	103.168	20.094	4.166	0.549
859.000	518.493	80.004	19.995	103.168	20.092	4.299	0.510
859.500	518.784	80.004	19.996	103.168	20.097	3.909	0.501
860.000	519.027	80.002	19.995	103.170	20.097	3.936	0.527
860.500	519.275	80.004	19.994	103.171	20.094	4.125	0.512
861.000	519.546	80.004	19.995	103.171	20.093	4.221	0.505
861.500	519.797	80.004	19.995	103.171	20.096	3.984	0.521
862.000	520.075	80.003	19.995	103.171	20.095	4.079	0.525
862.500	520.298	80.004	19.995	103.170	20.095	4.088	0.515
863.000	520.589	80.004	19.995	103.169	20.093	4.194	0.508
863.500	520.848	80.004	19.996	103.169	20.090	4.446	0.532
864.000	521.107	80.004	19.994	103.169	20.092	4.286	0.534
864.500	521.365	80.006	19.994	103.169	20.092	4.312	0.517
865.000	521.607	80.004	19.995	103.169	20.092	4.251	0.508
865.500	521.851	80.004	19.996	103.169	20.094	4.124	0.493
866.000	522.096	80.005	19.995	103.168	20.094	4.127	0.488
866.500	522.347	80.004	19.994	103.168	20.093	4.190	0.493
867.000	522.613	80.005	19.995	103.167	20.092	4.249	0.506
867.500	522.860	80.005	19.994	103.166	20.093	4.214	0.515
868.000	523.121	80.006	19.994	103.166	20.096	3.988	0.511
868.500	523.378	80.007	19.994	103.166	20.092	4.257	0.513
869.000	523.591	80.006	19.995	103.165	20.096	4.036	0.493
869.500	523.890	80.005	19.995	103.169	20.094	4.157	0.491
870.000	524.100	80.006	19.995	103.170	20.094	4.153	0.511
870.500	524.404	80.006	19.995	103.169	20.094	4.129	0.512
871.000	524.660	80.006	19.995	103.169	20.093	4.199	0.537
871.500	524.915	80.006	19.995	103.170	20.093	4.199	0.535
872.000	525.138	80.005	19.994	103.166	20.099	3.809	0.494
872.500	525.423	80.006	19.995	103.165	20.095	4.107	0.493
873.000	525.681	80.005	19.994	103.165	20.096	4.029	0.525
873.500	525.906	80.005	19.996	103.164	20.097	3.968	0.513
874.000	526.187	80.006	19.994	103.165	20.095	4.079	0.495
874.500	526.441	80.005	19.994	103.171	20.098	3.897	0.521
875.000	526.691	80.006	19.995	103.173	20.096	3.981	0.520
875.500	526.965	80.006	19.995	103.174	20.096	3.979	0.514
876.000	527.185	80.006	19.995	103.175	20.096	3.979	0.508
876.500	527.440	80.006	19.994	103.175	20.096	4.012	0.484
877.000	527.660	80.005	19.995	103.168	20.099	3.816	0.476
877.500	527.922	80.005	19.994	103.167	20.098	3.836	0.479
878.000	528.153	80.005	19.995	103.166	20.100	3.753	0.488
878.500	528.457	80.005	19.994	103.165	20.097	3.958	0.514
879.000	528.681	80.005	19.995	103.165	20.096	4.012	0.531
879.500	528.961	80.005	19.995	103.166	20.097	3.912	0.516
880.000	529.205	80.005	19.995	103.166	20.099	3.814	0.514
880.500	529.474	80.004	19.995	103.166	20.095	4.070	0.519
881.000	529.680	80.005	19.995	103.166	20.098	3.844	0.494
881.500	529.974	80.005	19.994	103.167	20.099	3.829	0.487
882.000	530.220	80.006	19.994	103.167	20.101	3.694	0.520
882.500	530.440	80.005	19.994	103.166	20.099	3.816	0.503
883.000	530.712	80.005	19.995	103.166	20.097	3.936	0.479
883.500	530.977	80.005	19.995	103.166	20.098	3.846	0.514
884.000	531.208	80.006	19.994	103.165	20.099	3.829	0.516
884.500	531.455	80.006	19.994	103.166	20.099	3.831	0.487
885.000	531.698	80.005	19.995	103.167	20.097	3.949	0.484
885.500	531.967	80.005	19.994	103.167	20.100	3.740	0.501
886.000	532.245	80.004	19.995	103.167	20.097	3.969	0.530
886.500	532.489	80.005	19.995	103.168	20.098	3.882	0.535
887.000	532.732	80.004	19.995	103.168	20.098	3.890	0.504
887.500	532.998	80.007	19.994	103.167	20.099	3.799	0.498
888.000	533.241	80.006	19.995	103.166	20.098	3.849	0.509
888.500	533.506	80.005	19.995	103.166	20.098	3.855	0.509
889.000	533.753	80.006	19.994	103.166	20.095	4.086	0.510
889.500	534.011	80.005	19.995	103.166	20.100	3.760	0.509
890.000	534.264	80.005	19.995	103.166	20.099	3.788	0.508
890.500	534.558	80.007	19.995	103.166	20.099	3.816	0.529
891.000	534.801	80.006	19.994	103.167	20.099	3.773	0.542
891.500	535.063	80.006	19.994	103.167	20.100	3.733	0.521
892.000	535.306	80.007	19.995	103.166	20.101	3.677	0.505
892.500	535.563	80.006	19.994	103.166	20.100	3.758	0.502
893.000	535.829	80.006	19.994	103.167	20.100	3.736	0.512
893.500	536.110	80.006	19.994	103.166	20.102	3.605	0.535
894.000	536.326	80.007	19.994	103.167	20.099	3.829	0.522
894.500	536.599	80.007	19.993	103.166	20.100	3.740	0.493
895.000	536.823	80.007	19.994	103.166	20.098	3.896	0.493
895.500	537.095	80.007	19.994	103.166	20.098	3.894	0.497
896.000	537.330	80.007	19.994	103.164	20.101	3.685	0.502
896.500	537.548	80.008	19.994	103.162	20.098	3.862	0.480
897.000	537.896	80.007	19.994	103.161	20.098	3.864	0.509
897.500	538.098	80.007	19.993	103.161	20.103	3.503	0.558
898.000	538.370	80.007	19.994	103.160	20.101	3.673	0.512
898.500	538.614	80.007	19.994	103.162	20.097	3.927	0.495
899.000	538.865	80.006	19.994	103.164	20.100	3.705	0.505
899.500	539.132	80.007	19.996	103.164	20.101	3.644	0.507
900.000	539.362	80.006	19.995	103.164	20.099	3.812	0.508
900.500	539.612	80.006	19.994	103.164	20.097	3.953	0.488
901.000	539.877	80.007	19.994	103.164	20.097	3.907	0.497
901.500	540.110	80.007	19.995	103.165	20.099	3.820	0.507
902.000	540.389	80.006	19.994	103.166	20.098	3.888	0.505
902.500	540.642	80.007	19.994	103.166	20.100	3.744	0.522
903.000	540.893	80.006	19.994	103.166	20.100	3.725	0.518
903.500	541.163	80.006	19.994	103.164	20.097	3.944	0.513
904.000	541.415	80.006	19.993	103.163	20.097	3.914	0.522
904.500	541.672	80.007	19.994	103.163	20.099	3.805	0.515
905.000	541.912	80.006	19.994	103.163	20.099	3.812	0.503
905.500	542.151	80.007	19.994	103.164	20.100	3.733	0.488
906.000	542.424	80.006	19.994	103.167	20.101	3.694	0.495
906.500	542.702	80.006	19.995	103.168	20.100	3.735	0.531
907.000	542.915	80.005	19.994	103.168	20.101	3.672	0.521
907.500	543.179	80.007	19.993	103.168	20.097	3.970	0.485
908.000	543.413	80.004	19.996	103.168	20.097	3.923	0.488
908.500	543.671	80.006	19.993	103.168	20.101	3.644	0.494
909.000	543.935	80.006	19.994	103.166	20.100	3.733	0.507
909.500	544.188	80.007	19.994	103.166	20.098	3.886	0.520
910.000	544.449	80.006	19.993	103.166	20.098	3.840	0.515
910.500	544.687	80.005	19.994	103.166	20.101	3.660	0.506
911.000	544.926	80.007	19.995	103.166	20.100	3.738	0.488
911.500	545.228	80.006	19.993	103.167	20.104	3.488	0.510
912.000	545.445	80.006	19.993	103.168	20.098	3.840	0.530
912.500	545.690	80.006	19.994	103.169	20.100	3.718	0.490
913.000	545.937	80.006	19.995	103.170	20.098	3.857	0.477
913.500	546.179	80.005	19.994	103.170	20.101	3.647	0.490
914.000	546.473	80.007	19.994	103.170	20.103	3.560	0.513
914.500	546.724	80.007	19.995	103.170	20.102	3.614	0.540
915.000	546.991	80.007	19.995	103.168	20.101	3.672	0.531
915.500	547.193	80.006	19.994	103.168	20.100	3.699	0.494
916.000	547.473	80.006	19.994	103.168	20.099	3.794	0.476
916.500	547.741	80.006	19.994	103.167	20.101	3.688	0.515
917.000	547.986	80.006	19.993	103.167	20.100	3.742	0.531
917.500	548.222	80.007	19.994	103.168	20.101	3.675	0.497
918.000	548.520	80.007	19.993	103.168	20.101	3.651	0.507
918.500	548.739	80.006	19.995	103.168	20.102	3.594	0.525
919.000	548.981	80.007	19.995	103.169	20.098	3.853	0.489
919.500	549.268	80.006	19.994	103.168	20.100	3.703	0.495
920.000	549.506	80.007	19.993	103.168	20.100	3.746	0.527
920.500	549.735	80.007	19.994	103.167	20.100	3.707	0.496
921.000	550.033	80.007	19.994	103.167	20.100	3.735	0.497
921.500	550.285	80.007	19.994	103.164	20.103	3.553	0.539
922.000	550.543	80.008	19.995	103.164	20.101	3.651	0.530
922.500	550.803	80.006	19.993	103.164	20.097	3.925	0.514
923.000	551.069	80.007	19.994	103.164	20.100	3.699	0.522
923.500	551.286	80.006	19.994	103.164	20.101	3.688	0.505
924.000	551.552	80.006	19.994	103.167	20.098	3.892	0.483
924.500	551.843	80.006	19.993	103.167	20.099	3.781	0.520
925.000	552.049	80.006	19.994	103.168	20.100	3.762	0.527
925.500	552.333	80.005	19.995	103.168	20.101	3.660	0.494
926.000	552.564	80.005	19.994	103.167	20.100	3.699	0.503
926.500	552.831	80.005	19.995	103.167	20.102	3.584	0.506
927.000	553.074	80.005	19.994	103.167	20.102	3.573	0.504
927.500	553.323	80.003	19.995	103.167	20.101	3.649	0.501
928.000	553.611	80.005	19.996	103.167	20.101	3.682	0.514
928.500	553.870	80.003	19.995	103.167	20.098	3.849	0.542
929.000	554.116	80.005	19.996	103.168	20.098	3.838	0.526
929.500	554.376	80.003	19.995	103.168	20.096	3.981	0.505
930.000	554.649	80.004	19.995	103.168	20.099	3.773	0.520
930.500	554.882	80.003	19.995	103.168	20.100	3.731	0.519
931.000	555.161	80.004	19.994	103.168	20.103	3.510	0.509
931.500	555.401	80.005	19.995	103.167	20.100	3.755	0.516
932.000	555.650	80.004	19.995	103.167	20.099	3.818	0.504
932.500	555.909	80.005	19.994	103.167	20.101	3.653	0.498
933.000	556.150	80.004	19.994	103.167	20.098	3.890	0.504
933.500	556.412	80.004	19.994	103.167	20.099	3.834	0.502
934.000	556.679	80.005	19.994	103.166	20.097	3.968	0.517
934.500	556.959	80.004	19.994	103.165	20.098	3.894	0.538
935.000	557.171	80.005	19.995	103.164	20.099	3.823	0.519
935.500	557.409	80.004	19.996	103.163	20.097	3.966	0.471
936.000	557.670	80.005	19.995	103.163	20.096	4.031	0.474
936.500	557.935	80.004	19.995	103.163	20.096	4.019	0.512
937.000	558.213	80.006	19.995	103.160	20.098	3.886	0.534
937.500	558.487	80.005	19.995	103.159	20.099	3.794	0.547
938.000	558.673	80.005	19.995	103.160	20.097	3.973	0.506
938.500	558.962	80.004	19.994	103.160	20.098	3.884	0.468
939.000	559.215	80.006	19.994	103.160	20.097	3.958	0.509
939.500	559.501	80.006	19.995	103.163	20.101	3.684	0.541
940.000	559.704	80.005	19.994	103.165	20.100	3.720	0.513
940.500	559.965	80.006	19.994	103.165	20.098	3.897	0.477
941.000	560.277	80.005	19.995	103.163	20.097	3.942	0.519
941.500	560.460	80.004	19.994	103.163	20.095	4.068	0.534
942.000	560.738	80.004	19.994	103.162	20.097	3.921	0.478
942.500	560.971	80.004	19.996	103.162	20.099	3.812	0.486
943.000	561.218	80.004	19.995	103.162	20.098	3.847	0.495
943.500	561.542	80.005	19.995	103.164	20.094	4.142	0.525
944.000	561.737	80.004	19.994	103.164	20.099	3.801	0.545
944.500	562.051	80.005	19.994	103.164	20.098	3.903	0.514
945.000	562.247	80.005	19.995	103.165	20.097	3.951	0.510
945.500	562.542	80.004	19.995	103.165	20.095	4.088	0.501
946.000	562.772	80.004	19.995	103.164	20.098	3.840	0.507
946.500	563.054	80.005	19.996	103.163	20.097	3.931	0.518
947.000	563.287	80.004	19.995	103.163	20.098	3.838	0.513
947.500	563.479	80.004	19.995	103.164	20.098	3.901	0.470
948.000	563.738	80.005	19.996	103.164	20.102	3.579	0.438
948.500	563.974	80.004	19.996	103.164	20.103	3.512	0.473
949.000	564.263	80.005	19.995	103.165	20.098	3.847	0.510
949.500	564.512	80.006	19.995	103.165	20.099	3.820	0.532
950.000	564.764	80.006	19.995	103.164	20.096	3.992	0.520
950.500	564.989	80.005	19.996	103.163	20.101	3.649	0.489
951.000	565.239	80.005	19.996	103.164	20.094	4.127	0.475
951.500	565.496	80.005	19.996	103.163	20.095	4.110	0.491
952.000	565.794	80.005	19.996	103.164	20.097	3.955	0.531
952.500	566.100	80.005	19.995	103.164	20.098	3.894	0.579
953.000	566.302	80.005	19.996	103.163	20.100	3.751	0.556
953.500	566.493	80.005	19.995	103.164	20.095	4.103	0.451
954.000	566.784	80.005	19.995	103.163	20.099	3.810	0.438
954.500	566.992	80.005	19.996	103.163	20.094	4.123	0.491
955.000	567.281	80.006	19.996	103.163	20.098	3.903	0.498
955.500	567.487	80.006	19.995	103.163	20.098	3.857	0.496
956.000	567.772	80.004	19.995	103.163	20.098	3.886	0.493
956.500	568.055	80.004	19.995	103.162	20.093	4.207	0.530
957.000	568.357	80.004	19.996	103.162	20.099	3.834	0.577
957.500	568.533	80.003	19.996	103.162	20.099	3.812	0.532
958.000	568.814	80.005	19.996	103.162	20.093	4.209	0.467
958.500	569.069	80.005	19.995	103.162	20.100	3.764	0.496
959.000	569.316	80.004	19.995	103.162	20.098	3.877	0.519
959.500	569.641	80.005	19.995	103.163	20.097	3.910	0.537
960.000	569.810	80.003	19.994	103.163	20.091	4.329	0.533
960.500	570.068	80.004	19.996	103.164	20.100	3.749	0.460
961.000	570.353	80.004	19.994	103.165	20.102	3.570	0.485
961.500	570.562	80.005	19.993	103.166	20.087	4.649	0.519
962.000	570.874	80.003	19.996	103.166	20.094	4.175	0.507
962.500	571.137	80.005	19.994	103.166	20.101	3.692	0.548
963.000	571.359	80.005	19.995	103.165	20.088	4.560	0.530
963.500	571.592	80.004	19.995	103.165	20.100	3.762	0.470
964.000	571.902	80.004	19.994	103.165	20.100	3.757	0.499
964.500	572.142	80.004	19.995	103.166	20.088	4.566	0.547
965.000	572.343	80.004	19.995	103.166	20.089	4.490	0.495
965.500	572.633	80.004	19.994	103.166	20.108	3.153	0.466
966.000	572.911	80.004	19.994	103.166	20.093	4.192	0.530
966.500	573.138	80.004	19.994	103.167	20.097	3.929	0.537
967.000	573.402	80.005	19.993	103.167	20.103	3.542	0.498
967.500	573.630	80.005	19.995	103.167	20.100	3.720	0.491
968.000	574.039	80.005	19.995	103.167	20.100	3.762	0.565
968.500	574.133	80.005	19.995	103.167	20.096	4.012	0.570
969.000	574.448	80.006	19.995	103.168	20.102	3.614	0.456
969.500	574.856	80.006	19.994	103.167	20.099	3.790	0.566
970.000	574.941	80.005	19.995	103.167	20.098	3.849	0.609
970.500	575.271	80.007	19.995	103.167	20.100	3.718	0.454
971.000	575.217	80.005	19.994	103.167	20.099	3.792	0.345
971.500	575.862	80.004	19.994	103.167	20.099	3.768	0.433
972.000	575.967	80.005	19.994	103.168	20.100	3.723	0.671
972.500	576.238	80.006	19.994	103.168	20.099	3.812	0.563
973.000	576.505	80.006	19.996	103.168	20.101	3.633	0.457
973.500	576.785	80.006	19.994	103.167	20.100	3.755	0.542
974.000	576.858	80.007	19.995	103.167	20.098	3.853	0.450
974.500	577.143	80.006	19.994	103.167	20.100	3.746	0.356
975.000	577.573	80.005	19.995	103.167	20.103	3.494	0.537
975.500	577.381	80.007	19.994	103.167	20.101	3.696	0.477
976.000	578.343	80.006	19.994	103.166	20.099	3.810	0.504
976.500	577.896	80.005	19.995	103.164	20.101	3.686	0.642
977.000	577.825	80.005	19.995	103.164	20.097	3.973	-0.002
977.500	578.425	80.007	19.993	103.164	20.103	3.544	0.006
978.000	579.512	80.007	19.994	103.163	20.099	3.777	1.108
978.500	578.776	80.008	19.993	103.164	20.097	3.962	1.019
979.000	578.850	80.006	19.995	103.166	20.097	3.959	-0.155
979.500	579.798	80.006	19.994	103.165	20.098	3.881	0.180
980.000	580.164	80.007	19.994	103.166	20.100	3.703	1.167
980.500	579.783	80.005	19.994	103.167	20.098	3.886	0.650
981.000	580.786	80.007	19.995	103.167	20.098	3.838	0.304
981.500	580.410	80.006	19.994	103.167	20.099	3.790	0.624
982.000	581.166	80.006	19.995	103.168	20.098	3.885	0.503
982.500	581.235	80.004	19.995	103.167	20.101	3.662	0.602
983.000	581.653	80.006	19.994	103.167	20.098	3.868	0.656
983.500	581.933	80.006	19.995	103.167	20.101	3.670	0.593
984.000	582.139	80.005	19.994	103.167	20.098	3.899	0.592
984.500	582.287	80.004	19.994	103.167	20.096	3.997	0.419
985.000	582.730	80.004	19.994	103.168	20.099	3.809	0.473
985.500	582.719	80.006	19.994	103.168	20.096	4.020	0.512
986.000	583.169	80.004	19.994	103.168	20.100	3.727	0.436
986.500	583.400	80.006	19.993	103.168	20.100	3.716	0.560
987.000	583.630	80.006	19.994	103.167	20.099	3.786	0.571
987.500	583.944	80.006	19.994	103.166	20.100	3.745	0.503
988.000	584.079	80.005	19.994	103.166	20.100	3.747	0.496
988.500	584.481	80.005	19.994	103.166	20.102	3.616	0.493
989.000	584.586	80.006	19.993	103.167	20.100	3.753	0.522
989.500	584.918	80.006	19.993	103.168	20.102	3.612	0.472
990.000	585.153	80.006	19.994	103.168	20.100	3.738	0.502
990.500	585.498	80.003	19.995	103.168	20.098	3.882	0.573
991.000	585.662	80.006	19.994	103.168	20.097	3.921	0.545
991.500	586.017	80.005	19.994	103.168	20.099	3.781	0.514
992.000	586.144	80.005	19.994	103.168	20.099	3.808	0.501
992.500	586.485	80.005	19.994	103.169	20.099	3.786	0.475
993.000	586.683	80.007	19.994	103.168	20.101	3.631	0.503
993.500	586.902	80.007	19.995	103.169	20.098	3.860	0.478
994.000	587.250	80.008	19.994	103.168	20.099	3.801	0.492
994.500	587.422	80.007	19.994	103.167	20.096	3.990	0.544
995.000	587.687	80.007	19.993	103.166	20.099	3.803	0.479
995.500	588.066	80.007	19.994	103.166	20.097	3.929	0.540
996.000	588.190	80.007	19.995	103.166	20.099	3.814	0.573
996.500	588.571	80.007	19.995	103.165	20.095	4.044	0.504
997.000	588.770	80.007	19.993	103.165	20.096	4.018	0.543
997.500	589.034	80.008	19.993	103.165	20.094	4.156	0.521
998.000	589.325	80.007	19.995	103.164	20.095	4.084	0.509
998.500	589.580	80.008	19.994	103.164	20.095	4.097	0.551
999.000	589.878	80.008	19.994	103.162	20.097	3.962	0.549
999.500	590.056	80.008	19.993	103.161	20.094	4.117	0.514
1000.000	590.411	80.008	19.993	103.160	20.095	4.069	0.504
1000.500	590.659	80.007	19.994	103.161	20.095	4.062	0.568
1001.000	590.883	80.008	19.995	103.160	20.095	4.060	0.538
1001.500	591.207	80.008	19.993	103.162	20.095	4.064	0.510
1002.000	591.444	80.008	19.994	103.162	20.097	3.938	0.554
1002.500	591.759	80.007	19.994	103.163	20.094	4.156	0.556
1003.000	591.956	80.008	19.994	103.163	20.096	4.008	0.532
1003.500	592.255	80.008	19.994	103.163	20.100	3.756	0.504
1004.000	592.572	80.007	19.993	103.163	20.096	4.030	0.556
1004.500	592.747	80.006	19.995	103.165	20.097	3.912	0.554
1005.000	593.057	80.008	19.994	103.165	20.098	3.895	0.489
1005.500	593.328	80.007	19.994	103.165	20.096	3.999	0.533
1006.000	593.526	80.007	19.994	103.164	20.095	4.090	0.525
1006.500	593.874	80.007	19.995	103.162	20.096	4.032	0.508
1007.000	594.196	80.006	19.995	103.162	20.097	3.966	0.608
1007.500	594.403	80.005	19.993	103.162	20.094	4.153	0.600
1008.000	594.701	80.005	19.995	103.162	20.093	4.197	0.517
1008.500	594.928	80.006	19.994	103.163	20.092	4.295	0.515
1009.000	595.239	80.005	19.995	103.163	20.092	4.297	0.532
1009.500	595.466	80.006	19.995	103.162	20.092	4.271	0.538
1010.000	595.747	80.005	19.995	103.160	20.092	4.251	0.523
1010.500	596.034	80.005	19.995	103.160	20.090	4.405	0.538
1011.000	596.269	80.006	19.995	103.160	20.092	4.303	0.545
1011.500	596.580	80.006	19.994	103.162	20.089	4.455	0.534
1012.000	596.827	80.006	19.994	103.161	20.090	4.403	0.552
1012.500	597.067	80.006	19.995	103.161	20.093	4.242	0.523
1013.000	597.361	80.005	19.994	103.161	20.091	4.334	0.510
1013.500	597.640	80.004	19.995	103.158	20.094	4.173	0.553
1014.000	597.920	80.006	19.994	103.155	20.093	4.199	0.566
1014.500	598.133	80.005	19.994	103.156	20.091	4.345	0.526
1015.000	598.458	80.005	19.995	103.157	20.090	4.418	0.515
1015.501	598.656	80.004	19.995	103.158	20.091	4.373	0.530
1016.000	598.988	80.005	19.996	103.160	20.094	4.153	0.527
1016.500	599.231	80.005	19.995	103.164	20.090	4.408	0.553
1017.000	599.541	80.005	19.996	103.165	20.089	4.458	0.564
1017.500	599.786	80.004	19.996	103.165	20.093	4.229	0.554
1018.000	600.037	80.005	19.996	103.165	20.092	4.308	0.526
1018.500	600.328	80.007	19.994	103.165	20.090	4.419	0.519
1019.000	600.622	80.005	19.994	103.164	20.089	4.466	0.563
1019.500	600.876	80.004	19.996	103.165	20.091	4.355	0.566
1020.000	601.172	80.005	19.996	103.164	20.087	4.647	0.549
1020.500	601.428	80.005	19.995	103.164	20.090	4.397	0.552
1021.000	601.643	80.006	19.995	103.163	20.088	4.532	0.511
1021.500	601.942	80.006	19.995	103.164	20.091	4.382	0.492
1022.000	602.164	80.005	19.995	103.164	20.088	4.582	0.518
1022.500	602.452	80.006	19.995	103.164	20.087	4.644	0.516
1023.000	602.744	80.005	19.995	103.164	20.087	4.603	0.545
1023.500	602.995	80.004	19.995	103.165	20.089	4.479	0.561
1024.000	603.252	80.005	19.995	103.165	20.088	4.581	0.526
1024.499	603.510	80.006	19.996	103.164	20.088	4.564	0.512
1024.999	603.795	80.005	19.994	103.164	20.089	4.486	0.529
1025.499	604.053	80.005	19.994	103.164	20.089	4.479	0.542
1025.999	604.342	80.005	19.995	103.164	20.091	4.318	0.545
1026.499	604.564	80.006	19.994	103.164	20.092	4.299	0.529
1026.999	604.873	80.006	19.994	103.164	20.090	4.397	0.521
1027.499	605.084	80.005	19.995	103.165	20.087	4.608	0.525
1027.999	605.445	80.005	19.995	103.165	20.093	4.240	0.546
1028.499	605.640	80.006	19.996	103.165	20.091	4.349	0.564
1028.999	605.929	80.005	19.995	103.165	20.090	4.449	0.520
1029.499	606.175	80.005	19.995	103.166	20.091	4.358	0.509
1029.999	606.470	80.006	19.995	103.166	20.093	4.236	0.538
1030.499	606.669	80.007	19.995	103.167	20.090	4.434	0.517
1030.999	606.965	80.005	19.995	103.167	20.090	4.410	0.495
1031.500	607.232	80.005	19.994	103.167	20.091	4.344	0.529
1032.000	607.492	80.004	19.994	103.166	20.092	4.268	0.545
1032.499	607.769	80.004	19.993	103.166	20.089	4.499	0.532
1032.999	608.026	80.004	19.995	103.166	20.091	4.360	0.536
1033.499	608.236	80.005	19.996	103.166	20.093	4.229	0.501
1033.999	608.501	80.003	19.995	103.167	20.091	4.334	0.471
1034.499	608.739	80.005	19.994	103.168	20.089	4.514	0.489
1034.999	609.010	80.005	19.993	103.167	20.092	4.297	0.506
1035.499	609.282	80.004	19.994	103.167	20.087	4.595	0.526
1035.999	609.547	80.003	19.996	103.168	20.092	4.279	0.540
1036.499	609.816	80.003	19.996	103.168	20.093	4.219	0.536
1036.999	610.104	80.003	19.994	103.168	20.091	4.375	0.546
1037.499	610.378	80.004	19.995	103.168	20.088	4.529	0.559
1037.999	610.608	80.005	19.994	103.168	20.091	4.329	0.533
1038.499	610.856	80.004	19.995	103.168	20.092	4.286	0.491
1039.000	611.150	80.003	19.997	103.167	20.091	4.336	0.511
1039.500	611.387	80.003	19.995	103.167	20.092	4.305	0.537
1040.000	611.694	80.003	19.996	103.167	20.095	4.101	0.538
1040.500	611.902	80.003	19.995	103.167	20.094	4.171	0.530
1040.999	612.178	80.003	19.996	103.167	20.090	4.416	0.499
1041.499	612.445	80.003	19.996	103.167	20.092	4.310	0.513
1041.999	612.728	80.003	19.996	103.165	20.095	4.084	0.546
1042.499	612.962	80.004	19.996	103.165	20.095	4.090	0.533
1042.999	613.218	80.003	19.996	103.164	20.093	4.183	0.503
1043.499	613.453	80.004	19.995	103.165	20.092	4.249	0.491
1043.999	613.781	80.005	19.995	103.164	20.091	4.381	0.527
1044.499	614.024	80.005	19.996	103.165	20.090	4.434	0.567
1044.999	614.279	80.003	19.996	103.164	20.093	4.214	0.535
1045.499	614.520	80.004	19.996	103.163	20.093	4.186	0.498
1045.999	614.836	80.004	19.995	103.161	20.094	4.149	0.527
1046.499	615.059	80.005	19.996	103.160	20.093	4.188	0.548
1046.999	615.325	80.005	19.996	103.159	20.093	4.220	0.514
1047.499	615.591	80.004	19.995	103.161	20.091	4.338	0.510
1047.999	615.880	80.005	19.996	103.160	20.092	4.281	0.543
1048.499	616.101	80.005	19.997	103.162	20.091	4.360	0.532
1048.999	616.337	80.006	19.996	103.162	20.092	4.275	0.483
1049.499	616.608	80.005	19.995	103.165	20.090	4.419	0.482
1049.999	616.882	80.005	19.995	103.165	20.090	4.388	0.526
1050.499	617.127	80.004	19.995	103.167	20.092	4.286	0.532
1050.999	617.374	80.005	19.994	103.168	20.092	4.312	0.506
1051.499	617.630	80.005	19.995	103.167	20.092	4.251	0.498
1051.999	617.843	80.006	19.995	103.166	20.092	4.295	0.486
1052.499	618.158	80.007	19.995	103.164	20.091	4.325	0.498
1052.999	618.393	80.006	19.994	103.165	20.093	4.203	0.539
1053.499	618.680	80.006	19.995	103.164	20.094	4.166	0.536
1053.999	618.934	80.006	19.994	103.166	20.095	4.055	0.532
1054.500	619.175	80.006	19.995	103.168	20.097	3.947	0.518
1055.000	619.464	80.007	19.994	103.170	20.093	4.227	0.512
1055.499	619.721	80.006	19.995	103.170	20.093	4.242	0.538
1055.999	619.994	80.006	19.994	103.170	20.092	4.251	0.538
1056.499	620.224	80.007	19.993	103.170	20.092	4.308	0.516
1056.999	620.474	80.007	19.994	103.170	20.094	4.121	0.491
1057.499	620.759	80.006	19.994	103.170	20.095	4.101	0.508
1057.999	620.991	80.007	19.995	103.169	20.094	4.166	0.526
1058.499	621.239	80.007	19.993	103.169	20.096	4.036	0.499
1058.999	621.492	80.006	19.994	103.168	20.096	4.005	0.490
1059.499	621.758	80.009	19.993	103.166	20.095	4.047	0.510
1059.999	621.977	80.007	19.994	103.164	20.098	3.855	0.502
1060.499	622.232	80.007	19.994	103.164	20.096	4.025	0.479
1060.999	622.485	80.006	19.994	103.162	20.097	3.962	0.491
1061.499	622.759	80.007	19.994	103.161	20.096	4.034	0.517
1062.000	623.022	80.007	19.994	103.162	20.098	3.873	0.532
1062.500	623.242	80.007	19.994	103.162	20.096	3.981	0.510
1062.999	623.526	80.006	19.995	103.162	20.093	4.229	0.494
1063.499	623.749	80.005	19.994	103.163	20.095	4.055	0.506
1063.999	624.032	80.005	19.994	103.162	20.095	4.104	0.507
1064.499	624.246	80.006	19.994	103.160	20.099	3.768	0.501
1064.999	624.536	80.006	19.994	103.161	20.094	4.151	0.500
1065.499	624.781	80.006	19.994	103.161	20.097	3.954	0.519
1066.000	625.045	80.006	19.993	103.161	20.093	4.230	0.522
1066.500	625.318	80.007	19.994	103.162	20.097	3.967	0.523
1066.999	625.540	80.006	19.994	103.163	20.095	4.060	0.516
1067.499	625.786	80.005	19.994	103.163	20.098	3.836	0.482
1067.999	626.030	80.006	19.994	103.163	20.094	4.147	0.479
1068.499	626.290	80.005	19.995	103.162	20.096	3.977	0.496
1068.999	626.570	80.006	19.994	103.163	20.098	3.873	0.522
1069.499	626.800	80.006	19.993	103.163	20.097	3.965	0.525
1069.999	627.121	80.007	19.993	103.163	20.096	3.976	0.531
1070.499	627.304	80.006	19.993	103.162	20.096	4.037	0.528
1070.999	627.580	80.006	19.994	103.161	20.096	3.980	0.481
1071.499	627.846	80.007	19.994	103.161	20.095	4.089	0.500
1072.000	628.082	80.006	19.994	103.160	20.099	3.824	0.522
1072.501	628.333	80.006	19.993	103.159	20.096	3.976	0.495
1073.000	628.609	80.007	19.994	103.159	20.097	3.960	0.507
1073.499	628.877	80.007	19.994	103.161	20.097	3.924	0.536
1073.999	629.134	80.005	19.994	103.161	20.097	3.921	0.534
1074.499	629.355	80.009	19.993	103.160	20.098	3.850	0.501
1074.999	629.621	80.007	19.994	103.159	20.098	3.837	0.482
1075.499	629.848	80.008	19.994	103.158	20.095	4.054	0.490
1075.999	630.131	80.007	19.994	103.157	20.095	4.051	0.502
1076.499	630.373	80.008	19.993	103.156	20.097	3.910	0.518
1076.999	630.597	80.007	19.995	103.157	20.098	3.871	0.496
1077.499	630.844	80.008	19.995	103.157	20.101	3.682	0.468
1077.999	631.079	80.008	19.993	103.159	20.098	3.882	0.476
1078.499	631.400	80.008	19.993	103.159	20.102	3.623	0.519
1078.999	631.652	80.009	19.994	103.158	20.097	3.934	0.565
1079.499	631.877	80.009	19.994	103.158	20.097	3.919	0.525
1079.999	632.165	80.008	19.994	103.157	20.099	3.767	0.495
1080.499	632.411	80.007	19.995	103.153	20.102	3.627	0.523
1080.999	632.641	80.008	19.994	103.151	20.101	3.634	0.505
1081.499	632.922	80.007	19.995	103.148	20.100	3.756	0.493
1081.999	633.161	80.007	19.995	103.145	20.101	3.656	0.516
1082.499	633.435	80.009	19.994	103.147	20.103	3.523	0.517
1082.999	633.709	80.007	19.993	103.148	20.099	3.795	0.530
1083.499	633.934	80.008	19.994	103.146	20.101	3.637	0.524
1083.999	634.183	80.007	19.993	103.145	20.103	3.519	0.487
1084.499	634.456	80.007	19.993	103.142	20.101	3.654	0.498
1084.999	634.718	80.006	19.995	103.142	20.102	3.593	0.529
1085.499	634.966	80.007	19.993	103.145	20.102	3.628	0.522
1085.999	635.214	80.006	19.994	103.145	20.104	3.484	0.502
1086.499	635.495	80.007	19.994	103.149	20.102	3.562	0.513
1086.999	635.728	80.007	19.993	103.154	20.103	3.504	0.522
1087.499	635.986	80.006	19.995	103.152	20.101	3.647	0.503
1087.999	636.250	80.007	19.994	103.147	20.104	3.436	0.507
1088.499	636.495	80.005	19.995	103.147	20.105	3.399	0.516
1088.999	636.740	80.005	19.994	103.147	20.106	3.310	0.499
1089.499	637.018	80.005	19.994	103.147	20.106	3.332	0.506
1090.000	637.249	80.006	19.994	103.149	20.106	3.332	0.516
1090.500	637.531	80.006	19.994	103.153	20.104	3.491	0.512
1090.999	637.762	80.006	19.993	103.152	20.102	3.593	0.513
1091.499	638.049	80.007	19.995	103.151	20.104	3.430	0.515
1091.999	638.269	80.007	19.993	103.151	20.104	3.457	0.512
1092.499	638.514	80.007	19.994	103.147	20.103	3.504	0.486
1092.999	638.797	80.006	19.995	103.147	20.104	3.452	0.497
1093.499	639.063	80.006	19.996	103.147	20.104	3.476	0.538
1093.999	639.276	80.006	19.994	103.145	20.105	3.366	0.514
1094.499	639.564	80.005	19.994	103.139	20.102	3.591	0.491
1094.999	639.817	80.006	19.995	103.141	20.103	3.513	0.521
1095.499	640.062	80.005	19.995	103.137	20.105	3.363	0.519
1095.999	640.306	80.005	19.994	103.135	20.105	3.374	0.493
1096.499	640.591	80.006	19.993	103.139	20.106	3.287	0.509
1096.999	640.823	80.006	19.994	103.144	20.105	3.391	0.523
1097.499	641.083	80.005	19.996	103.146	20.107	3.261	0.505
1097.999	641.360	80.004	19.994	103.151	20.109	3.134	0.515
1098.499	641.584	80.006	19.993	103.156	20.106	3.306	0.519
1098.999	641.828	80.004	19.994	103.157	20.106	3.317	0.485
1099.499	642.083	80.006	19.994	103.159	20.109	3.121	0.484
1100.000	642.357	80.006	19.994	103.161	20.108	3.202	0.513
1100.500	642.626	80.005	19.994	103.157	20.106	3.354	0.536
1101.000	642.851	80.005	19.994	103.152	20.107	3.261	0.519
1101.500	643.108	80.006	19.994	103.147	20.106	3.313	0.488
1101.999	643.377	80.006	19.994	103.139	20.107	3.286	0.504
1102.499	643.610	80.004	19.996	103.133	20.105	3.404	0.514
1102.999	643.870	80.005	19.994	103.132	20.104	3.428	0.498
1103.499	644.102	80.005	19.995	103.136	20.107	3.269	0.493
1104.000	644.359	80.004	19.995	103.139	20.109	3.143	0.490
1104.500	644.594	80.006	19.994	103.147	20.108	3.167	0.490
1104.999	644.892	80.005	19.994	103.151	20.109	3.123	0.512
1105.499	645.117	80.006	19.995	103.151	20.105	3.363	0.528
1105.999	645.401	80.004	19.994	103.147	20.107	3.245	0.516
1106.499	645.614	80.005	19.994	103.144	20.105	3.363	0.503
1106.999	645.888	80.005	19.995	103.138	20.109	3.139	0.492
1107.500	646.083	80.006	19.993	103.135	20.108	3.165	0.478
1108.001	646.380	80.005	19.995	103.135	20.105	3.393	0.481
1108.500	646.650	80.005	19.995	103.137	20.107	3.273	0.530
1108.999	646.854	80.005	19.995	103.137	20.109	3.119	0.521
1109.500	647.134	80.004	19.996	103.137	20.105	3.376	0.479
1110.000	647.363	80.005	19.995	103.139	20.109	3.145	0.497
1110.500	647.632	80.005	19.995	103.139	20.106	3.300	0.504
1111.001	647.881	80.004	19.995	103.137	20.111	3.004	0.508
1111.500	648.132	80.004	19.995	103.137	20.108	3.191	0.509
1111.999	648.401	80.004	19.995	103.139	20.105	3.365	0.510
1112.499	648.647	80.003	19.994	103.138	20.109	3.149	0.518
1112.999	648.908	80.005	19.995	103.141	20.108	3.215	0.511
1113.499	649.160	80.005	19.995	103.145	20.106	3.297	0.510
1113.999	649.405	80.004	19.995	103.150	20.109	3.138	0.505
1114.499	649.643	80.004	19.996	103.149	20.107	3.286	0.490
1114.999	649.931	80.003	19.996	103.148	20.107	3.258	0.504
1115.500	650.166	80.004	19.995	103.146	20.109	3.136	0.524
1116.000	650.416	80.003	19.994	103.145	20.105	3.399	0.504
1116.500	650.644	80.004	19.994	103.143	20.119	2.414	0.482
1117.001	650.932	80.004	19.993	103.144	20.105	3.371	0.497
1117.501	651.193	80.003	19.995	103.144	20.105	3.382	0.532
1118.001	651.450	80.003	19.995	103.144	20.109	3.108	0.533
1118.501	651.692	80.004	19.995	103.144	20.109	3.117	0.508
1119.000	651.958	80.004	19.994	103.144	20.109	3.114	0.504
1119.500	652.193	80.005	19.994	103.144	20.111	2.979	0.505
1120.001	652.449	80.005	19.995	103.146	20.107	3.245	0.496
1120.501	652.682	80.004	19.994	103.146	20.109	3.130	0.490
1121.001	652.931	80.005	19.994	103.144	20.105	3.410	0.485
1121.501	653.186	80.003	19.995	103.141	20.107	3.236	0.493
1122.000	653.460	80.003	19.995	103.142	20.124	2.084	0.517
1122.499	653.738	80.005	19.995	103.142	20.103	3.512	0.540
1122.999	653.954	80.003	19.996	103.140	20.107	3.273	0.523
1123.499	654.242	80.004	19.995	103.138	20.111	2.991	0.499
1124.000	654.488	80.004	19.996	103.136	20.106	3.295	0.519
1124.500	654.752	80.003	19.996	103.138	20.108	3.152	0.522
1124.999	655.007	80.004	19.996	103.141	20.110	3.058	0.515
1125.499	655.250	80.004	19.994	103.144	20.111	2.950	0.508
1126.000	655.514	80.003	19.995	103.151	20.108	3.187	0.502
1126.500	655.807	80.003	19.995	103.155	20.108	3.193	0.532
1126.999	656.028	80.004	19.995	103.151	20.114	2.793	0.536
1127.499	656.297	80.005	19.995	103.149	20.109	3.123	0.502
1127.999	656.572	80.006	19.994	103.150	20.107	3.225	0.516
1128.499	656.814	80.005	19.996	103.149	20.112	2.914	0.530
1128.999	656.960	80.006	19.995	103.148	20.111	2.990	0.453
1129.499	657.405	80.006	19.995	103.151	20.109	3.138	0.490
1129.999	657.470	80.005	19.995	103.150	20.109	3.091	0.550
1130.499	658.077	80.004	19.995	103.148	20.113	2.865	0.591
1130.999	657.609	80.003	19.996	103.147	20.110	3.034	0.405
1131.499	657.643	80.004	19.996	103.148	20.107	3.243	-0.147
1131.999	658.076	80.005	19.995	103.146	20.113	2.821	0.017
1132.499	658.838	80.005	19.996	103.145	20.111	2.976	0.831
1132.999	659.202	80.008	19.995	103.144	20.110	3.022	1.160
1133.499	659.087	80.006	19.996	103.145	20.109	3.111	0.687
1134.000	659.552	80.006	19.995	103.142	20.111	2.984	0.299
1134.500	659.756	80.007	19.996	103.143	20.111	2.969	0.509
1134.999	660.293	80.009	19.995	103.140	20.108	3.193	0.706
1135.499	660.420	80.007	19.995	103.137	20.109	3.106	0.703
1135.999	660.716	80.004	19.996	103.133	20.112	2.878	0.543
1136.499	660.618	80.006	19.995	103.131	20.109	3.111	0.310
1137.000	661.121	80.005	19.997	103.129	20.108	3.202	0.301
1137.500	661.302	80.007	19.996	103.130	20.108	3.200	0.545
1137.999	661.685	80.006	19.995	103.133	20.109	3.082	0.624
1138.499	661.904	80.006	19.996	103.137	20.110	3.056	0.583
1138.999	662.157	80.005	19.996	103.141	20.110	3.078	0.537
1139.499	662.381	80.005	19.995	103.144	20.111	2.965	0.474
1139.999	662.675	80.005	19.995	103.146	20.108	3.210	0.497
1140.499	662.898	80.007	19.995	103.146	20.108	3.198	0.517
1141.000	663.159	80.005	19.995	103.142	20.109	3.148	0.501
1141.501	663.445	80.006	19.994	103.138	20.107	3.254	0.516
1142.000	663.661	80.005	19.996	103.134	20.109	3.122	0.524
1142.499	663.956	80.005	19.996	103.132	20.109	3.084	0.506
1142.999	664.171	80.006	19.994	103.130	20.111	3.004	0.511
1143.499	664.457	80.006	19.994	103.129	20.110	3.080	0.506
1144.000	664.678	80.004	19.996	103.130	20.110	3.047	0.504
1144.500	664.889	80.006	19.995	103.130	20.111	2.956	0.470
1144.999	665.221	80.007	19.994	103.129	20.112	2.911	0.488
1145.499	665.437	80.005	19.995	103.129	20.109	3.124	0.546
1146.000	665.710	80.005	19.994	103.131	20.108	3.159	0.518
1146.500	665.955	80.005	19.994	103.129	20.111	2.982	0.503
1146.999	666.156	80.007	19.994	103.130	20.112	2.939	0.482
1147.499	666.419	80.007	19.994	103.130	20.111	2.984	0.455
1147.999	666.705	80.006	19.995	103.130	20.110	3.041	0.506
1148.499	666.934	80.007	19.994	103.128	20.110	3.019	0.532
1148.999	667.162	80.007	19.995	103.130	20.107	3.248	0.487
1149.500	667.397	80.006	19.996	103.130	20.109	3.130	0.460
1150.001	667.655	80.006	19.996	103.131	20.108	3.200	0.478
1150.500	667.925	80.007	19.995	103.132	20.108	3.215	0.510
1150.999	668.121	80.007	19.994	103.135	20.109	3.135	0.497
1151.500	668.384	80.006	19.995	103.133	20.114	2.782	0.463
1152.000	668.639	80.006	19.994	103.132	20.108	3.159	0.489
1152.500	668.933	80.007	19.995	103.133	20.114	2.778	0.534
1153.000	669.157	80.007	19.996	103.133	20.108	3.171	0.534
1153.499	669.396	80.007	19.995	103.132	20.111	3.004	0.491
1153.999	669.643	80.006	19.994	103.132	20.110	3.017	0.475
1154.499	669.881	80.007	19.995	103.132	20.110	3.056	0.485
1154.999	670.136	80.008	19.996	103.131	20.105	3.367	0.489
1155.500	670.414	80.007	19.995	103.130	20.108	3.211	0.513
1156.001	670.694	80.006	19.995	103.130	20.109	3.113	0.546
1156.501	670.939	80.007	19.994	103.129	20.107	3.230	0.542
1157.000	671.166	80.007	19.995	103.130	20.104	3.441	0.498
1157.499	671.401	80.008	19.994	103.130	20.097	3.907	0.467
1157.999	671.676	80.008	19.994	103.129	20.112	2.906	0.486
1158.499	671.882	80.008	19.995	103.129	20.106	3.311	0.496
1158.999	672.142	80.007	19.994	103.128	20.108	3.176	0.474
1159.499	672.380	80.009	19.994	103.130	20.109	3.124	0.482
1160.000	672.655	80.007	19.994	103.132	20.109	3.084	0.506
1160.500	672.895	80.009	19.994	103.132	20.110	3.061	0.513
1160.999	673.162	80.008	19.992	103.132	20.108	3.165	0.510
1161.499	673.385	80.006	19.995	103.132	20.109	3.085	0.499
1161.999	673.669	80.007	19.994	103.131	20.107	3.246	0.499
1162.499	673.899	80.006	19.995	103.130	20.110	3.063	0.510
1162.999	674.187	80.007	19.994	103.131	20.108	3.217	0.516
1163.499	674.404	80.007	19.994	103.133	20.108	3.161	0.512
1163.999	674.635	80.005	19.994	103.137	20.109	3.132	0.477
1164.499	674.940	80.005	19.994	103.140	20.112	2.893	0.492
1164.999	675.140	80.006	19.995	103.139	20.109	3.132	0.520
1165.499	675.451	80.006	19.995	103.140	20.111	2.950	0.508
1165.999	675.661	80.006	19.995	103.139	20.110	3.063	0.516
1166.499	675.951	80.006	19.995	103.137	20.108	3.215	0.510
1166.999	676.220	80.005	19.995	103.136	20.107	3.250	0.529
1167.499	676.443	80.005	19.994	103.137	20.109	3.091	0.525
1167.999	676.691	80.005	19.994	103.137	20.108	3.167	0.482
1168.500	676.974	80.006	19.994	103.138	20.107	3.249	0.501
1169.000	677.155	80.005	19.995	103.137	20.109	3.134	0.497
1169.499	677.440	80.005	19.995	103.136	20.109	3.082	0.465
1170.000	677.738	80.005	19.994	103.134	20.108	3.184	0.525
1170.500	677.964	80.005	19.995	103.133	20.111	2.976	0.554
1170.999	678.066	80.005	19.994	103.132	20.110	3.052	0.426
1171.500	677.997	80.004	19.993	103.131	20.109	3.121	0.181
1172.000	678.753	80.005	19.995	103.131	20.110	3.060	0.360
1172.499	678.962	80.003	19.995	103.133	20.110	3.023	0.826
1172.999	679.171	80.005	19.995	103.133	20.109	3.095	0.691
1173.500	679.486	80.004	19.994	103.135	20.110	3.049	0.471
1174.000	679.678	80.004	19.994	103.135	20.110	3.064	0.516
1174.500	680.005	80.005	19.995	103.135	20.108	3.177	0.513
1175.000	680.188	80.004	19.995	103.136	20.109	3.101	0.514
1175.499	680.456	80.004	19.994	103.137	20.104	3.428	0.480
1175.999	680.716	80.004	19.994	103.137	20.107	3.250	0.489
1176.499	680.979	80.004	19.993	103.137	20.105	3.380	0.526
1176.999	681.222	80.003	19.994	103.139	20.107	3.243	0.515
1177.500	681.475	80.005	19.995	103.138	20.107	3.273	0.501
1178.000	681.743	80.004	19.995	103.139	20.107	3.249	0.508
1178.499	681.984	80.004	19.994	103.139	20.109	3.125	0.515
1178.999	682.215	80.004	19.995	103.139	20.108	3.197	0.491
1179.499	682.491	80.005	19.994	103.139	20.108	3.217	0.489
1179.999	682.735	80.005	19.995	103.140	20.107	3.226	0.513
1180.499	682.995	80.003	19.995	103.139	20.107	3.262	0.512
1180.999	683.242	80.004	19.993	103.139	20.107	3.250	0.506
1181.499	683.480	80.006	19.994	103.141	20.107	3.267	0.496
1182.000	683.694	80.005	19.994	103.143	20.110	3.015	0.469
1182.500	683.982	80.006	19.994	103.145	20.109	3.097	0.477
1182.999	684.246	80.005	19.994	103.147	20.110	3.041	0.527
1183.500	684.485	80.005	19.994	103.147	20.112	2.893	0.527
1184.000	684.744	80.004	19.994	103.149	20.112	2.917	0.501
1184.499	685.010	80.005	19.994	103.151	20.109	3.117	0.512
1184.999	685.257	80.005	19.993	103.151	20.107	3.226	0.519
1185.499	685.516	80.006	19.994	103.147	20.109	3.110	0.510
1185.999	685.773	80.005	19.994	103.149	20.109	3.148	0.511
1186.499	686.001	80.005	19.994	103.147	20.110	3.048	0.500
1187.000	686.269	80.006	19.995	103.143	20.109	3.126	0.491
1187.500	686.504	80.004	19.994	103.142	20.108	3.163	0.500
1188.000	686.746	80.004	19.994	103.145	20.110	3.074	0.490
1188.501	686.988	80.005	19.994	103.143	20.106	3.328	0.481
1189.001	687.254	80.005	19.995	103.145	20.110	3.063	0.496
1189.501	687.402	80.005	19.994	103.144	20.108	3.171	0.461
1190.001	687.703	80.004	19.995	103.146	20.110	3.069	0.431
1190.500	687.977	80.005	19.995	103.144	20.106	3.289	0.512
1190.999	688.246	80.004	19.995	103.144	20.107	3.235	0.559
1191.500	688.509	80.006	19.995	103.141	20.105	3.369	0.537
1192.000	688.716	80.004	19.994	103.143	20.104	3.443	0.501
1192.499	688.988	80.004	19.994	103.141	20.104	3.424	0.475
1192.999	689.244	80.004	19.993	103.139	20.105	3.372	0.504
1193.500	689.509	80.005	19.994	103.140	20.107	3.270	0.524
1194.001	689.755	80.005	19.995	103.140	20.109	3.132	0.516
1194.500	690.053	80.004	19.995	103.137	20.105	3.408	0.528
1195.000	690.280	80.006	19.995	103.140	20.106	3.354	0.535
1195.500	690.521	80.003	19.995	103.141	20.107	3.245	0.497
1195.999	690.799	80.004	19.995	103.138	20.107	3.269	0.493
1196.499	691.027	80.004	19.995	103.136	20.107	3.219	0.512
1196.999	691.289	80.005	19.995	103.135	20.107	3.254	0.498
1197.499	691.538	80.004	19.995	103.134	20.106	3.341	0.500
1197.999	691.821	80.004	19.994	103.134	20.106	3.309	0.521
1198.499	692.046	80.004	19.995	103.137	20.106	3.324	0.520
1198.999	692.278	80.004	19.996	103.137	20.104	3.487	0.483
1199.499	692.519	80.004	19.995	103.136	20.103	3.493	0.465
1200.000	692.779	80.004	19.995	103.133	20.107	3.267	0.487
1200.500	693.044	80.004	19.996	103.132	20.104	3.470	0.513
1201.000	693.309	80.004	19.997	103.128	20.102	3.598	0.528
1201.500	693.577	80.005	19.996	103.129	20.102	3.626	0.532
1201.999	693.853	80.004	19.995	103.129	20.105	3.356	0.538
1202.499	694.077	80.003	19.996	103.129	20.106	3.297	0.522
1203.000	694.319	80.005	19.996	103.130	20.105	3.363	0.483
1203.500	694.592	80.004	19.994	103.129	20.104	3.482	0.490
1203.999	694.850	80.004	19.996	103.129	20.101	3.631	0.523
1204.499	695.126	80.005	19.996	103.131	20.109	3.143	0.532
1204.999	695.362	80.004	19.995	103.136	20.102	3.594	0.523
1205.499	695.631	80.004	19.995	103.137	20.106	3.309	0.509
1205.999	695.846	80.005	19.996	103.142	20.108	3.210	0.495
1206.499	696.124	80.004	19.996	103.145	20.107	3.280	0.489
1206.999	696.415	80.005	19.995	103.143	20.106	3.289	0.531
1207.499	696.646	80.005	19.996	103.138	20.106	3.323	0.545
1207.999	696.906	80.005	19.995	103.138	20.104	3.439	0.506
1208.499	697.178	80.006	19.995	103.135	20.105	3.380	0.511
1208.999	697.448	80.006	19.996	103.131	20.109	3.121	0.537
1209.499	697.730	80.006	19.995	103.131	20.104	3.430	0.547
1209.999	697.939	80.006	19.996	103.133	20.106	3.345	0.522
1210.499	698.234	80.006	19.995	103.133	20.104	3.457	0.498
1210.999	698.493	80.005	19.994	103.133	20.108	3.213	0.529
1211.500	698.768	80.005	19.994	103.133	20.109	3.128	0.544
1212.001	698.987	80.005	19.993	103.134	20.107	3.224	0.514
1212.501	699.278	80.006	19.995	103.133	20.109	3.139	0.502
1213.000	699.531	80.006	19.995	103.134	20.108	3.165	0.527
1213.500	699.748	80.005	19.996	103.135	20.110	3.074	0.506
1214.001	700.054	80.007	19.995	103.136	20.109	3.139	0.496
1214.500	700.327	80.006	19.995	103.135	20.107	3.278	0.551
1214.999	700.557	80.005	19.996	103.134	20.108	3.169	0.541
1215.499	700.803	80.005	19.995	103.131	20.108	3.150	0.490
1215.999	701.091	80.006	19.995	103.130	20.109	3.132	0.505
1216.500	701.351	80.007	19.997	103.133	20.110	3.045	0.541
1217.000	701.608	80.005	19.994	103.136	20.111	2.965	0.533
1217.500	701.863	80.006	19.995	103.141	20.108	3.161	0.514
1218.000	702.150	80.006	19.995	103.144	20.107	3.263	0.527
1218.499	702.368	80.005	19.994	103.143	20.106	3.354	0.524
1218.999	702.675	80.005	19.995	103.138	20.107	3.250	0.515
1219.499	702.894	80.005	19.996	103.135	20.106	3.322	0.525
1220.000	703.192	80.004	19.996	103.133	20.105	3.402	0.521
1220.500	703.438	80.003	19.995	103.131	20.108	3.208	0.531
1220.999	703.708	80.004	19.997	103.132	20.111	2.984	0.530
1221.500	703.956	80.005	19.996	103.132	20.106	3.335	0.517
1222.000	704.221	80.005	19.996	103.132	20.107	3.250	0.516
1222.499	704.463	80.006	19.996	103.129	20.105	3.363	0.510
1223.000	704.746	80.004	19.995	103.129	20.107	3.272	0.516
1223.500	704.989	80.003	19.996	103.127	20.106	3.343	0.526
1223.999	705.228	80.005	19.995	103.127	20.108	3.174	0.504
1224.499	705.503	80.004	19.996	103.127	20.107	3.250	0.498
1224.999	705.788	80.004	19.995	103.126	20.107	3.267	0.537
1225.500	706.048	80.004	19.995	103.127	20.107	3.267	0.552
1226.001	706.310	80.005	19.995	103.127	20.107	3.235	0.533
1226.500	706.588	80.004	19.995	103.127	20.107	3.258	0.531
1226.999	706.798	80.004	19.996	103.129	20.108	3.208	0.514
1227.499	707.089	80.005	19.995	103.130	20.109	3.111	0.495
1227.999	707.355	80.005	19.997	103.132	20.106	3.346	0.530
1228.499	707.580	80.005	19.995	103.134	20.104	3.448	0.524
1228.999	707.827	80.005	19.995	103.135	20.105	3.380	0.481
1229.499	708.084	80.004	19.996	103.134	20.107	3.269	0.488
1229.999	708.378	80.005	19.996	103.135	20.108	3.191	0.528
1230.499	708.616	80.005	19.996	103.133	20.108	3.180	0.542
1230.999	708.866	80.004	19.996	103.131	20.108	3.204	0.510
1231.499	709.137	80.006	19.995	103.130	20.108	3.202	0.504
1231.999	709.386	80.006	19.995	103.129	20.105	3.406	0.521
1232.499	709.648	80.006	19.995	103.128	20.108	3.158	0.515
1232.999	709.897	80.006	19.995	103.127	20.109	3.130	0.510
1233.499	710.166	80.006	19.996	103.127	20.106	3.302	0.514
1233.999	710.424	80.007	19.995	103.127	20.108	3.163	0.523
1234.499	710.672	80.007	19.995	103.128	20.105	3.372	0.517
1234.999	710.931	80.006	19.996	103.129	20.110	3.071	0.507
1235.499	711.166	80.008	19.995	103.130	20.109	3.089	0.501
1235.999	711.464	80.008	19.995	103.130	20.109	3.147	0.514
1236.499	711.715	80.007	19.996	103.131	20.107	3.265	0.541
1236.999	711.970	80.007	19.994	103.132	20.110	3.021	0.527
1237.500	712.187	80.007	19.995	103.132	20.108	3.183	0.489
1238.000	712.439	80.007	19.994	103.132	20.108	3.150	0.471
1238.499	712.719	80.007	19.994	103.132	20.108	3.206	0.500
1238.999	712.987	80.008	19.994	103.132	20.105	3.393	0.540
1239.499	713.220	80.006	19.994	103.131	20.103	3.546	0.525
1239.999	713.480	80.006	19.994	103.130	20.102	3.613	0.497
1240.499	713.694	80.006	19.994	103.130	20.106	3.307	0.483
1240.999	713.975	80.006	19.993	103.130	20.106	3.328	0.484
1241.500	714.269	80.006	19.994	103.129	20.106	3.354	0.535
1242.000	714.512	80.006	19.993	103.130	20.110	3.032	0.556
1242.499	714.754	80.007	19.995	103.129	20.105	3.378	0.511
1242.999	715.026	80.005	19.994	103.129	20.106	3.328	0.499
1243.499	715.270	80.007	19.995	103.130	20.104	3.452	0.515
1243.999	715.534	80.006	19.994	103.130	20.108	3.213	0.512
1244.500	715.780	80.007	19.993	103.132	20.107	3.222	0.509
1245.000	716.058	80.006	19.993	103.133	20.104	3.454	0.517
1245.499	716.315	80.006	19.993	103.134	20.109	3.093	0.529
1246.000	716.543	80.004	19.994	103.135	20.104	3.443	0.510
1246.500	716.807	80.006	19.994	103.136	20.106	3.354	0.489
1246.999	717.049	80.006	19.994	103.133	20.104	3.446	0.499
1247.499	717.360	80.004	19.995	103.132	20.104	3.487	0.529
1247.999	717.573	80.005	19.994	103.131	20.109	3.137	0.538
1248.499	717.840	80.004	19.994	103.129	20.103	3.531	0.502
1248.999	718.060	80.005	19.994	103.128	20.105	3.398	0.484
1249.500	718.330	80.005	19.994	103.128	20.106	3.335	0.488
1250.000	718.607	80.004	19.995	103.128	20.106	3.346	0.518
1250.499	718.834	80.005	19.994	103.128	20.109	3.137	0.525
1250.999	719.113	80.005	19.994	103.128	20.105	3.407	0.505
1251.499	719.376	80.005	19.994	103.129	20.107	3.228	0.524
1251.999	719.614	80.006	19.995	103.129	20.107	3.254	0.521
1252.499	719.865	80.005	19.995	103.129	20.108	3.170	0.495
1253.000	720.097	80.006	19.995	103.127	20.106	3.352	0.486
1253.500	720.353	80.003	19.994	103.127	20.105	3.422	0.485
1253.999	720.610	80.004	19.996	103.125	20.104	3.476	0.500
1254.499	720.858	80.003	19.995	103.125	20.104	3.459	0.509
1254.999	721.110	80.003	19.996	103.125	20.106	3.320	0.503
1255.499	721.357	80.004	19.995	103.126	20.108	3.156	0.499
1255.999	721.615	80.005	19.994	103.126	20.106	3.289	0.502
1256.499	721.853	80.004	19.994	103.128	20.108	3.202	0.501
1256.999	722.150	80.003	19.996	103.128	20.108	3.213	0.516
1257.500	722.417	80.005	19.995	103.130	20.104	3.459	0.549
1258.000	722.652	80.004	19.995	103.130	20.108	3.193	0.533
1258.499	722.877	80.004	19.995	103.130	20.106	3.291	0.481
1259.000	723.126	80.005	19.995	103.128	20.106	3.287	0.467
1259.500	723.425	80.004	19.995	103.128	20.106	3.318	0.511
1260.000	723.643	80.004	19.996	103.126	20.107	3.224	0.533
1260.500	723.913	80.003	19.996	103.126	20.106	3.307	0.502
1261.000	724.163	80.004	19.995	103.126	20.104	3.448	0.504
1261.501	724.422	80.006	19.994	103.126	20.106	3.304	0.515
1262.000	724.684	80.005	19.994	103.126	20.107	3.274	0.515
1262.499	724.942	80.005	19.995	103.126	20.106	3.287	0.521
1262.999	725.167	80.004	19.995	103.126	20.107	3.219	0.502
1263.499	725.399	80.005	19.996	103.130	20.105	3.359	0.470
1263.999	725.665	80.005	19.995	103.130	20.106	3.322	0.477
1264.499	725.948	80.006	19.995	103.130	20.105	3.376	0.523
1264.999	726.205	80.005	19.995	103.130	20.104	3.444	0.545
1265.499	726.442	80.006	19.994	103.131	20.109	3.119	0.517
1266.000	726.659	80.006	19.995	103.127	20.107	3.263	0.474
1266.500	726.973	80.007	19.994	103.127	20.101	3.683	0.493
1266.999	727.181	80.007	19.994	103.128	20.103	3.502	0.527
1267.499	727.456	80.005	19.995	103.127	20.104	3.454	0.502
1268.000	727.705	80.006	19.994	103.127	20.105	3.407	0.503
1268.500	727.958	80.006	19.994	103.127	20.106	3.346	0.513
1268.999	728.236	80.005	19.995	103.127	20.104	3.485	0.517
1269.500	728.508	80.005	19.995	103.127	20.105	3.411	0.540
1270.000	728.671	80.005	19.994	103.127	20.104	3.424	0.492
1270.499	728.978	80.006	19.994	103.128	20.102	3.565	0.452
1270.999	729.274	80.006	19.995	103.128	20.106	3.313	0.537
1271.499	729.520	80.004	19.995	103.128	20.108	3.204	0.572
1272.000	729.708	80.005	19.994	103.129	20.103	3.500	0.488
1272.500	729.955	80.005	19.994	103.128	20.105	3.396	0.435
1273.000	730.236	80.005	19.994	103.128	20.105	3.359	0.481
1273.501	730.499	80.006	19.996	103.128	20.104	3.450	0.535
1274.000	730.706	80.005	19.995	103.128	20.105	3.380	0.507
1274.499	731.011	80.004	19.994	103.128	20.106	3.306	0.491
1274.999	731.195	80.005	19.996	103.127	20.103	3.554	0.500
1275.500	731.462	80.005	19.995	103.126	20.102	3.622	0.470
1276.000	731.743	80.004	19.995	103.126	20.104	3.439	0.499
1276.499	731.979	80.005	19.994	103.126	20.104	3.480	0.533
1276.999	732.271	80.005	19.994	103.127	20.105	3.381	0.523
1277.500	732.484	80.005	19.996	103.127	20.106	3.320	0.516
1278.000	732.736	80.005	19.995	103.128	20.102	3.561	0.485
1278.499	732.990	80.004	19.995	103.128	20.104	3.430	0.486
1279.000	733.213	80.005	19.995	103.128	20.103	3.496	0.491
1279.501	733.498	80.004	19.996	103.128	20.104	3.424	0.492
1280.000	733.765	80.004	19.995	103.129	20.103	3.511	0.530
1280.499	733.995	80.006	19.995	103.129	20.105	3.376	0.524
1280.999	734.262	80.004	19.994	103.129	20.103	3.559	0.497
1281.499	734.498	80.004	19.996	103.129	20.104	3.433	0.500
1281.999	734.746	80.004	19.995	103.129	20.101	3.676	0.493
1282.499	735.024	80.004	19.994	103.129	20.104	3.439	0.505
1282.999	735.251	80.004	19.995	103.128	20.105	3.411	0.516
1283.499	735.498	80.003	19.995	103.128	20.103	3.502	0.490
1283.999	735.719	80.004	19.995	103.128	20.101	3.689	0.471
1284.499	736.007	80.005	19.995	103.129	20.103	3.533	0.489
1284.999	736.249	80.006	19.996	103.128	20.105	3.385	0.520
1285.499	736.508	80.004	19.995	103.128	20.104	3.465	0.515
1285.999	736.728	80.006	19.996	103.129	20.103	3.507	0.490
1286.499	736.997	80.004	19.994	103.129	20.105	3.405	0.485
1286.999	737.286	80.005	19.996	103.129	20.105	3.396	0.524
1287.499	737.512	80.006	19.995	103.129	20.108	3.198	0.536
1287.999	737.770	80.005	19.995	103.130	20.104	3.454	0.499
1288.499	738.005	80.006	19.995	103.130	20.105	3.418	0.488
1288.999	738.230	80.006	19.996	103.130	20.105	3.363	0.476
1289.499	738.517	80.004	19.996	103.130	20.104	3.448	0.486
1289.999	738.766	80.006	19.997	103.130	20.107	3.252	0.524
1290.499	738.999	80.006	19.994	103.130	20.105	3.417	0.509
1290.999	739.265	80.005	19.996	103.131	20.101	3.629	0.490
1291.499	739.538	80.005	19.995	103.130	20.103	3.518	0.519
1291.999	739.773	80.004	19.996	103.130	20.104	3.424	0.524
1292.499	740.038	80.005	19.996	103.130	20.103	3.500	0.504
1293.000	740.251	80.006	19.996	103.130	20.103	3.537	0.489
1293.500	740.511	80.006	19.995	103.129	20.105	3.383	0.475
1293.999	740.763	80.007	19.996	103.129	20.105	3.391	0.493
1294.499	741.041	80.006	19.996	103.129	20.105	3.383	0.521
1294.999	741.259	80.007	19.995	103.129	20.105	3.417	0.513
1295.499	741.535	80.006	19.996	103.128	20.104	3.467	0.495
1295.999	741.809	80.007	19.994	103.128	20.103	3.498	0.522
1296.499	742.045	80.006	19.995	103.128	20.104	3.468	0.530
1296.999	742.296	80.007	19.995	103.128	20.108	3.204	0.498
1297.499	742.530	80.006	19.995	103.128	20.102	3.581	0.486
1297.999	742.777	80.006	19.995	103.128	20.104	3.424	0.483
1298.499	743.052	80.005	19.995	103.128	20.106	3.309	0.502
1298.999	743.309	80.006	19.996	103.128	20.105	3.374	0.527
1299.499	743.526	80.006	19.995	103.128	20.106	3.354	0.503
