Sample ID:	C:\MCC\MCC Cal\Test\Bamboo_RugB_MCC_30K_min_211129_R2.txt
Sample Weight (mg):	4.39
Heating Rate (C/s):	0.5
Combustor Temp (C):	900
N2 Flow Rate (cc/min):	80
O2 Flow Rate (cc/min):	20
Calibration File:	C:\MCC\MCC Cal\Coeff1 JN10440_30_210304.txt.txt
T Correction Coefficients:	0	1.024463	0
Time Shift (s):	14
*
Time (s)	Temperature (C)	N2 flow rate (cc/min)	O2 flow rate (cc/min)	Flow Rate (cc/min)	Oxygen (%)	HRR (W/g)	Heating rate (C/s)
0.000	108.509	80.005	19.995	103.133	20.063	-0.222	0.000
0.500	108.477	80.004	19.995	103.129	20.062	-0.143	0.003
1.000	108.561	80.003	19.996	103.124	20.064	-0.326	0.025
1.500	108.489	80.005	19.994	103.123	20.062	-0.123	0.032
2.000	108.491	80.006	19.994	103.119	20.061	-0.060	-0.029
2.500	108.505	80.005	19.995	103.120	20.062	-0.183	-0.027
3.000	108.506	80.004	19.995	103.123	20.062	-0.125	0.015
3.500	108.488	80.002	19.996	103.127	20.065	-0.361	-0.001
4.000	108.471	80.005	19.995	103.127	20.066	-0.435	-0.026
4.500	108.498	80.006	19.995	103.124	20.063	-0.242	-0.012
5.000	108.511	80.008	19.994	103.119	20.066	-0.475	0.025
5.500	108.506	80.006	19.994	103.119	20.065	-0.369	0.024
6.000	108.473	80.005	19.995	103.115	20.067	-0.510	-0.015
6.500	108.499	80.008	19.995	103.113	20.067	-0.536	-0.022
7.000	108.494	80.006	19.995	103.114	20.067	-0.510	0.007
7.500	108.530	80.001	19.994	103.115	20.065	-0.387	0.026
8.000	108.465	79.993	19.997	103.110	20.063	-0.254	0.001
8.500	108.492	79.999	19.995	103.104	20.065	-0.369	-0.034
9.000	108.503	80.007	19.993	103.101	20.063	-0.252	-0.000
9.500	108.501	80.006	19.995	103.106	20.064	-0.318	0.024
10.000	108.525	80.004	19.995	103.109	20.061	-0.111	0.016
10.500	108.484	80.006	19.996	103.110	20.065	-0.365	0.003
11.000	108.530	80.005	19.995	103.114	20.061	-0.095	-0.006
11.500	108.503	80.006	19.995	103.118	20.061	-0.062	0.011
12.000	108.530	80.008	19.995	103.114	20.064	-0.264	0.009
12.501	108.545	80.009	19.994	103.114	20.063	-0.246	0.021
13.001	108.526	80.006	19.995	103.117	20.064	-0.292	0.019
13.500	108.529	80.006	19.994	103.117	20.064	-0.264	-0.010
14.000	108.511	80.008	19.994	103.117	20.066	-0.413	-0.015
14.500	108.510	80.010	19.994	103.121	20.059	0.069	-0.017
15.000	108.545	80.009	19.995	103.126	20.059	0.091	0.007
15.500	108.548	80.008	19.995	103.131	20.059	0.048	0.036
16.000	108.527	80.011	19.995	103.143	20.059	0.040	0.010
16.500	108.517	80.007	19.993	103.155	20.059	0.079	-0.024
17.000	108.560	80.012	19.994	103.164	20.055	0.355	0.001
17.500	108.556	80.009	19.994	103.172	20.057	0.212	0.036
18.000	108.530	80.005	19.996	103.179	20.058	0.121	0.004
18.500	108.564	80.005	19.995	103.182	20.061	-0.042	-0.011
19.000	108.553	80.008	19.994	103.181	20.055	0.335	0.015
19.500	108.571	80.007	19.994	103.180	20.058	0.133	0.015
20.000	108.599	80.006	19.995	103.180	20.055	0.371	0.027
20.500	108.587	80.007	19.995	103.180	20.053	0.494	0.031
21.000	108.617	80.005	19.995	103.184	20.057	0.200	0.017
21.500	108.611	80.009	19.994	103.183	20.054	0.412	0.021
22.000	108.655	80.006	19.994	103.185	20.048	0.888	0.031
22.500	108.679	80.008	19.995	103.188	20.050	0.738	0.053
23.000	108.671	80.007	19.995	103.189	20.048	0.859	0.043
23.500	108.689	80.006	19.994	103.190	20.048	0.896	0.013
24.000	108.685	80.006	19.995	103.197	20.046	0.989	0.012
24.500	108.711	80.010	19.995	103.202	20.042	1.283	0.018
25.000	108.753	80.005	19.994	103.207	20.046	1.015	0.044
25.500	108.765	80.006	19.994	103.212	20.043	1.265	0.061
26.000	108.780	80.006	19.993	103.214	20.042	1.299	0.041
26.500	108.806	80.008	19.995	103.218	20.040	1.479	0.034
27.000	108.805	80.007	19.995	103.226	20.037	1.685	0.033
27.500	108.838	80.007	19.996	103.234	20.039	1.551	0.028
28.000	108.861	80.007	19.995	103.243	20.038	1.622	0.043
28.500	108.891	80.006	19.995	103.250	20.038	1.646	0.055
29.000	108.927	80.005	19.995	103.254	20.034	1.931	0.060
29.500	108.918	80.006	19.995	103.260	20.039	1.566	0.046
30.000	108.994	80.007	19.996	103.266	20.036	1.741	0.047
30.500	109.061	80.007	19.995	103.275	20.035	1.846	0.105
31.000	109.061	80.004	19.995	103.283	20.036	1.760	0.105
31.500	109.114	80.006	19.996	103.291	20.035	1.812	0.060
32.000	109.174	80.005	19.996	103.293	20.035	1.798	0.083
32.500	109.228	80.008	19.996	103.291	20.036	1.739	0.113
33.000	109.247	80.007	19.996	103.288	20.035	1.848	0.093
33.500	109.311	80.008	19.995	103.287	20.033	1.963	0.078
34.000	109.363	80.007	19.995	103.287	20.032	2.026	0.099
34.500	109.406	80.005	19.996	103.287	20.032	2.040	0.105
35.000	109.438	80.009	19.995	103.288	20.030	2.187	0.085
35.500	109.513	80.006	19.995	103.289	20.034	1.908	0.091
36.000	109.538	80.008	19.996	103.290	20.033	1.957	0.104
36.500	109.652	80.008	19.995	103.288	20.036	1.757	0.119
37.000	109.662	80.007	19.996	103.282	20.033	1.971	0.131
37.500	109.740	80.007	19.995	103.282	20.031	2.118	0.106
38.000	109.779	80.009	19.995	103.282	20.028	2.381	0.103
38.501	109.835	80.009	19.994	103.283	20.029	2.244	0.106
39.001	109.884	80.006	19.995	103.284	20.030	2.165	0.100
39.501	109.976	80.009	19.994	103.290	20.024	2.623	0.123
40.001	110.041	80.006	19.995	103.298	20.028	2.310	0.149
40.501	110.160	80.008	19.994	103.305	20.027	2.415	0.170
41.000	110.194	80.008	19.994	103.312	20.027	2.445	0.168
41.500	110.253	80.009	19.993	103.315	20.028	2.377	0.123
42.000	110.356	80.007	19.993	103.316	20.027	2.417	0.128
42.500	110.387	80.009	19.994	103.308	20.030	2.207	0.148
43.000	110.459	80.009	19.994	103.301	20.027	2.429	0.118
43.501	110.602	80.007	19.995	103.293	20.026	2.496	0.159
44.001	110.696	80.009	19.993	103.289	20.029	2.262	0.226
44.500	110.741	80.009	19.994	103.289	20.028	2.361	0.188
45.000	110.813	80.005	19.995	103.289	20.029	2.302	0.128
45.500	110.905	80.008	19.993	103.288	20.029	2.240	0.141
46.000	111.002	80.006	19.994	103.287	20.030	2.189	0.176
46.500	111.121	80.008	19.995	103.285	20.028	2.341	0.202
47.000	111.174	80.006	19.994	103.285	20.026	2.500	0.194
47.500	111.271	80.007	19.994	103.286	20.029	2.276	0.161
48.000	111.361	80.007	19.994	103.289	20.026	2.480	0.168
48.500	111.462	80.006	19.994	103.291	20.026	2.494	0.189
49.000	111.548	80.008	19.994	103.294	20.032	2.074	0.189
49.500	111.618	80.007	19.994	103.294	20.023	2.676	0.172
50.000	111.730	80.006	19.994	103.294	20.028	2.320	0.169
50.500	111.836	80.007	19.994	103.294	20.030	2.197	0.200
51.000	111.938	80.007	19.995	103.294	20.030	2.191	0.213
51.500	112.015	80.006	19.994	103.293	20.029	2.294	0.194
52.000	112.107	80.005	19.994	103.292	20.032	2.048	0.174
52.500	112.250	80.007	19.995	103.292	20.027	2.429	0.202
53.000	112.336	80.006	19.995	103.295	20.027	2.413	0.232
53.500	112.461	80.005	19.993	103.296	20.030	2.232	0.220
54.000	112.520	80.007	19.994	103.297	20.028	2.314	0.198
54.500	112.633	80.006	19.994	103.298	20.025	2.540	0.178
55.001	112.739	80.006	19.994	103.297	20.025	2.554	0.195
55.501	112.832	80.006	19.994	103.295	20.027	2.403	0.209
56.000	112.943	80.006	19.994	103.296	20.026	2.476	0.201
56.500	113.062	80.005	19.994	103.302	20.025	2.548	0.217
57.000	113.191	80.006	19.994	103.308	20.026	2.522	0.239
57.500	113.263	80.007	19.993	103.312	20.026	2.522	0.225
58.000	113.385	80.005	19.994	103.313	20.031	2.110	0.198
58.500	113.501	80.005	19.994	103.313	20.030	2.218	0.216
59.000	113.613	80.005	19.995	103.312	20.026	2.498	0.233
59.500	113.742	80.005	19.994	103.306	20.029	2.309	0.234
60.000	113.842	80.005	19.995	103.304	20.027	2.420	0.235
60.501	114.003	80.005	19.995	103.305	20.026	2.489	0.245
61.001	114.120	80.006	19.993	103.303	20.031	2.151	0.269
61.500	114.220	80.005	19.994	103.301	20.026	2.493	0.248
62.000	114.325	80.007	19.995	103.301	20.029	2.248	0.211
62.500	114.469	80.006	19.994	103.300	20.027	2.426	0.227
63.000	114.574	80.006	19.995	103.299	20.023	2.678	0.249
63.500	114.715	80.005	19.993	103.301	20.025	2.597	0.248
64.000	114.821	80.007	19.994	103.300	20.027	2.444	0.246
64.500	114.974	80.005	19.994	103.300	20.028	2.361	0.253
65.000	115.079	80.007	19.995	103.299	20.026	2.464	0.258
65.500	115.200	80.005	19.995	103.299	20.028	2.353	0.242
66.000	115.306	80.007	19.995	103.297	20.026	2.460	0.227
66.500	115.457	80.006	19.994	103.297	20.031	2.154	0.242
67.000	115.521	80.007	19.994	103.297	20.025	2.590	0.236
67.500	115.695	80.008	19.994	103.298	20.025	2.535	0.227
68.000	115.789	80.004	19.995	103.298	20.027	2.446	0.253
68.500	115.939	80.005	19.995	103.299	20.024	2.624	0.255
69.000	116.069	80.006	19.995	103.298	20.023	2.731	0.262
69.500	116.201	80.006	19.995	103.306	20.030	2.222	0.271
70.000	116.330	80.007	19.994	103.313	20.023	2.727	0.262
70.501	116.437	80.006	19.994	103.320	20.023	2.729	0.248
71.001	116.597	80.005	19.994	103.326	20.026	2.521	0.251
71.501	116.701	80.006	19.996	103.332	20.025	2.533	0.266
72.001	116.855	80.008	19.995	103.328	20.023	2.737	0.261
72.500	116.986	80.006	19.994	103.327	20.021	2.878	0.272
73.000	117.145	80.007	19.994	103.327	20.022	2.773	0.287
73.500	117.266	80.005	19.992	103.325	20.022	2.806	0.285
74.000	117.416	80.008	19.994	103.323	20.022	2.753	0.275
74.500	117.531	80.006	19.995	103.327	20.023	2.745	0.267
75.000	117.688	80.005	19.995	103.327	20.023	2.727	0.268
75.500	117.794	80.003	19.995	103.327	20.023	2.689	0.267
76.000	117.966	80.005	19.995	103.331	20.020	2.937	0.271
76.500	118.115	80.006	19.994	103.336	20.018	3.046	0.300
77.000	118.301	80.005	19.994	103.337	20.019	2.986	0.328
77.500	118.420	80.008	19.995	103.339	20.023	2.747	0.320
78.000	118.564	80.005	19.994	103.343	20.021	2.840	0.284
78.500	118.690	80.005	19.994	103.342	20.015	3.272	0.267
79.000	118.872	80.005	19.993	103.343	20.021	2.866	0.289
79.500	119.012	80.006	19.992	103.342	20.018	3.082	0.315
80.001	119.113	80.005	19.994	103.341	20.016	3.264	0.282
80.501	119.312	80.007	19.994	103.340	20.016	3.193	0.270
81.000	119.451	80.006	19.994	103.341	20.016	3.215	0.319
81.500	119.574	80.005	19.994	103.341	20.017	3.175	0.300
82.000	119.751	80.006	19.993	103.341	20.021	2.836	0.281
82.500	119.891	80.004	19.994	103.341	20.021	2.836	0.308
83.000	120.036	80.004	19.994	103.338	20.019	3.027	0.301
83.500	120.243	80.005	19.994	103.338	20.017	3.149	0.319
84.000	120.356	80.004	19.995	103.338	20.020	2.957	0.336
84.500	120.518	80.006	19.995	103.338	20.019	2.975	0.297
85.000	120.649	80.006	19.995	103.338	20.018	3.111	0.284
85.500	120.812	80.006	19.995	103.339	20.019	2.990	0.293
86.000	120.972	80.004	19.994	103.339	20.019	2.980	0.308
86.500	121.167	80.007	19.994	103.339	20.018	3.071	0.339
87.000	121.335	80.006	19.995	103.341	20.018	3.044	0.359
87.500	121.470	80.006	19.995	103.344	20.022	2.810	0.333
88.000	121.643	80.006	19.996	103.346	20.020	2.909	0.306
88.500	121.803	80.006	19.994	103.345	20.019	3.020	0.320
89.000	122.000	80.006	19.995	103.344	20.016	3.194	0.345
89.500	122.136	80.007	19.995	103.343	20.017	3.153	0.345
90.000	122.322	80.005	19.994	103.339	20.014	3.347	0.327
90.500	122.490	80.007	19.994	103.335	20.019	3.010	0.338
91.000	122.615	80.007	19.995	103.335	20.017	3.137	0.324
91.500	122.817	80.006	19.995	103.334	20.014	3.375	0.310
92.000	122.988	80.007	19.994	103.333	20.017	3.175	0.351
92.500	123.166	80.005	19.995	103.331	20.017	3.167	0.361
93.001	123.283	80.007	19.996	103.331	20.019	3.015	0.322
93.501	123.482	80.005	19.996	103.332	20.016	3.258	0.305
94.000	123.670	80.007	19.995	103.332	20.017	3.157	0.351
94.500	123.838	80.008	19.994	103.333	20.019	2.987	0.372
95.000	124.016	80.007	19.996	103.335	20.012	3.522	0.352
95.500	124.182	80.007	19.995	103.338	20.016	3.217	0.345
96.000	124.366	80.007	19.995	103.343	20.016	3.264	0.346
96.500	124.592	80.007	19.994	103.348	20.020	2.923	0.380
97.000	124.752	80.006	19.995	103.351	20.016	3.234	0.399
97.500	124.931	80.007	19.995	103.354	20.016	3.256	0.363
98.000	125.085	80.007	19.994	103.357	20.015	3.270	0.336
98.500	125.283	80.008	19.996	103.360	20.019	3.001	0.342
99.000	125.444	80.007	19.994	103.360	20.018	3.046	0.356
99.500	125.637	80.007	19.995	103.358	20.020	2.933	0.356
100.000	125.809	80.007	19.995	103.357	20.019	3.013	0.359
100.500	126.019	80.006	19.995	103.353	20.015	3.300	0.373
101.000	126.254	80.005	19.995	103.346	20.019	3.032	0.414
101.500	126.369	80.007	19.995	103.340	20.021	2.834	0.397
102.001	126.583	80.008	19.995	103.338	20.019	2.987	0.339
102.501	126.749	80.004	19.996	103.334	20.018	3.074	0.355
103.001	126.935	80.006	19.995	103.331	20.018	3.114	0.367
103.500	127.057	80.005	19.996	103.332	20.022	2.816	0.330
104.000	127.272	80.006	19.995	103.331	20.018	3.082	0.322
104.500	127.460	80.006	19.994	103.331	20.018	3.044	0.370
105.001	127.655	80.008	19.996	103.331	20.020	2.939	0.393
105.501	127.806	80.007	19.994	103.333	20.019	2.989	0.364
106.000	127.994	80.006	19.995	103.336	20.017	3.155	0.343
106.500	128.178	80.005	19.996	103.337	20.016	3.221	0.356
107.000	128.377	80.006	19.995	103.337	20.018	3.064	0.377
107.500	128.558	80.008	19.995	103.337	20.018	3.052	0.381
108.000	128.747	80.006	19.996	103.336	20.017	3.122	0.375
108.500	128.927	80.008	19.997	103.332	20.018	3.110	0.369
109.000	129.163	80.007	19.994	103.332	20.022	2.788	0.392
109.500	129.339	80.006	19.995	103.334	20.018	3.105	0.414
110.000	129.543	80.007	19.994	103.332	20.022	2.800	0.396
110.501	129.724	80.006	19.994	103.331	20.017	3.190	0.382
111.001	129.925	80.007	19.994	103.331	20.021	2.881	0.383
111.501	130.091	80.006	19.994	103.332	20.016	3.214	0.375
112.000	130.282	80.007	19.993	103.332	20.017	3.176	0.362
112.500	130.477	80.007	19.995	103.335	20.017	3.178	0.371
113.000	130.677	80.008	19.995	103.336	20.015	3.329	0.390
113.500	130.901	80.007	19.996	103.336	20.016	3.245	0.410
114.000	131.064	80.007	19.994	103.335	20.013	3.471	0.406
114.500	131.238	80.007	19.994	103.334	20.017	3.140	0.362
115.000	131.463	80.006	19.995	103.336	20.017	3.184	0.368
115.500	131.681	80.005	19.994	103.338	20.017	3.121	0.421
116.000	131.838	80.006	19.994	103.340	20.017	3.157	0.409
116.500	132.089	80.007	19.994	103.342	20.016	3.244	0.392
117.000	132.231	80.007	19.994	103.342	20.014	3.363	0.401
117.500	132.414	80.008	19.996	103.339	20.020	2.945	0.359
118.000	132.655	80.008	19.994	103.337	20.018	3.056	0.374
118.500	132.830	80.006	19.994	103.335	20.013	3.444	0.420
119.000	133.014	80.009	19.995	103.334	20.015	3.327	0.388
119.500	133.217	80.008	19.995	103.337	20.017	3.119	0.373
120.001	133.430	80.008	19.994	103.345	20.018	3.115	0.402
120.501	133.634	80.006	19.995	103.350	20.014	3.363	0.416
121.001	133.832	80.007	19.996	103.356	20.017	3.127	0.409
121.501	133.973	80.007	19.994	103.362	20.017	3.150	0.370
122.001	134.249	80.007	19.994	103.365	20.017	3.170	0.378
122.500	134.453	80.007	19.994	103.365	20.015	3.305	0.449
123.001	134.664	80.007	19.995	103.367	20.017	3.184	0.447
123.501	134.816	80.007	19.995	103.369	20.012	3.521	0.389
124.001	135.031	80.007	19.995	103.370	20.015	3.297	0.366
124.500	135.255	80.007	19.996	103.371	20.017	3.147	0.403
125.000	135.419	80.008	19.996	103.371	20.017	3.178	0.414
125.500	135.649	80.005	19.995	103.367	20.018	3.113	0.391
126.000	135.835	80.007	19.996	103.361	20.016	3.228	0.405
126.500	136.017	80.006	19.996	103.358	20.019	3.012	0.392
127.000	136.258	80.007	19.994	103.351	20.019	3.022	0.396
127.500	136.448	80.006	19.995	103.343	20.015	3.323	0.427
128.000	136.692	80.005	19.994	103.341	20.012	3.530	0.432
128.500	136.870	80.005	19.995	103.343	20.017	3.158	0.428
129.000	137.081	80.007	19.995	103.341	20.015	3.277	0.405
129.500	137.289	80.005	19.995	103.345	20.017	3.172	0.404
130.000	137.494	80.005	19.995	103.347	20.013	3.423	0.416
130.500	137.691	80.004	19.996	103.351	20.019	3.040	0.407
131.000	137.896	80.005	19.996	103.355	20.019	3.021	0.402
131.500	138.131	80.005	19.996	103.359	20.017	3.183	0.421
132.000	138.358	80.005	19.996	103.361	20.020	2.933	0.451
132.500	138.551	80.004	19.996	103.362	20.018	3.064	0.441
133.000	138.773	80.004	19.995	103.361	20.017	3.160	0.418
133.500	138.964	80.003	19.994	103.356	20.016	3.252	0.414
134.000	139.144	80.006	19.996	103.351	20.020	2.911	0.392
134.500	139.412	80.002	19.995	103.351	20.018	3.101	0.410
135.000	139.634	80.004	19.995	103.354	20.015	3.297	0.469
135.500	139.843	80.005	19.996	103.358	20.015	3.323	0.460
136.000	140.070	80.006	19.995	103.361	20.017	3.133	0.433
136.500	140.294	80.004	19.995	103.365	20.015	3.325	0.444
137.000	140.459	80.006	19.995	103.362	20.018	3.109	0.420
137.500	140.721	80.006	19.994	103.359	20.014	3.340	0.408
138.000	140.930	80.003	19.994	103.355	20.015	3.328	0.449
138.500	141.136	80.005	19.995	103.342	20.014	3.356	0.443
139.000	141.346	80.005	19.995	103.324	20.014	3.350	0.416
139.500	141.573	80.006	19.994	103.316	20.015	3.303	0.426
140.000	141.788	80.005	19.994	103.312	20.018	3.091	0.439
140.500	142.020	80.007	19.994	103.309	20.019	3.043	0.445
141.000	142.230	80.005	19.995	103.323	20.017	3.152	0.445
141.500	142.453	80.006	19.994	103.350	20.018	3.047	0.437
142.000	142.668	80.003	19.994	103.388	20.016	3.261	0.435
142.500	142.905	80.007	19.994	103.396	20.017	3.146	0.445
143.000	143.114	80.007	19.995	103.399	20.013	3.445	0.449
143.500	143.332	80.005	19.995	103.395	20.012	3.487	0.436
144.000	143.559	80.006	19.993	103.385	20.017	3.176	0.436
144.500	143.807	80.005	19.994	103.361	20.013	3.424	0.461
145.000	144.064	80.007	19.995	103.361	20.016	3.255	0.490
145.500	144.265	80.006	19.993	103.364	20.012	3.537	0.481
146.000	144.520	80.005	19.994	103.365	20.018	3.081	0.457
146.500	144.743	80.006	19.993	103.364	20.017	3.172	0.467
147.000	144.929	80.007	19.995	103.363	20.016	3.233	0.443
147.500	145.200	80.006	19.993	103.363	20.015	3.333	0.433
148.000	145.431	80.006	19.994	103.364	20.014	3.386	0.479
148.500	145.628	80.007	19.994	103.370	20.011	3.592	0.465
149.000	145.860	80.005	19.994	103.375	20.017	3.162	0.429
149.500	146.095	80.005	19.993	103.376	20.014	3.402	0.448
150.000	146.357	80.008	19.993	103.376	20.015	3.297	0.482
150.500	146.546	80.005	19.994	103.376	20.014	3.382	0.474
151.000	146.804	80.007	19.994	103.375	20.010	3.634	0.449
151.500	147.004	80.007	19.995	103.371	20.013	3.449	0.452
152.000	147.247	80.006	19.994	103.369	20.015	3.319	0.450
152.500	147.424	80.006	19.994	103.368	20.015	3.305	0.432
153.000	147.688	80.008	19.995	103.367	20.012	3.548	0.430
153.500	147.946	80.007	19.996	103.368	20.014	3.398	0.482
154.000	148.144	80.006	19.995	103.370	20.013	3.443	0.490
154.500	148.396	80.005	19.995	103.370	20.014	3.396	0.453
155.000	148.630	80.005	19.994	103.371	20.010	3.636	0.468
155.501	148.834	80.006	19.995	103.369	20.009	3.707	0.462
156.000	149.080	80.005	19.994	103.368	20.013	3.432	0.444
156.500	149.338	80.009	19.993	103.368	20.010	3.650	0.477
157.000	149.573	80.007	19.992	103.369	20.013	3.420	0.498
157.500	149.809	80.008	19.994	103.368	20.010	3.663	0.482
158.000	150.036	80.006	19.994	103.370	20.009	3.762	0.468
158.500	150.295	80.006	19.994	103.370	20.010	3.645	0.475
159.000	150.499	80.005	19.994	103.366	20.010	3.657	0.474
159.500	150.697	80.006	19.993	103.363	20.009	3.730	0.432
160.000	150.943	80.006	19.996	103.365	20.011	3.626	0.423
160.500	151.169	80.004	19.995	103.364	20.010	3.691	0.458
161.000	151.425	80.006	19.995	103.363	20.012	3.501	0.477
161.500	151.686	80.006	19.995	103.367	20.011	3.589	0.499
162.000	151.890	80.007	19.996	103.369	20.010	3.654	0.491
162.500	152.094	80.007	19.994	103.368	20.009	3.747	0.437
163.000	152.355	80.005	19.994	103.368	20.008	3.816	0.437
163.500	152.605	80.006	19.994	103.369	20.007	3.899	0.488
164.000	152.839	80.005	19.994	103.370	20.007	3.891	0.497
164.501	153.056	80.004	19.995	103.369	20.015	3.277	0.468
165.000	153.323	80.004	19.995	103.370	20.010	3.650	0.468
165.500	153.506	80.005	19.994	103.365	20.010	3.687	0.467
166.000	153.760	80.005	19.993	103.365	20.011	3.588	0.443
166.500	153.994	80.004	19.995	103.365	20.011	3.584	0.462
167.000	154.254	80.005	19.994	103.367	20.011	3.573	0.491
167.500	154.460	80.006	19.995	103.367	20.009	3.763	0.480
168.000	154.683	80.006	19.994	103.374	20.013	3.454	0.448
168.500	154.954	80.006	19.994	103.380	20.012	3.551	0.462
169.000	155.157	80.006	19.995	103.387	20.012	3.496	0.484
169.500	155.439	80.006	19.994	103.394	20.007	3.866	0.480
170.000	155.633	80.007	19.994	103.394	20.014	3.410	0.480
170.500	155.891	80.006	19.994	103.387	20.015	3.275	0.464
171.000	156.139	80.009	19.995	103.375	20.016	3.240	0.479
171.500	156.356	80.007	19.994	103.367	20.009	3.771	0.486
172.000	156.601	80.006	19.995	103.358	20.014	3.353	0.464
172.500	156.859	80.006	19.995	103.352	20.008	3.819	0.483
173.000	157.090	80.007	19.993	103.358	20.012	3.547	0.496
173.500	157.361	80.007	19.995	103.365	20.011	3.605	0.495
174.000	157.579	80.008	19.994	103.365	20.008	3.785	0.496
174.500	157.814	80.008	19.994	103.366	20.012	3.538	0.471
175.000	158.049	80.007	19.994	103.372	20.007	3.920	0.461
175.500	158.322	80.008	19.993	103.372	20.009	3.730	0.489
176.000	158.565	80.007	19.994	103.370	20.009	3.706	0.512
176.500	158.798	80.008	19.993	103.369	20.010	3.643	0.496
177.000	159.067	80.010	19.993	103.368	20.010	3.690	0.489
177.500	159.264	80.008	19.994	103.365	20.012	3.518	0.484
178.000	159.542	80.006	19.994	103.359	20.012	3.514	0.470
178.500	159.769	80.009	19.994	103.352	20.012	3.519	0.490
179.000	160.009	80.008	19.994	103.346	20.007	3.866	0.486
179.500	160.268	80.009	19.994	103.340	20.010	3.670	0.483
180.000	160.487	80.008	19.994	103.343	20.007	3.868	0.489
180.500	160.766	80.010	19.994	103.349	20.011	3.624	0.488
181.000	160.988	80.009	19.995	103.355	20.010	3.668	0.499
181.500	161.243	80.006	19.994	103.360	20.012	3.555	0.489
182.000	161.505	80.006	19.994	103.365	20.011	3.598	0.498
182.500	161.738	80.007	19.993	103.361	20.006	3.967	0.506
183.000	161.950	80.004	19.995	103.353	20.012	3.503	0.470
183.500	162.211	80.007	19.994	103.347	20.009	3.749	0.459
184.000	162.501	80.009	19.995	103.342	20.009	3.739	0.512
184.500	162.750	80.007	19.994	103.338	20.010	3.664	0.545
185.000	162.951	80.007	19.995	103.336	20.007	3.858	0.495
185.500	163.186	80.008	19.994	103.339	20.008	3.833	0.443
186.000	163.481	80.008	19.995	103.339	20.008	3.823	0.483
186.500	163.721	80.007	19.994	103.342	20.007	3.884	0.532
187.001	163.961	80.007	19.995	103.341	20.010	3.690	0.508
187.500	164.193	80.009	19.995	103.342	20.011	3.591	0.476
188.000	164.496	80.007	19.994	103.343	20.007	3.912	0.504
188.500	164.746	80.006	19.994	103.344	20.010	3.690	0.544
189.000	164.978	80.007	19.995	103.349	20.008	3.824	0.517
189.500	165.235	80.008	19.994	103.354	20.012	3.529	0.486
190.000	165.542	80.008	19.995	103.353	20.011	3.626	0.527
190.500	165.771	80.005	19.995	103.354	20.012	3.523	0.550
191.000	166.024	80.006	19.994	103.360	20.007	3.858	0.509
191.500	166.287	80.006	19.994	103.359	20.010	3.688	0.499
192.000	166.493	80.007	19.995	103.356	20.008	3.783	0.492
192.501	166.779	80.008	19.995	103.360	20.007	3.854	0.480
193.000	166.979	80.007	19.995	103.364	20.005	4.048	0.489
193.500	167.268	80.007	19.994	103.364	20.004	4.088	0.488
194.000	167.474	80.005	19.995	103.365	20.007	3.854	0.492
194.500	167.758	80.008	19.996	103.367	20.007	3.924	0.492
195.000	168.000	80.008	19.994	103.365	20.009	3.759	0.508
195.500	168.234	80.008	19.996	103.358	20.003	4.179	0.501
196.000	168.510	80.008	19.995	103.351	20.005	4.072	0.493
196.500	168.745	80.006	19.995	103.344	20.006	3.977	0.511
197.000	168.997	80.007	19.994	103.342	20.007	3.863	0.499
197.500	169.259	80.008	19.996	103.339	20.006	3.956	0.501
198.000	169.526	80.009	19.994	103.337	20.006	3.958	0.522
198.500	169.745	80.006	19.994	103.339	20.005	4.009	0.507
199.000	170.032	80.008	19.994	103.346	20.008	3.811	0.496
199.500	170.289	80.008	19.995	103.352	20.010	3.690	0.525
200.000	170.501	80.009	19.995	103.359	20.004	4.077	0.507
200.500	170.743	80.009	19.994	103.364	20.006	3.936	0.462
201.000	170.978	80.008	19.994	103.363	20.006	3.944	0.465
201.500	171.280	80.009	19.994	103.358	20.003	4.158	0.507
202.000	171.497	80.008	19.994	103.355	20.009	3.746	0.528
202.500	171.760	80.008	19.994	103.355	20.007	3.889	0.500
203.000	172.008	80.008	19.994	103.357	20.011	3.607	0.496
203.500	172.300	80.009	19.995	103.361	20.008	3.778	0.525
204.000	172.500	80.008	19.994	103.362	20.004	4.113	0.516
204.500	172.753	80.008	19.995	103.358	20.008	3.786	0.473
205.000	173.054	80.009	19.993	103.352	20.009	3.744	0.504
205.500	173.281	80.011	19.995	103.349	20.008	3.821	0.541
206.000	173.516	80.008	19.995	103.346	20.008	3.805	0.494
206.500	173.778	80.008	19.995	103.346	20.009	3.708	0.479
207.000	174.046	80.009	19.993	103.347	20.007	3.912	0.514
207.500	174.315	80.008	19.994	103.345	20.008	3.782	0.534
208.000	174.558	80.008	19.993	103.343	20.013	3.445	0.524
208.500	174.820	80.009	19.995	103.340	20.007	3.879	0.508
209.000	175.075	80.007	19.995	103.338	20.009	3.708	0.511
209.500	175.301	80.007	19.994	103.336	20.008	3.784	0.499
210.000	175.540	80.007	19.994	103.336	20.007	3.920	0.473
210.500	175.795	80.007	19.994	103.335	20.005	4.004	0.479
211.000	176.045	80.006	19.994	103.335	20.008	3.841	0.499
211.500	176.302	80.007	19.994	103.335	20.005	4.049	0.506
212.000	176.541	80.005	19.994	103.335	20.006	3.958	0.502
212.500	176.805	80.006	19.995	103.335	20.008	3.779	0.499
213.000	177.098	80.005	19.996	103.336	20.004	4.093	0.530
213.500	177.366	80.006	19.994	103.336	20.004	4.110	0.559
214.000	177.532	80.006	19.994	103.333	20.007	3.865	0.498
214.500	177.810	80.004	19.995	103.333	20.005	4.059	0.439
215.000	178.107	80.006	19.994	103.332	20.005	3.998	0.509
215.500	178.309	80.005	19.995	103.329	20.006	3.996	0.537
216.000	178.591	80.005	19.995	103.329	20.004	4.081	0.492
216.500	178.819	80.006	19.996	103.330	20.004	4.105	0.497
217.000	179.085	80.004	19.995	103.331	20.001	4.297	0.502
217.500	179.375	80.006	19.995	103.332	20.008	3.792	0.526
218.000	179.572	80.005	19.995	103.334	20.004	4.091	0.522
218.500	179.830	80.006	19.996	103.334	20.003	4.168	0.471
219.000	180.088	80.006	19.996	103.334	20.004	4.097	0.485
219.500	180.345	80.005	19.995	103.333	20.004	4.109	0.515
220.000	180.590	80.005	19.996	103.332	20.008	3.845	0.508
220.500	180.882	80.005	19.996	103.333	20.004	4.107	0.519
221.000	181.109	80.007	19.996	103.333	20.006	3.956	0.528
221.500	181.398	80.006	19.996	103.333	20.008	3.849	0.518
222.000	181.650	80.008	19.997	103.334	20.005	4.061	0.529
222.500	181.878	80.007	19.996	103.337	20.005	4.051	0.511
223.000	182.155	80.007	19.996	103.338	20.003	4.178	0.492
223.500	182.385	80.006	19.996	103.338	20.000	4.410	0.506
224.000	182.620	80.005	19.995	103.338	20.003	4.146	0.486
224.501	182.847	80.005	19.995	103.337	20.003	4.178	0.464
225.000	183.108	80.005	19.996	103.334	20.003	4.176	0.475
225.500	183.369	80.006	19.996	103.333	20.006	3.948	0.505
226.000	183.630	80.005	19.996	103.332	20.003	4.200	0.522
226.500	183.898	80.005	19.996	103.332	20.002	4.253	0.525
227.000	184.115	80.006	19.995	103.332	20.004	4.109	0.507
227.500	184.365	80.006	19.996	103.332	20.005	4.031	0.476
228.000	184.639	80.007	19.996	103.332	20.000	4.426	0.496
228.500	184.843	80.007	19.995	103.332	20.003	4.212	0.501
229.000	185.135	80.005	19.995	103.332	20.007	3.901	0.487
229.500	185.371	80.005	19.995	103.332	20.007	3.853	0.512
230.000	185.642	80.007	19.995	103.332	20.002	4.289	0.518
230.500	185.895	80.005	19.995	103.332	20.003	4.196	0.516
231.000	186.126	80.005	19.994	103.332	20.000	4.369	0.504
231.500	186.433	80.007	19.994	103.331	20.005	4.067	0.511
232.000	186.659	80.007	19.994	103.331	20.006	3.954	0.535
232.500	186.918	80.007	19.995	103.332	20.005	4.037	0.509
233.000	187.209	80.006	19.994	103.334	20.001	4.309	0.518
233.500	187.402	80.006	19.994	103.334	20.003	4.192	0.517
234.000	187.689	80.008	19.995	103.334	20.002	4.228	0.482
234.500	187.939	80.005	19.994	103.335	19.997	4.606	0.509
235.000	188.156	80.007	19.994	103.334	20.002	4.249	0.501
235.500	188.394	80.006	19.995	103.335	20.001	4.354	0.461
236.000	188.645	80.007	19.994	103.336	20.001	4.333	0.472
236.500	188.867	80.005	19.995	103.336	19.999	4.501	0.481
237.000	189.133	80.007	19.994	103.337	19.997	4.652	0.481
237.500	189.391	80.004	19.994	103.336	19.999	4.446	0.507
238.000	189.658	80.007	19.994	103.332	19.999	4.511	0.525
238.500	189.902	80.007	19.993	103.332	20.003	4.208	0.518
239.000	190.143	80.007	19.995	103.332	20.001	4.358	0.498
239.500	190.407	80.008	19.995	103.329	19.999	4.505	0.495
240.000	190.638	80.007	19.994	103.325	20.000	4.422	0.500
240.500	190.884	80.007	19.994	103.323	20.001	4.348	0.486
241.000	191.141	80.005	19.995	103.323	20.001	4.295	0.490
241.500	191.408	80.006	19.994	103.323	20.000	4.412	0.514
242.000	191.651	80.005	19.994	103.325	20.001	4.307	0.517
242.500	191.919	80.006	19.994	103.329	20.002	4.226	0.510
243.000	192.165	80.007	19.995	103.332	20.003	4.202	0.512
243.500	192.417	80.007	19.995	103.332	20.002	4.282	0.505
244.000	192.672	80.006	19.995	103.331	20.000	4.381	0.502
244.500	192.907	80.005	19.995	103.330	20.001	4.299	0.499
245.000	193.178	80.007	19.994	103.330	20.001	4.309	0.498
245.500	193.397	80.006	19.995	103.331	20.003	4.172	0.498
246.000	193.646	80.004	19.994	103.331	20.004	4.101	0.479
246.500	193.907	80.005	19.994	103.331	20.003	4.164	0.489
247.000	194.166	80.005	19.995	103.331	20.004	4.077	0.515
247.500	194.396	80.006	19.995	103.331	20.006	3.944	0.505
248.000	194.629	80.006	19.995	103.332	20.001	4.333	0.477
248.500	194.864	80.005	19.994	103.331	20.005	4.030	0.466
249.000	195.111	80.005	19.995	103.331	20.004	4.137	0.475
249.500	195.402	80.007	19.996	103.332	20.002	4.256	0.510
250.000	195.621	80.006	19.994	103.332	20.004	4.143	0.524
250.500	195.904	80.006	19.994	103.331	20.001	4.322	0.506
251.000	196.114	80.006	19.994	103.331	20.001	4.312	0.497
251.500	196.384	80.004	19.994	103.332	19.999	4.442	0.487
252.000	196.632	80.005	19.995	103.330	20.001	4.315	0.499
252.500	196.873	80.005	19.994	103.328	20.000	4.399	0.504
253.000	197.120	80.007	19.995	103.326	20.001	4.300	0.489
253.500	197.368	80.006	19.994	103.323	20.002	4.232	0.492
254.000	197.629	80.008	19.995	103.317	20.003	4.208	0.502
254.500	197.882	80.008	19.995	103.317	20.000	4.375	0.511
255.000	198.120	80.005	19.996	103.319	19.998	4.518	0.502
255.500	198.359	80.006	19.994	103.321	19.999	4.462	0.485
256.000	198.640	80.007	19.995	103.326	19.996	4.688	0.499
256.500	198.885	80.007	19.995	103.331	20.000	4.434	0.523
257.000	199.117	80.008	19.994	103.333	19.996	4.684	0.502
257.500	199.331	80.007	19.994	103.333	20.000	4.438	0.462
258.000	199.617	80.008	19.995	103.333	19.995	4.750	0.473
258.500	199.892	80.008	19.995	103.327	19.999	4.472	0.530
259.000	200.125	80.008	19.994	103.323	19.995	4.777	0.534
259.500	200.329	80.006	19.995	103.319	19.998	4.547	0.473
260.000	200.598	80.009	19.994	103.312	19.999	4.469	0.455
260.500	200.868	80.007	19.995	103.310	19.997	4.658	0.506
261.000	201.131	80.010	19.995	103.314	19.997	4.632	0.536
261.500	201.328	80.009	19.995	103.312	19.996	4.666	0.497
262.000	201.597	80.008	19.995	103.312	19.995	4.793	0.463
262.500	201.818	80.008	19.994	103.316	19.996	4.713	0.478
263.000	202.090	80.009	19.995	103.315	19.997	4.623	0.491
263.500	202.329	80.007	19.993	103.312	19.993	4.887	0.502
264.000	202.566	80.008	19.995	103.317	19.995	4.800	0.493
264.500	202.841	80.007	19.995	103.321	19.994	4.833	0.494
265.000	203.083	80.008	19.994	103.318	19.994	4.812	0.514
265.500	203.331	80.008	19.994	103.315	19.997	4.599	0.504
266.000	203.587	80.007	19.994	103.316	19.998	4.565	0.497
266.500	203.814	80.007	19.994	103.314	20.000	4.387	0.494
267.000	204.055	80.008	19.994	103.311	19.994	4.831	0.476
267.500	204.318	80.008	19.994	103.316	19.996	4.718	0.486
268.000	204.547	80.007	19.995	103.317	19.996	4.686	0.498
268.500	204.798	80.007	19.993	103.318	19.997	4.613	0.486
269.000	205.056	80.008	19.994	103.317	19.995	4.775	0.494
269.500	205.296	80.007	19.993	103.319	19.991	5.055	0.504
270.000	205.544	80.007	19.993	103.321	19.994	4.809	0.493
270.500	205.755	80.008	19.995	103.326	19.995	4.745	0.473
271.000	206.031	80.008	19.994	103.331	19.994	4.850	0.473
271.500	206.238	80.007	19.994	103.335	19.994	4.860	0.485
272.000	206.503	80.006	19.994	103.337	19.995	4.798	0.477
272.500	206.752	80.007	19.993	103.334	19.994	4.872	0.493
273.000	207.011	80.008	19.994	103.330	19.993	4.918	0.511
273.500	207.263	80.007	19.994	103.326	19.992	4.975	0.510
274.000	207.493	80.006	19.994	103.318	19.989	5.223	0.497
274.500	207.752	80.007	19.993	103.309	19.993	4.920	0.486
275.000	208.035	80.005	19.993	103.305	19.991	5.078	0.515
275.500	208.229	80.008	19.993	103.307	19.990	5.152	0.509
276.000	208.521	80.007	19.994	103.305	19.993	4.943	0.481
276.500	208.756	80.008	19.994	103.309	19.993	4.951	0.507
277.000	209.010	80.006	19.994	103.310	19.989	5.197	0.508
277.500	209.241	80.007	19.994	103.313	19.990	5.130	0.487
278.000	209.486	80.008	19.994	103.315	19.993	4.932	0.480
278.500	209.732	80.006	19.995	103.315	19.991	5.059	0.483
279.000	209.994	80.006	19.994	103.316	19.993	4.919	0.499
279.500	210.215	80.008	19.993	103.318	19.993	4.917	0.496
280.000	210.509	80.008	19.995	103.319	19.992	5.012	0.499
280.500	210.786	80.010	19.994	103.318	19.992	5.002	0.543
281.000	210.979	80.006	19.994	103.323	19.994	4.877	0.521
281.500	211.216	80.007	19.994	103.326	19.994	4.873	0.450
282.000	211.473	80.009	19.995	103.331	19.991	5.042	0.461
282.500	211.694	80.010	19.995	103.333	19.990	5.129	0.486
283.000	211.927	80.007	19.995	103.331	19.991	5.095	0.467
283.500	212.176	80.007	19.994	103.328	19.995	4.778	0.468
284.000	212.400	80.010	19.995	103.327	19.991	5.054	0.477
284.500	212.657	80.007	19.996	103.322	19.991	5.038	0.477
285.000	212.916	80.010	19.995	103.320	19.995	4.796	0.498
285.500	213.156	80.009	19.995	103.320	19.994	4.839	0.507
286.000	213.421	80.008	19.995	103.322	19.995	4.774	0.502
286.500	213.648	80.007	19.994	103.323	19.996	4.677	0.498
287.000	213.913	80.008	19.995	103.328	19.995	4.738	0.492
287.500	214.143	80.008	19.995	103.330	19.992	5.008	0.494
288.000	214.384	80.007	19.994	103.324	19.996	4.710	0.483
288.500	214.617	80.010	19.995	103.316	19.990	5.107	0.472
289.000	214.869	80.008	19.995	103.310	19.994	4.861	0.479
289.500	215.127	80.006	19.994	103.306	19.993	4.894	0.498
290.000	215.350	80.008	19.995	103.303	19.996	4.704	0.496
290.500	215.603	80.008	19.995	103.304	19.994	4.811	0.479
291.000	215.835	80.008	19.995	103.305	19.993	4.907	0.481
291.500	216.101	80.009	19.994	103.304	19.994	4.861	0.491
292.000	216.328	80.009	19.994	103.301	19.991	5.050	0.495
292.500	216.582	80.008	19.995	103.299	19.991	5.042	0.487
293.000	216.812	80.008	19.995	103.299	19.992	4.986	0.482
293.500	217.094	80.008	19.995	103.298	19.994	4.814	0.498
294.000	217.319	80.006	19.996	103.302	19.992	5.014	0.510
294.500	217.591	80.005	19.997	103.301	19.996	4.723	0.502
295.000	217.828	80.007	19.995	103.300	19.994	4.861	0.502
295.501	218.057	80.007	19.995	103.300	19.994	4.825	0.487
296.001	218.312	80.004	19.995	103.301	19.993	4.928	0.475
296.500	218.536	80.007	19.994	103.302	19.996	4.690	0.482
297.000	218.762	80.006	19.995	103.308	19.993	4.932	0.465
297.500	219.012	80.006	19.995	103.308	19.996	4.686	0.463
298.000	219.272	80.007	19.996	103.307	19.991	5.029	0.493
298.500	219.508	80.005	19.994	103.307	19.991	5.048	0.503
299.001	219.766	80.007	19.995	103.310	19.986	5.417	0.495
299.500	219.995	80.007	19.996	103.311	19.991	5.092	0.491
300.000	220.262	80.005	19.996	103.312	19.994	4.873	0.491
300.500	220.495	80.007	19.996	103.313	19.993	4.907	0.498
301.000	220.763	80.005	19.995	103.313	19.991	5.065	0.500
301.500	220.977	80.006	19.995	103.308	19.992	5.022	0.491
302.000	221.219	80.007	19.995	103.302	19.993	4.895	0.469
302.500	221.495	80.006	19.995	103.299	19.992	4.966	0.488
303.000	221.681	80.006	19.996	103.299	19.991	5.063	0.490
303.500	221.995	80.008	19.996	103.299	19.993	4.944	0.481
304.000	222.224	80.005	19.994	103.297	19.991	5.071	0.521
304.500	222.459	80.008	19.995	103.297	19.986	5.402	0.503
305.000	222.729	80.007	19.995	103.301	19.985	5.470	0.485
305.500	222.921	80.006	19.996	103.300	19.997	4.653	0.484
306.000	223.190	80.007	19.995	103.302	19.993	4.885	0.462
306.500	223.426	80.006	19.996	103.304	19.992	5.000	0.483
307.000	223.685	80.007	19.996	103.311	19.993	4.917	0.500
307.500	223.950	80.007	19.996	103.312	19.991	5.097	0.510
308.000	224.160	80.010	19.996	103.312	19.995	4.772	0.500
308.500	224.403	80.006	19.996	103.311	19.994	4.845	0.464
309.000	224.665	80.007	19.995	103.310	19.994	4.851	0.479
309.500	224.928	80.007	19.995	103.302	19.993	4.902	0.515
310.000	225.163	80.007	19.996	103.297	19.993	4.928	0.512
310.500	225.409	80.007	19.996	103.295	19.993	4.904	0.489
311.000	225.655	80.006	19.995	103.295	19.988	5.304	0.487
311.500	225.885	80.007	19.996	103.295	19.988	5.282	0.484
312.000	226.174	80.006	19.996	103.302	19.988	5.269	0.497
312.500	226.353	80.007	19.996	103.306	19.991	5.066	0.493
313.000	226.627	80.005	19.995	103.309	19.993	4.910	0.460
313.500	226.876	80.007	19.995	103.315	19.989	5.199	0.488
314.000	227.097	80.007	19.995	103.319	19.986	5.457	0.497
314.500	227.331	80.006	19.996	103.315	19.991	5.041	0.463
315.000	227.588	80.006	19.996	103.311	19.992	4.952	0.473
315.500	227.838	80.006	19.995	103.307	19.989	5.205	0.499
316.000	228.109	80.006	19.995	103.302	19.988	5.308	0.514
316.500	228.385	80.006	19.996	103.297	19.985	5.502	0.534
317.000	228.634	80.005	19.995	103.294	19.985	5.518	0.536
317.500	228.854	80.006	19.995	103.293	19.986	5.407	0.497
318.000	229.099	80.005	19.996	103.294	19.985	5.490	0.467
318.500	229.342	80.006	19.996	103.297	19.987	5.336	0.477
319.000	229.608	80.005	19.995	103.301	19.988	5.296	0.499
319.500	229.870	80.007	19.996	103.304	19.985	5.479	0.519
320.000	230.108	80.005	19.997	103.309	19.989	5.209	0.514
320.500	230.353	80.005	19.995	103.316	19.987	5.326	0.491
321.000	230.623	80.005	19.995	103.321	19.989	5.220	0.499
321.500	230.871	80.006	19.994	103.320	19.986	5.451	0.517
322.000	231.105	80.008	19.995	103.321	19.984	5.541	0.500
322.500	231.370	80.007	19.996	103.324	19.985	5.537	0.491
323.000	231.599	80.007	19.995	103.324	19.982	5.687	0.497
323.500	231.842	80.006	19.994	103.324	19.984	5.594	0.483
324.000	232.108	80.005	19.995	103.325	19.988	5.253	0.491
324.500	232.309	80.007	19.995	103.323	19.982	5.731	0.488
325.000	232.563	80.006	19.994	103.317	19.984	5.549	0.460
325.500	232.779	80.005	19.994	103.315	19.980	5.836	0.462
326.000	233.075	80.005	19.996	103.315	19.983	5.642	0.491
326.500	233.325	80.013	19.997	103.319	19.983	5.641	0.529
327.000	233.547	80.021	19.998	103.328	19.983	5.656	0.509
327.500	233.801	80.018	19.997	103.336	19.981	5.829	0.474
328.000	234.022	80.011	19.997	103.338	19.977	6.063	0.476
328.500	234.309	80.008	19.997	103.335	19.981	5.765	0.491
329.000	234.567	80.005	19.996	103.330	19.981	5.779	0.526
329.500	234.810	80.006	19.995	103.328	19.980	5.855	0.523
330.000	235.057	80.007	19.996	103.321	19.980	5.878	0.495
330.500	235.303	80.005	19.995	103.319	19.978	6.021	0.492
331.000	235.512	80.006	19.995	103.317	19.982	5.755	0.475
331.500	235.752	80.008	19.995	103.317	19.982	5.721	0.452
332.000	236.034	80.006	19.995	103.313	19.982	5.715	0.485
332.500	236.237	80.008	19.995	103.314	19.981	5.802	0.503
333.000	236.522	80.008	19.995	103.313	19.982	5.756	0.486
333.500	236.731	80.005	19.994	103.315	19.975	6.266	0.491
334.000	237.003	80.006	19.995	103.316	19.976	6.155	0.488
334.500	237.254	80.005	19.995	103.320	19.978	5.983	0.502
335.000	237.520	80.007	19.994	103.319	19.978	6.050	0.520
335.500	237.774	80.005	19.994	103.318	19.978	6.048	0.518
336.000	237.981	80.007	19.995	103.314	19.975	6.237	0.491
336.500	238.257	80.008	19.994	103.309	19.975	6.247	0.472
337.000	238.482	80.007	19.994	103.302	19.974	6.301	0.492
337.500	238.722	80.006	19.994	103.299	19.974	6.342	0.483
338.000	238.984	80.007	19.994	103.299	19.973	6.410	0.483
338.500	239.242	80.007	19.994	103.299	19.975	6.261	0.511
339.001	239.471	80.007	19.995	103.302	19.975	6.206	0.503
339.500	239.694	80.010	19.995	103.302	19.973	6.394	0.470
340.000	239.948	80.007	19.995	103.302	19.975	6.234	0.465
340.501	240.209	80.008	19.994	103.302	19.971	6.517	0.496
341.001	240.473	80.007	19.993	103.303	19.971	6.555	0.520
341.500	240.718	80.007	19.995	103.306	19.971	6.553	0.517
342.000	240.952	80.009	19.994	103.310	19.972	6.466	0.494
342.500	241.174	80.008	19.994	103.312	19.971	6.544	0.467
343.000	241.437	80.007	19.993	103.318	19.967	6.802	0.470
343.500	241.678	80.007	19.994	103.321	19.970	6.586	0.495
344.000	241.939	80.009	19.994	103.318	19.969	6.711	0.503
344.500	242.175	80.007	19.995	103.314	19.970	6.590	0.499
345.000	242.471	80.009	19.995	103.313	19.968	6.727	0.515
345.500	242.686	80.008	19.995	103.314	19.971	6.534	0.521
346.000	242.953	80.008	19.995	103.317	19.968	6.742	0.497
346.500	243.196	80.009	19.994	103.321	19.966	6.898	0.497
347.000	243.471	80.008	19.995	103.329	19.968	6.781	0.514
347.500	243.700	80.007	19.994	103.334	19.967	6.818	0.511
348.000	243.939	80.009	19.994	103.334	19.962	7.180	0.486
348.500	244.200	80.007	19.995	103.334	19.965	6.972	0.483
349.000	244.448	80.007	19.995	103.333	19.964	7.055	0.504
349.500	244.687	80.005	19.995	103.331	19.963	7.126	0.498
350.000	244.937	80.007	19.994	103.329	19.962	7.164	0.488
350.500	245.190	80.006	19.996	103.329	19.963	7.124	0.496
351.000	245.422	80.007	19.994	103.328	19.960	7.310	0.494
351.500	245.673	80.008	19.995	103.327	19.961	7.231	0.484
352.000	245.928	80.005	19.995	103.324	19.962	7.180	0.495
352.500	246.221	80.007	19.994	103.320	19.959	7.378	0.527
353.000	246.444	80.007	19.994	103.314	19.959	7.386	0.532
353.500	246.708	80.006	19.994	103.307	19.958	7.491	0.501
354.000	246.952	80.005	19.994	103.300	19.960	7.348	0.497
354.500	247.204	80.008	19.994	103.297	19.959	7.391	0.502
355.000	247.444	80.007	19.994	103.296	19.955	7.689	0.494
355.500	247.691	80.006	19.995	103.298	19.954	7.756	0.489
356.000	247.912	80.005	19.995	103.304	19.954	7.766	0.478
356.500	248.188	80.008	19.994	103.311	19.956	7.651	0.482
357.000	248.447	80.007	19.995	103.319	19.956	7.609	0.516
357.500	248.689	80.007	19.996	103.323	19.955	7.728	0.518
358.000	248.950	80.007	19.995	103.328	19.952	7.958	0.502
358.500	249.205	80.008	19.994	103.327	19.953	7.871	0.510
359.000	249.457	80.006	19.995	103.320	19.950	8.077	0.512
359.500	249.702	80.009	19.995	103.315	19.949	8.150	0.502
360.000	249.983	80.008	19.994	103.314	19.955	7.736	0.512
360.500	250.236	80.009	19.994	103.314	19.947	8.323	0.530
361.000	250.473	80.009	19.995	103.315	19.947	8.267	0.512
361.500	250.751	80.008	19.994	103.318	19.950	8.083	0.503
362.000	250.989	80.008	19.993	103.322	19.944	8.511	0.516
362.500	251.231	80.009	19.994	103.323	19.947	8.291	0.498
363.000	251.512	80.008	19.994	103.319	19.943	8.572	0.501
363.500	251.716	80.010	19.994	103.320	19.943	8.616	0.504
364.000	251.995	80.008	19.993	103.323	19.943	8.608	0.484
364.500	252.257	80.009	19.995	103.322	19.943	8.610	0.512
365.000	252.469	80.010	19.994	103.323	19.941	8.770	0.508
365.500	252.756	80.009	19.994	103.325	19.942	8.627	0.487
366.000	253.001	80.011	19.995	103.325	19.940	8.792	0.515
366.500	253.227	80.008	19.994	103.324	19.940	8.772	0.501
367.000	253.481	80.009	19.995	103.326	19.940	8.812	0.476
367.500	253.745	80.009	19.993	103.327	19.941	8.735	0.499
368.000	253.998	80.010	19.994	103.328	19.936	9.094	0.517
368.500	254.248	80.009	19.994	103.326	19.936	9.105	0.510
369.000	254.494	80.010	19.994	103.327	19.937	9.032	0.500
369.500	254.742	80.010	19.994	103.327	19.934	9.230	0.495
370.000	254.998	80.010	19.993	103.326	19.934	9.266	0.499
370.500	255.235	80.009	19.995	103.326	19.934	9.240	0.499
371.000	255.506	80.009	19.994	103.329	19.933	9.357	0.500
371.501	255.760	80.010	19.994	103.330	19.932	9.405	0.516
372.000	255.999	80.010	19.995	103.329	19.930	9.541	0.509
372.500	256.261	80.009	19.994	103.330	19.929	9.601	0.497
373.000	256.478	80.008	19.995	103.330	19.927	9.767	0.490
373.500	256.755	80.007	19.993	103.330	19.929	9.581	0.487
374.000	257.013	80.007	19.995	103.330	19.924	9.985	0.515
374.500	257.239	80.007	19.995	103.331	19.925	9.880	0.510
375.000	257.474	80.006	19.995	103.332	19.926	9.854	0.472
375.500	257.723	80.006	19.995	103.332	19.923	10.025	0.472
376.000	257.964	80.006	19.995	103.332	19.922	10.094	0.487
376.500	258.225	80.008	19.995	103.334	19.919	10.322	0.496
377.000	258.467	80.004	19.996	103.332	19.919	10.326	0.502
377.500	258.694	80.007	19.995	103.332	19.918	10.427	0.486
378.000	258.950	80.007	19.996	103.331	19.915	10.678	0.476
378.500	259.217	80.004	19.997	103.331	19.914	10.750	0.503
379.000	259.478	80.006	19.996	103.330	19.913	10.783	0.526
379.500	259.714	80.005	19.997	103.330	19.915	10.631	0.512
380.000	259.977	80.005	19.995	103.330	19.915	10.613	0.498
380.500	260.197	80.006	19.995	103.331	19.913	10.783	0.491
381.000	260.441	80.007	19.997	103.331	19.911	10.954	0.474
381.500	260.695	80.003	19.996	103.331	19.910	10.991	0.482
382.000	260.951	80.006	19.996	103.331	19.909	11.071	0.504
382.500	261.170	80.007	19.995	103.331	19.908	11.174	0.492
383.000	261.419	80.003	19.995	103.331	19.909	11.080	0.472
383.500	261.652	80.006	19.995	103.331	19.901	11.643	0.476
384.000	261.933	80.007	19.995	103.331	19.906	11.289	0.498
384.500	262.163	80.006	19.995	103.333	19.901	11.695	0.512
385.000	262.407	80.007	19.995	103.333	19.899	11.808	0.492
385.500	262.630	80.006	19.995	103.334	19.902	11.612	0.471
386.000	262.896	80.007	19.996	103.334	19.905	11.378	0.478
386.500	263.118	80.005	19.995	103.335	19.897	11.995	0.488
387.000	263.381	80.005	19.995	103.335	19.897	11.981	0.486
387.500	263.620	80.004	19.995	103.337	19.898	11.886	0.493
388.000	263.829	80.005	19.996	103.338	19.892	12.349	0.475
388.500	264.084	80.006	19.995	103.338	19.892	12.314	0.456
389.000	264.360	80.007	19.995	103.339	19.895	12.130	0.498
389.500	264.596	80.006	19.996	103.339	19.892	12.358	0.522
390.000	264.835	80.006	19.995	103.338	19.893	12.257	0.493
390.500	265.078	80.006	19.994	103.336	19.891	12.427	0.478
391.000	265.351	80.005	19.995	103.338	19.889	12.547	0.499
391.500	265.582	80.005	19.994	103.338	19.890	12.512	0.510
392.000	265.809	80.006	19.995	103.339	19.884	12.895	0.481
392.500	266.084	80.005	19.996	103.340	19.886	12.804	0.480
393.000	266.337	80.007	19.994	103.340	19.884	12.955	0.515
393.500	266.544	80.007	19.996	103.340	19.878	13.364	0.494
394.000	266.820	80.005	19.996	103.341	19.882	13.090	0.472
394.500	267.057	80.007	19.995	103.340	19.878	13.341	0.498
395.000	267.304	80.005	19.995	103.338	19.881	13.109	0.498
395.500	267.571	80.006	19.995	103.338	19.880	13.246	0.499
396.000	267.816	80.006	19.994	103.336	19.877	13.406	0.512
396.500	268.008	80.005	19.996	103.336	19.876	13.476	0.475
397.000	268.317	80.006	19.995	103.339	19.871	13.902	0.469
397.500	268.552	80.005	19.995	103.346	19.872	13.813	0.522
398.000	268.801	80.006	19.995	103.351	19.868	14.096	0.514
398.500	269.007	80.004	19.995	103.352	19.870	13.946	0.470
399.000	269.313	80.006	19.994	103.352	19.869	14.001	0.484
399.500	269.553	80.005	19.994	103.349	19.868	14.127	0.529
400.000	269.813	80.006	19.995	103.348	19.870	13.968	0.523
400.500	270.039	80.006	19.994	103.346	19.869	14.040	0.493
401.000	270.280	80.004	19.994	103.346	19.865	14.321	0.476
401.500	270.582	80.005	19.993	103.350	19.865	14.307	0.505
402.000	270.795	80.008	19.994	103.353	19.866	14.226	0.530
402.500	271.048	80.006	19.996	103.348	19.864	14.404	0.491
403.000	271.320	80.005	19.995	103.345	19.862	14.523	0.495
403.500	271.557	80.006	19.994	103.343	19.862	14.553	0.517
404.000	271.803	80.006	19.995	103.340	19.862	14.531	0.496
404.500	272.091	80.004	19.994	103.336	19.861	14.640	0.509
405.000	272.318	80.006	19.995	103.344	19.857	14.894	0.525
405.500	272.575	80.007	19.995	103.346	19.854	15.132	0.500
406.001	272.813	80.004	19.995	103.347	19.856	14.972	0.490
406.500	272.990	80.006	19.996	103.348	19.854	15.134	0.455
407.000	273.297	80.004	19.994	103.351	19.852	15.281	0.450
407.500	273.517	80.003	19.997	103.347	19.850	15.394	0.506
408.000	273.762	80.004	19.994	103.347	19.850	15.445	0.496
408.500	274.017	80.004	19.995	103.347	19.851	15.373	0.482
409.000	274.235	80.002	19.997	103.347	19.845	15.790	0.487
409.500	274.540	80.003	19.997	103.345	19.848	15.556	0.498
410.000	274.760	80.005	19.996	103.344	19.848	15.596	0.524
410.500	275.010	80.005	19.995	103.349	19.845	15.800	0.497
411.000	275.244	80.010	19.994	103.354	19.842	15.978	0.477
411.500	275.518	80.003	19.992	103.363	19.842	15.982	0.496
412.000	275.747	80.005	19.993	103.367	19.842	16.020	0.505
412.500	276.005	80.008	19.995	103.371	19.842	15.990	0.495
413.000	276.257	80.002	19.997	103.369	19.840	16.175	0.499
413.500	276.505	80.002	19.996	103.368	19.841	16.119	0.505
414.000	276.745	80.004	19.994	103.366	19.841	16.079	0.494
414.500	277.020	80.006	19.996	103.364	19.837	16.394	0.501
415.000	277.287	80.006	19.995	103.365	19.832	16.742	0.528
415.500	277.508	80.006	19.995	103.365	19.834	16.563	0.515
416.000	277.743	80.006	19.995	103.366	19.836	16.454	0.472
416.500	278.003	80.005	19.997	103.364	19.835	16.510	0.475
417.000	278.290	80.007	19.995	103.363	19.833	16.654	0.521
417.500	278.514	80.007	19.995	103.362	19.830	16.906	0.529
418.000	278.774	80.006	19.995	103.363	19.836	16.435	0.498
418.500	278.987	80.008	19.995	103.363	19.826	17.156	0.478
419.000	279.253	80.007	19.995	103.366	19.828	17.036	0.476
419.500	279.490	80.006	19.994	103.368	19.821	17.543	0.491
420.000	279.751	80.008	19.996	103.365	19.821	17.546	0.501
420.500	279.941	80.008	19.995	103.362	19.821	17.562	0.475
421.000	280.241	80.009	19.995	103.363	19.822	17.456	0.471
421.500	280.477	80.007	19.993	103.363	19.820	17.603	0.513
422.000	280.727	80.008	19.995	103.362	19.823	17.420	0.511
422.500	280.954	80.007	19.993	103.363	19.816	17.885	0.482
423.000	281.240	80.005	19.993	103.364	19.820	17.622	0.495
423.500	281.474	80.008	19.995	103.361	19.819	17.667	0.516
424.000	281.707	80.006	19.994	103.359	19.815	17.965	0.493
424.500	281.924	80.007	19.995	103.361	19.816	17.929	0.459
425.000	282.206	80.009	19.995	103.362	19.819	17.713	0.475
425.500	282.456	80.008	19.994	103.364	19.812	18.230	0.516
426.000	282.711	80.006	19.993	103.368	19.814	18.076	0.519
426.500	282.997	80.007	19.995	103.370	19.814	18.076	0.523
427.000	283.200	80.007	19.995	103.370	19.812	18.213	0.515
427.500	283.463	80.008	19.995	103.372	19.813	18.146	0.478
428.000	283.771	80.008	19.993	103.371	19.807	18.613	0.519
428.500	283.995	80.007	19.994	103.371	19.807	18.572	0.551
429.000	284.253	80.008	19.994	103.371	19.805	18.698	0.507
429.500	284.474	80.007	19.994	103.368	19.808	18.482	0.481
430.000	284.726	80.007	19.995	103.366	19.805	18.723	0.477
430.500	285.001	80.006	19.993	103.363	19.803	18.891	0.500
431.000	285.220	80.007	19.994	103.360	19.802	18.931	0.510
431.500	285.492	80.007	19.995	103.360	19.804	18.834	0.492
432.000	285.696	80.008	19.994	103.362	19.804	18.820	0.484
432.500	285.980	80.006	19.995	103.363	19.798	19.248	0.482
433.000	286.218	80.007	19.995	103.368	19.806	18.675	0.504
433.500	286.471	80.006	19.993	103.369	19.800	19.129	0.506
434.000	286.730	80.008	19.993	103.366	19.802	18.986	0.502
434.500	286.988	80.006	19.995	103.368	19.798	19.209	0.515
435.000	287.241	80.007	19.994	103.366	19.796	19.421	0.514
435.500	287.508	80.007	19.994	103.367	19.797	19.315	0.515
436.000	287.760	80.004	19.995	103.367	19.793	19.642	0.519
436.500	287.968	80.007	19.993	103.368	19.795	19.480	0.490
437.000	288.238	80.008	19.993	103.368	19.791	19.737	0.470
437.500	288.489	80.007	19.996	103.367	19.794	19.519	0.500
438.000	288.757	80.006	19.995	103.364	19.796	19.363	0.520
438.500	288.986	80.007	19.994	103.363	19.792	19.694	0.508
439.000	289.235	80.006	19.994	103.363	19.792	19.669	0.488
439.500	289.505	80.008	19.994	103.363	19.786	20.125	0.498
440.000	289.721	80.006	19.994	103.366	19.788	19.987	0.502
440.500	289.986	80.006	19.995	103.368	19.791	19.788	0.483
441.000	290.273	80.006	19.995	103.371	19.793	19.608	0.517
441.500	290.504	80.007	19.994	103.371	19.787	20.063	0.535
442.000	290.816	80.006	19.993	103.373	19.786	20.125	0.530
442.500	291.008	80.006	19.995	103.372	19.789	19.901	0.524
443.000	291.294	80.008	19.994	103.371	19.785	20.165	0.491
443.500	291.568	80.006	19.995	103.372	19.788	19.983	0.519
444.000	291.808	80.008	19.994	103.371	19.786	20.127	0.537
444.500	292.045	80.007	19.994	103.371	19.784	20.242	0.495
445.000	292.265	80.006	19.994	103.375	19.787	20.081	0.467
445.500	292.577	80.007	19.994	103.378	19.785	20.190	0.495
446.000	292.764	80.008	19.995	103.380	19.786	20.091	0.515
446.500	293.005	80.007	19.993	103.381	19.776	20.847	0.463
447.000	293.285	80.008	19.996	103.382	19.780	20.546	0.474
447.500	293.575	80.008	19.993	103.382	19.776	20.853	0.545
448.000	293.843	80.008	19.994	103.385	19.784	20.300	0.564
448.500	294.067	80.007	19.994	103.383	19.780	20.580	0.525
449.000	294.322	80.007	19.995	103.382	19.777	20.760	0.486
449.500	294.607	80.007	19.994	103.381	19.777	20.769	0.509
450.000	294.855	80.007	19.993	103.377	19.772	21.141	0.536
450.500	295.067	80.009	19.994	103.373	19.776	20.836	0.496
451.001	295.355	80.006	19.993	103.373	19.778	20.679	0.481
451.500	295.571	80.008	19.993	103.374	19.771	21.221	0.502
452.000	295.862	80.008	19.994	103.375	19.772	21.155	0.505
452.500	296.079	80.009	19.993	103.376	19.769	21.413	0.507
453.000	296.356	80.007	19.994	103.376	19.764	21.741	0.501
453.500	296.626	80.009	19.993	103.375	19.768	21.477	0.521
454.000	296.817	80.007	19.994	103.374	19.771	21.221	0.504
454.500	297.101	80.007	19.994	103.372	19.762	21.896	0.468
455.000	297.399	80.005	19.994	103.372	19.765	21.668	0.528
455.500	297.625	80.007	19.993	103.373	19.764	21.782	0.553
456.000	297.926	80.006	19.994	103.374	19.764	21.757	0.526
456.500	298.183	80.006	19.996	103.375	19.763	21.800	0.542
457.000	298.382	80.007	19.994	103.377	19.757	22.275	0.507
457.500	298.753	80.007	19.994	103.378	19.761	21.994	0.513
458.000	298.894	80.006	19.994	103.380	19.758	22.159	0.541
458.500	299.110	80.008	19.994	103.380	19.757	22.242	0.435
459.000	299.368	80.005	19.994	103.379	19.759	22.096	0.415
459.500	299.714	80.006	19.993	103.378	19.758	22.217	0.539
460.000	299.948	80.005	19.994	103.377	19.757	22.269	0.592
460.500	300.116	80.006	19.994	103.376	19.755	22.440	0.491
461.000	300.447	80.005	19.994	103.375	19.754	22.485	0.450
461.500	300.579	80.006	19.994	103.376	19.747	22.966	0.481
462.000	301.081	80.005	19.995	103.380	19.752	22.650	0.548
462.500	300.967	80.006	19.994	103.382	19.747	22.962	0.511
463.000	301.630	80.006	19.994	103.383	19.746	23.097	0.469
463.500	301.863	80.006	19.992	103.385	19.750	22.753	0.722
464.000	301.794	80.004	19.994	103.385	19.747	22.981	0.529
464.500	302.254	80.006	19.993	103.380	19.744	23.229	0.277
465.000	302.656	80.005	19.995	103.382	19.743	23.257	0.627
465.500	302.864	80.005	19.994	103.385	19.742	23.382	0.737
466.000	302.903	80.005	19.993	103.386	19.745	23.123	0.429
466.500	303.278	80.003	19.994	103.390	19.739	23.606	0.330
467.000	303.417	80.005	19.994	103.396	19.738	23.634	0.464
467.500	303.726	80.003	19.994	103.401	19.744	23.243	0.481
468.000	304.011	80.006	19.995	103.398	19.739	23.597	0.521
468.500	304.177	80.005	19.993	103.400	19.735	23.914	0.522
469.000	304.484	80.003	19.995	103.397	19.734	23.953	0.461
469.500	304.726	80.005	19.995	103.397	19.730	24.231	0.511
470.000	304.997	80.004	19.995	103.394	19.733	24.006	0.532
470.500	305.241	80.005	19.994	103.393	19.729	24.308	0.514
471.000	305.481	80.005	19.995	103.392	19.732	24.090	0.499
471.500	305.752	80.005	19.995	103.397	19.723	24.745	0.497
472.000	306.006	80.004	19.994	103.391	19.726	24.516	0.518
472.500	306.221	80.004	19.995	103.393	19.726	24.544	0.497
473.000	306.522	80.005	19.993	103.399	19.721	24.930	0.493
473.500	306.805	80.004	19.994	103.402	19.724	24.718	0.550
474.000	307.040	80.004	19.993	103.401	19.721	24.876	0.551
474.500	307.248	80.004	19.995	103.407	19.715	25.349	0.480
475.000	307.542	80.006	19.994	103.404	19.714	25.442	0.473
475.500	307.771	80.006	19.994	103.397	19.715	25.317	0.513
476.000	308.042	80.005	19.995	103.395	19.715	25.321	0.511
476.500	308.283	80.006	19.995	103.395	19.709	25.820	0.506
477.000	308.521	80.007	19.994	103.389	19.709	25.814	0.495
477.500	308.816	80.006	19.995	103.390	19.707	25.970	0.506
478.000	309.028	80.004	19.995	103.397	19.711	25.665	0.520
478.500	309.282	80.008	19.994	103.396	19.706	26.037	0.487
479.000	309.573	80.007	19.995	103.396	19.704	26.186	0.506
479.500	309.849	80.005	19.995	103.397	19.700	26.464	0.556
480.000	310.081	80.008	19.996	103.397	19.701	26.362	0.538
480.500	310.341	80.007	19.994	103.397	19.696	26.764	0.500
481.000	310.575	80.006	19.994	103.401	19.689	27.284	0.493
481.500	310.881	80.006	19.995	103.404	19.692	27.045	0.517
482.000	311.081	80.005	19.995	103.407	19.689	27.270	0.523
482.501	311.335	80.007	19.994	103.410	19.688	27.328	0.479
483.000	311.616	80.005	19.994	103.406	19.686	27.482	0.494
483.500	311.826	80.006	19.995	103.405	19.684	27.618	0.513
484.000	312.107	80.007	19.996	103.404	19.680	27.964	0.491
484.500	312.377	80.005	19.994	103.405	19.678	28.100	0.521
485.000	312.610	80.005	19.995	103.406	19.679	27.995	0.527
485.500	312.897	80.005	19.995	103.410	19.676	28.232	0.511
486.000	313.120	80.007	19.994	103.411	19.670	28.703	0.515
486.500	313.422	80.003	19.994	103.411	19.668	28.834	0.518
487.000	313.659	80.006	19.993	103.410	19.664	29.125	0.532
487.500	313.865	80.004	19.994	103.411	19.660	29.378	0.492
488.000	314.191	80.005	19.995	103.410	19.664	29.138	0.488
488.501	314.406	80.005	19.994	103.411	19.660	29.381	0.536
489.000	314.679	80.005	19.994	103.412	19.661	29.304	0.514
489.500	314.921	80.005	19.995	103.412	19.659	29.452	0.501
490.000	315.181	80.005	19.996	103.413	19.650	30.127	0.509
490.500	315.410	80.006	19.995	103.416	19.652	29.997	0.495
491.000	315.678	80.004	19.994	103.419	19.648	30.313	0.493
491.500	315.924	80.004	19.994	103.421	19.644	30.584	0.506
492.000	316.171	80.006	19.995	103.425	19.640	30.911	0.503
492.500	316.427	80.003	19.994	103.428	19.640	30.896	0.498
493.000	316.695	80.006	19.994	103.426	19.638	31.006	0.513
493.500	316.934	80.005	19.995	103.429	19.637	31.100	0.516
494.000	317.216	80.005	19.995	103.430	19.635	31.253	0.514
494.500	317.407	80.003	19.996	103.434	19.628	31.772	0.497
495.000	317.692	80.006	19.995	103.438	19.624	32.084	0.475
495.500	317.933	80.003	19.995	103.445	19.623	32.111	0.501
496.000	318.166	80.005	19.996	103.446	19.619	32.424	0.500
496.500	318.475	80.005	19.995	103.449	19.616	32.662	0.508
497.000	318.675	80.005	19.996	103.449	19.617	32.595	0.526
497.500	318.954	80.007	19.996	103.449	19.607	33.297	0.494
498.000	319.197	80.004	19.996	103.449	19.604	33.547	0.501
498.500	319.449	80.007	19.996	103.449	19.599	33.886	0.508
499.000	319.700	80.005	19.997	103.450	19.598	33.972	0.498
499.500	319.958	80.005	19.996	103.447	19.593	34.381	0.506
500.000	320.195	80.006	19.996	103.447	19.592	34.383	0.502
500.500	320.461	80.005	19.995	103.447	19.589	34.672	0.499
501.000	320.719	80.005	19.996	103.447	19.583	35.098	0.513
501.500	320.952	80.007	19.996	103.452	19.581	35.213	0.508
502.000	321.222	80.007	19.996	103.461	19.575	35.642	0.497
502.500	321.505	80.004	19.995	103.462	19.573	35.818	0.528
503.000	321.725	80.007	19.996	103.461	19.568	36.189	0.528
503.500	322.016	80.006	19.996	103.466	19.565	36.437	0.507
504.000	322.255	80.005	19.995	103.462	19.557	37.005	0.520
504.500	322.450	80.008	19.996	103.459	19.553	37.308	0.481
505.000	322.768	80.006	19.995	103.463	19.545	37.871	0.473
505.501	322.980	80.006	19.995	103.468	19.546	37.815	0.521
506.000	323.236	80.007	19.995	103.470	19.535	38.650	0.499
506.500	323.480	80.007	19.995	103.473	19.532	38.821	0.484
507.000	323.744	80.007	19.996	103.478	19.524	39.445	0.504
507.500	324.004	80.009	19.996	103.482	19.525	39.358	0.516
508.000	324.215	80.006	19.996	103.484	19.516	40.042	0.497
508.500	324.468	80.007	19.995	103.485	19.509	40.534	0.468
509.000	324.745	80.007	19.996	103.488	19.513	40.282	0.497
509.500	324.973	80.007	19.996	103.491	19.501	41.106	0.518
510.000	325.207	80.006	19.994	103.491	19.498	41.374	0.484
510.500	325.441	80.007	19.996	103.491	19.489	42.060	0.465
511.000	325.713	80.006	19.995	103.492	19.485	42.338	0.487
511.500	325.990	80.005	19.995	103.492	19.480	42.705	0.528
512.000	326.217	80.009	19.995	103.490	19.473	43.206	0.527
512.500	326.463	80.006	19.994	103.494	19.467	43.652	0.488
513.000	326.706	80.007	19.995	103.497	19.460	44.174	0.481
513.500	326.953	80.006	19.993	103.502	19.453	44.658	0.490
514.000	327.214	80.007	19.994	103.510	19.439	45.729	0.499
514.500	327.465	80.005	19.995	103.517	19.438	45.798	0.510
515.000	327.764	80.005	19.994	103.521	19.427	46.613	0.531
515.500	327.962	80.005	19.995	103.526	19.418	47.274	0.523
516.000	328.235	80.007	19.994	103.528	19.412	47.743	0.484
516.500	328.473	80.007	19.995	103.530	19.408	48.028	0.491
517.000	328.728	80.006	19.994	103.534	19.395	48.959	0.502
517.500	328.988	80.006	19.995	103.537	19.387	49.541	0.504
518.000	329.240	80.007	19.994	103.544	19.379	50.184	0.514
518.500	329.431	80.007	19.995	103.550	19.371	50.754	0.478
519.000	329.711	80.008	19.993	103.556	19.362	51.433	0.458
519.500	329.948	80.008	19.994	103.559	19.352	52.145	0.494
520.000	330.170	80.006	19.995	103.564	19.343	52.840	0.488
520.500	330.429	80.008	19.996	103.566	19.330	53.769	0.470
521.000	330.707	80.007	19.996	103.571	19.327	54.007	0.509
521.500	330.916	80.006	19.995	103.575	19.317	54.769	0.512
522.000	331.194	80.006	19.994	103.583	19.304	55.702	0.487
522.501	331.453	80.007	19.993	103.589	19.290	56.757	0.511
523.001	331.722	80.007	19.995	103.596	19.283	57.285	0.532
523.501	331.950	80.006	19.993	103.600	19.273	58.026	0.513
524.000	332.241	80.008	19.995	103.604	19.260	58.964	0.508
524.500	332.471	80.006	19.993	103.605	19.253	59.474	0.520
525.000	332.731	80.009	19.994	103.606	19.233	60.937	0.505
525.500	332.982	80.009	19.995	103.611	19.228	61.373	0.500
526.000	333.210	80.008	19.993	103.617	19.212	62.539	0.495
526.500	333.481	80.008	19.994	103.625	19.195	63.764	0.489
527.000	333.746	80.008	19.993	103.633	19.191	64.050	0.518
527.500	333.992	80.008	19.995	103.641	19.179	64.980	0.523
528.000	334.237	80.005	19.994	103.645	19.159	66.413	0.501
528.500	334.500	80.010	19.994	103.647	19.153	66.905	0.500
529.000	334.766	80.006	19.993	103.648	19.134	68.255	0.519
529.500	335.014	80.009	19.994	103.648	19.121	69.223	0.522
530.000	335.240	80.008	19.995	103.653	19.108	70.180	0.494
530.500	335.463	80.009	19.994	103.660	19.097	70.981	0.461
531.000	335.721	80.008	19.993	103.668	19.084	71.997	0.465
531.500	336.004	80.012	19.993	103.676	19.067	73.227	0.511
532.000	336.232	80.008	19.994	103.685	19.055	74.094	0.526
532.500	336.493	80.008	19.994	103.689	19.038	75.343	0.500
533.000	336.715	80.007	19.994	103.696	19.025	76.321	0.486
533.500	337.009	80.007	19.993	103.704	19.013	77.192	0.500
534.000	337.212	80.008	19.994	103.710	18.995	78.477	0.506
534.500	337.477	80.008	19.995	103.716	18.982	79.446	0.483
535.000	337.734	80.007	19.994	103.726	18.964	80.754	0.495
535.500	338.009	80.007	19.994	103.733	18.957	81.271	0.527
536.000	338.243	80.006	19.993	103.740	18.938	82.717	0.520
536.500	338.503	80.008	19.994	103.741	18.930	83.265	0.502
537.000	338.724	80.008	19.995	103.745	18.915	84.350	0.488
537.500	338.978	80.007	19.994	103.747	18.898	85.617	0.478
538.001	339.223	80.008	19.994	103.748	18.884	86.644	0.487
538.500	339.435	80.008	19.995	103.750	18.874	87.401	0.478
539.000	339.701	80.006	19.993	103.754	18.856	88.738	0.467
539.500	339.958	80.007	19.993	103.757	18.843	89.629	0.501
540.000	340.192	80.007	19.995	103.760	18.826	90.924	0.507
540.500	340.448	80.006	19.994	103.759	18.816	91.622	0.491
541.000	340.691	80.006	19.995	103.756	18.801	92.751	0.495
541.500	340.941	80.007	19.995	103.757	18.786	93.844	0.496
542.000	341.217	80.007	19.994	103.755	18.779	94.304	0.509
542.500	341.437	80.007	19.995	103.752	18.772	94.801	0.511
543.000	341.660	80.006	19.994	103.746	18.759	95.741	0.469
543.500	341.920	80.008	19.993	103.741	18.755	96.086	0.463
544.000	342.228	80.006	19.994	103.735	18.744	96.855	0.526
544.500	342.447	80.007	19.994	103.729	18.735	97.509	0.547
545.000	342.699	80.007	19.995	103.726	18.728	98.038	0.498
545.500	342.977	80.006	19.993	103.725	18.717	98.833	0.500
546.000	343.192	80.006	19.994	103.724	18.716	98.857	0.512
546.500	343.449	80.005	19.994	103.722	18.710	99.309	0.483
547.000	343.710	80.007	19.995	103.719	18.712	99.157	0.495
547.500	343.952	80.008	19.994	103.709	18.711	99.205	0.510
548.000	344.183	80.007	19.994	103.701	18.702	99.889	0.488
548.500	344.422	80.006	19.994	103.693	18.715	98.923	0.472
549.000	344.635	80.007	19.993	103.686	18.716	98.813	0.461
549.500	344.916	80.009	19.995	103.680	18.718	98.694	0.473
550.000	345.199	80.006	19.994	103.674	18.720	98.505	0.529
550.500	345.426	80.007	19.995	103.666	18.725	98.139	0.537
551.000	345.682	80.007	19.995	103.656	18.730	97.727	0.496
551.500	345.939	80.008	19.993	103.642	18.742	96.830	0.498
552.000	346.164	80.008	19.994	103.628	18.743	96.790	0.498
552.500	346.451	80.007	19.995	103.612	18.763	95.288	0.497
553.000	346.650	80.008	19.994	103.597	18.776	94.379	0.499
553.500	346.895	80.007	19.994	103.585	18.783	93.805	0.465
554.000	347.191	80.007	19.993	103.575	18.799	92.647	0.492
554.500	347.451	80.008	19.993	103.568	18.815	91.473	0.549
555.000	347.665	80.008	19.995	103.564	18.828	90.513	0.515
555.500	347.887	80.009	19.994	103.556	18.843	89.373	0.455
556.000	348.150	80.007	19.995	103.547	18.866	87.687	0.460
556.500	348.409	80.008	19.995	103.534	18.879	86.774	0.503
557.000	348.649	80.005	19.994	103.519	18.897	85.472	0.511
557.500	348.935	80.006	19.995	103.505	18.922	83.613	0.513
558.000	349.203	80.005	19.994	103.497	18.942	82.160	0.540
558.501	349.461	80.008	19.995	103.485	18.962	80.664	0.540
559.000	349.731	80.007	19.994	103.478	18.984	79.042	0.527
559.500	349.948	80.008	19.994	103.470	19.003	77.648	0.508
560.000	350.190	80.006	19.994	103.462	19.024	76.094	0.473
560.500	350.458	80.005	19.995	103.452	19.050	74.166	0.484
561.000	350.728	80.007	19.996	103.440	19.068	72.883	0.524
561.500	350.930	80.006	19.995	103.431	19.091	71.153	0.505
562.000	351.232	80.005	19.995	103.423	19.115	69.388	0.488
562.500	351.488	80.009	19.995	103.414	19.138	67.702	0.530
563.000	351.742	80.007	19.995	103.408	19.161	66.033	0.534
563.500	351.984	80.006	19.994	103.409	19.184	64.329	0.503
564.000	352.251	80.007	19.994	103.407	19.207	62.627	0.503
564.500	352.494	80.006	19.994	103.399	19.230	60.983	0.509
565.000	352.779	80.007	19.994	103.394	19.251	59.429	0.519
565.500	353.001	80.007	19.995	103.387	19.272	57.876	0.517
566.000	353.265	80.007	19.994	103.379	19.288	56.711	0.496
566.500	353.541	80.006	19.996	103.372	19.306	55.393	0.513
567.000	353.774	80.006	19.995	103.373	19.322	54.222	0.525
567.500	354.064	80.006	19.996	103.372	19.337	53.069	0.516
568.001	354.321	80.007	19.995	103.373	19.361	51.304	0.535
568.500	354.560	80.007	19.995	103.374	19.379	50.008	0.522
569.000	354.822	80.007	19.995	103.375	19.398	48.638	0.498
569.500	355.049	80.006	19.996	103.375	19.411	47.679	0.495
570.000	355.343	80.006	19.996	103.374	19.426	46.524	0.505
570.500	355.582	80.007	19.994	103.373	19.447	45.022	0.527
571.000	355.843	80.005	19.994	103.368	19.461	43.960	0.517
571.500	356.062	80.007	19.997	103.361	19.474	43.027	0.490
572.000	356.339	80.007	19.995	103.359	19.487	42.071	0.488
572.500	356.542	80.007	19.995	103.354	19.500	41.126	0.488
573.000	356.793	80.007	19.995	103.347	19.516	39.966	0.467
573.500	357.102	80.007	19.994	103.349	19.527	39.145	0.507
574.000	357.356	80.005	19.995	103.356	19.539	38.277	0.562
574.500	357.564	80.007	19.996	103.356	19.551	37.348	0.513
575.000	357.837	80.004	19.994	103.361	19.560	36.745	0.471
575.500	358.092	80.007	19.996	103.368	19.573	35.755	0.504
576.000	358.367	80.007	19.996	103.366	19.581	35.198	0.529
576.500	358.608	80.007	19.995	103.365	19.591	34.437	0.523
577.000	358.827	80.007	19.994	103.364	19.600	33.804	0.488
577.500	359.066	80.005	19.996	103.361	19.612	32.912	0.459
578.000	359.352	80.007	19.994	103.361	19.620	32.343	0.491
578.500	359.561	80.005	19.996	103.358	19.630	31.601	0.510
579.000	359.827	80.007	19.996	103.353	19.634	31.282	0.486
579.500	360.081	80.006	19.995	103.348	19.641	30.774	0.497
580.000	360.326	80.007	19.995	103.345	19.649	30.183	0.509
580.500	360.553	80.008	19.994	103.341	19.656	29.682	0.486
581.000	360.853	80.006	19.994	103.339	19.655	29.723	0.500
581.500	361.067	80.008	19.994	103.339	19.664	29.044	0.520
582.000	361.277	80.006	19.995	103.339	19.671	28.528	0.469
582.500	361.578	80.008	19.995	103.336	19.681	27.837	0.467
583.000	361.829	80.006	19.995	103.334	19.683	27.664	0.531
583.500	362.046	80.008	19.995	103.334	19.686	27.486	0.510
584.001	362.309	80.007	19.994	103.334	19.690	27.135	0.474
584.500	362.554	80.006	19.994	103.335	19.695	26.814	0.494
585.000	362.838	80.008	19.993	103.335	19.702	26.279	0.518
585.500	363.042	80.009	19.995	103.335	19.703	26.188	0.509
586.000	363.301	80.009	19.994	103.334	19.709	25.801	0.476
586.500	363.518	80.009	19.995	103.333	19.709	25.801	0.469
587.000	363.742	80.009	19.995	103.332	19.714	25.425	0.458
587.500	364.014	80.008	19.994	103.332	19.720	24.953	0.469
588.000	364.253	80.009	19.995	103.330	19.725	24.624	0.504
588.500	364.511	80.009	19.995	103.328	19.723	24.741	0.504
589.000	364.765	80.008	19.994	103.330	19.725	24.579	0.504
589.500	364.994	80.008	19.994	103.330	19.732	24.098	0.497
590.000	365.259	80.008	19.994	103.330	19.732	24.102	0.488
590.500	365.454	80.008	19.995	103.333	19.736	23.812	0.477
591.000	365.724	80.007	19.995	103.334	19.737	23.725	0.463
591.500	365.981	80.007	19.995	103.334	19.738	23.668	0.496
592.000	366.211	80.007	19.995	103.334	19.741	23.403	0.507
592.500	366.452	80.007	19.994	103.334	19.741	23.446	0.479
593.000	366.714	80.007	19.995	103.334	19.744	23.198	0.488
593.500	366.931	80.006	19.994	103.334	19.748	22.933	0.491
594.000	367.191	80.007	19.995	103.334	19.745	23.096	0.478
594.500	367.419	80.006	19.995	103.334	19.747	22.947	0.482
595.000	367.667	80.006	19.994	103.334	19.749	22.812	0.482
595.500	367.907	80.007	19.996	103.334	19.749	22.864	0.482
596.000	368.143	80.006	19.995	103.334	19.753	22.564	0.482
596.500	368.362	80.006	19.996	103.334	19.751	22.657	0.465
597.000	368.605	80.006	19.995	103.333	19.752	22.641	0.459
597.500	368.885	80.004	19.996	103.333	19.751	22.667	0.493
598.000	369.121	80.009	19.994	103.333	19.756	22.348	0.520
598.500	369.380	80.006	19.996	103.333	19.757	22.269	0.506
599.000	369.616	80.005	19.995	103.332	19.754	22.433	0.495
599.500	369.839	80.004	19.995	103.332	19.755	22.379	0.477
600.000	370.127	80.007	19.996	103.330	19.757	22.273	0.485
600.500	370.308	80.006	19.995	103.330	19.757	22.224	0.490
601.000	370.577	80.004	19.994	103.329	19.765	21.683	0.459
601.500	370.788	80.007	19.994	103.331	19.761	21.984	0.465
602.000	371.066	80.004	19.996	103.331	19.760	22.000	0.485
602.500	371.293	80.005	19.993	103.334	19.763	21.822	0.497
603.000	371.520	80.006	19.995	103.334	19.765	21.685	0.480
603.500	371.773	80.007	19.996	103.335	19.762	21.909	0.467
604.000	372.029	80.008	19.995	103.336	19.764	21.768	0.495
604.500	372.280	80.005	19.995	103.335	19.760	22.050	0.509
605.000	372.524	80.005	19.993	103.334	19.757	22.259	0.501
605.500	372.702	80.007	19.994	103.335	19.760	21.992	0.458
606.000	372.992	80.008	19.995	103.335	19.763	21.831	0.445
606.500	373.270	80.005	19.994	103.335	19.754	22.487	0.518
607.000	373.530	80.006	19.994	103.337	19.760	22.009	0.553
607.500	373.719	80.008	19.996	103.338	19.763	21.836	0.494
608.000	373.997	80.009	19.995	103.337	19.760	22.002	0.458
608.500	374.236	80.010	19.995	103.337	19.760	22.044	0.492
609.000	374.468	80.007	19.993	103.338	19.757	22.219	0.494
609.500	374.716	80.009	19.993	103.337	19.763	21.795	0.476
610.000	374.986	80.009	19.994	103.338	19.757	22.281	0.499
610.500	375.255	80.008	19.996	103.342	19.759	22.130	0.528
611.000	375.448	80.007	19.993	103.343	19.757	22.236	0.501
611.500	375.686	80.009	19.995	103.342	19.760	22.011	0.447
612.000	375.967	80.009	19.993	103.341	19.757	22.272	0.475
612.500	376.220	80.007	19.994	103.342	19.760	22.030	0.526
613.000	376.452	80.007	19.993	103.341	19.758	22.163	0.509
613.500	376.718	80.007	19.992	103.339	19.757	22.259	0.491
614.000	376.970	80.009	19.994	103.341	19.756	22.293	0.508
614.500	377.192	80.009	19.994	103.342	19.753	22.509	0.496
615.000	377.440	80.010	19.995	103.341	19.757	22.276	0.472
615.500	377.665	80.004	19.994	103.338	19.757	22.258	0.472
616.000	377.960	80.008	19.995	103.337	19.754	22.448	0.497
616.500	378.229	80.008	19.994	103.335	19.758	22.141	0.542
617.000	378.497	80.008	19.993	103.334	19.755	22.394	0.551
617.500	378.742	80.008	19.994	103.336	19.753	22.523	0.525
618.000	379.012	80.007	19.994	103.337	19.753	22.548	0.514
618.500	379.234	80.008	19.994	103.338	19.753	22.568	0.503
619.000	379.499	80.009	19.993	103.340	19.754	22.489	0.489
619.500	379.697	80.007	19.994	103.339	19.753	22.522	0.475
620.000	379.987	80.008	19.995	103.337	19.751	22.706	0.475
620.500	380.227	80.007	19.992	103.336	19.758	22.194	0.509
621.000	380.474	80.006	19.995	103.336	19.754	22.488	0.508
621.500	380.716	80.007	19.994	103.337	19.756	22.315	0.488
622.000	381.003	80.005	19.994	103.343	19.750	22.766	0.509
622.500	381.211	80.006	19.994	103.344	19.744	23.209	0.512
623.000	381.454	80.004	19.994	103.347	19.749	22.828	0.473
623.500	381.747	80.005	19.996	103.352	19.748	22.884	0.493
624.000	381.970	80.005	19.994	103.349	19.744	23.198	0.526
624.500	382.229	80.007	19.994	103.345	19.746	23.035	0.499
625.000	382.494	80.007	19.994	103.343	19.748	22.900	0.503
625.500	382.750	80.004	19.995	103.342	19.746	23.037	0.523
626.000	382.966	80.004	19.994	103.341	19.746	23.058	0.496
626.500	383.240	80.008	19.994	103.340	19.748	22.927	0.481
627.000	383.498	80.005	19.994	103.339	19.748	22.901	0.511
627.500	383.745	80.008	19.994	103.342	19.747	22.975	0.518
628.000	383.970	80.005	19.995	103.345	19.744	23.240	0.489
628.500	384.230	80.008	19.994	103.344	19.742	23.344	0.479
629.000	384.520	80.005	19.994	103.345	19.740	23.535	0.518
629.500	384.756	80.005	19.994	103.345	19.737	23.752	0.538
630.000	385.019	80.003	19.994	103.342	19.739	23.578	0.512
630.500	385.264	80.007	19.994	103.337	19.737	23.733	0.503
631.000	385.511	80.006	19.994	103.339	19.735	23.857	0.500
631.500	385.753	80.007	19.994	103.345	19.738	23.619	0.490
632.000	386.054	80.007	19.995	103.349	19.738	23.623	0.516
632.500	386.298	80.008	19.995	103.353	19.733	24.033	0.544
633.000	386.526	80.009	19.994	103.356	19.731	24.156	0.508
633.500	386.762	80.007	19.994	103.351	19.732	24.106	0.468
634.000	387.079	80.004	19.994	103.346	19.728	24.352	0.509
634.500	387.318	80.010	19.995	103.343	19.737	23.750	0.555
635.000	387.563	80.000	19.997	103.346	19.732	24.125	0.520
635.500	387.823	80.006	19.995	103.347	19.722	24.812	0.494
636.000	388.090	80.007	19.994	103.350	19.730	24.229	0.516
636.500	388.329	80.005	19.994	103.350	19.725	24.614	0.517
637.000	388.573	80.006	19.995	103.353	19.732	24.104	0.494
637.500	388.819	80.007	19.994	103.353	19.731	24.191	0.486
638.000	389.105	80.006	19.993	103.355	19.727	24.476	0.512
638.500	389.350	80.007	19.994	103.359	19.729	24.346	0.532
639.000	389.613	80.006	19.994	103.362	19.722	24.845	0.519
639.500	389.859	80.006	19.994	103.357	19.719	25.047	0.508
640.000	390.112	80.004	19.994	103.354	19.722	24.804	0.504
640.500	390.354	80.005	19.993	103.351	19.719	25.043	0.497
641.000	390.667	80.008	19.993	103.348	19.718	25.132	0.525
641.500	390.900	80.009	19.994	103.346	19.713	25.502	0.550
642.000	391.153	80.006	19.994	103.349	19.715	25.353	0.516
642.500	391.381	80.009	19.994	103.350	19.719	25.062	0.484
643.000	391.647	80.006	19.995	103.352	19.716	25.247	0.488
643.500	391.871	80.007	19.993	103.350	19.708	25.867	0.492
644.000	392.137	80.006	19.994	103.351	19.708	25.879	0.490
644.500	392.397	80.006	19.993	103.354	19.713	25.504	0.508
645.000	392.628	80.008	19.994	103.359	19.710	25.722	0.508
645.500	392.924	80.006	19.995	103.361	19.711	25.613	0.509
646.000	393.197	80.007	19.994	103.366	19.707	25.952	0.548
646.500	393.437	80.007	19.993	103.368	19.707	25.914	0.541
647.000	393.721	80.007	19.994	103.364	19.701	26.397	0.518
647.500	393.955	80.006	19.995	103.361	19.705	26.096	0.521
648.000	394.236	80.007	19.994	103.362	19.704	26.131	0.516
648.500	394.518	80.005	19.994	103.363	19.702	26.290	0.539
649.000	394.799	80.007	19.995	103.366	19.704	26.138	0.564
649.500	395.036	80.006	19.992	103.370	19.698	26.627	0.540
650.000	395.274	80.005	19.994	103.372	19.695	26.778	0.496
650.500	395.514	80.005	19.994	103.370	19.697	26.675	0.477
651.000	395.789	80.007	19.993	103.367	19.693	26.936	0.497
651.500	396.025	80.004	19.994	103.364	19.688	27.320	0.513
652.000	396.316	80.006	19.993	103.365	19.692	27.005	0.518
652.500	396.561	80.006	19.995	103.367	19.693	26.972	0.532
653.000	396.809	80.006	19.995	103.366	19.684	27.642	0.515
653.500	397.061	80.004	19.995	103.368	19.682	27.777	0.496
654.001	397.319	80.007	19.994	103.370	19.688	27.331	0.505
654.500	397.559	80.006	19.994	103.372	19.682	27.746	0.504
655.000	397.840	80.006	19.995	103.372	19.683	27.676	0.510
655.500	398.050	80.003	19.994	103.374	19.685	27.573	0.506
656.000	398.335	80.004	19.991	103.374	19.679	27.969	0.493
656.500	398.606	80.006	19.994	103.375	19.682	27.792	0.526
657.000	398.852	80.005	19.995	103.374	19.673	28.409	0.536
657.500	399.091	80.003	19.994	103.376	19.676	28.229	0.501
658.000	399.385	80.005	19.994	103.376	19.673	28.420	0.509
658.500	399.629	80.006	19.995	103.376	19.676	28.214	0.535
659.000	399.891	80.005	19.995	103.377	19.672	28.487	0.522
659.500	400.130	80.006	19.995	103.377	19.665	29.041	0.504
660.000	400.380	80.004	19.994	103.375	19.668	28.814	0.495
660.500	400.675	80.006	19.993	103.375	19.661	29.313	0.516
661.000	400.853	80.005	19.996	103.375	19.663	29.138	0.509
661.500	401.136	80.005	19.995	103.375	19.656	29.658	0.467
662.000	401.429	80.007	19.996	103.376	19.663	29.183	0.519
662.500	401.675	80.006	19.994	103.376	19.660	29.371	0.558
663.000	401.937	80.007	19.994	103.378	19.658	29.550	0.523
663.500	402.212	80.005	19.995	103.381	19.654	29.807	0.522
664.000	402.459	80.005	19.995	103.380	19.649	30.179	0.530
664.500	402.695	80.007	19.995	103.378	19.649	30.232	0.503
665.000	402.965	80.005	19.996	103.379	19.647	30.328	0.494
665.500	403.228	80.005	19.993	103.378	19.644	30.597	0.519
666.000	403.480	80.006	19.995	103.378	19.642	30.745	0.524
666.500	403.751	80.006	19.994	103.381	19.644	30.532	0.519
667.000	404.019	80.006	19.994	103.381	19.642	30.672	0.531
667.500	404.228	80.006	19.994	103.381	19.640	30.819	0.508
668.001	404.496	80.005	19.995	103.380	19.639	30.949	0.477
668.500	404.774	80.010	19.994	103.378	19.635	31.209	0.511
669.000	405.001	80.005	19.994	103.377	19.635	31.246	0.526
669.500	405.293	80.008	19.996	103.377	19.639	30.958	0.513
670.000	405.517	80.006	19.995	103.378	19.634	31.287	0.518
670.500	405.774	80.008	19.994	103.379	19.628	31.757	0.498
671.000	406.038	80.007	19.995	103.384	19.630	31.582	0.501
671.500	406.279	80.008	19.994	103.385	19.627	31.824	0.513
672.000	406.534	80.008	19.995	103.387	19.629	31.687	0.500
672.500	406.818	80.009	19.995	103.390	19.620	32.304	0.517
673.000	407.071	80.008	19.995	103.390	19.625	31.929	0.538
673.500	407.328	80.006	19.993	103.388	19.624	32.016	0.524
674.000	407.584	80.007	19.995	103.387	19.624	32.007	0.511
674.500	407.827	80.007	19.995	103.389	19.623	32.096	0.506
675.000	408.083	80.009	19.995	103.392	19.619	32.420	0.499
675.500	408.362	80.007	19.995	103.391	19.621	32.267	0.517
676.000	408.628	80.008	19.995	103.390	19.616	32.613	0.540
676.500	408.899	80.008	19.995	103.389	19.617	32.560	0.541
677.000	409.089	80.006	19.996	103.387	19.621	32.225	0.499
677.500	409.377	80.009	19.996	103.382	19.612	32.943	0.469
678.000	409.629	80.007	19.994	103.383	19.613	32.851	0.509
678.500	409.889	80.006	19.993	103.382	19.614	32.763	0.526
679.000	410.148	80.007	19.995	103.385	19.614	32.761	0.515
679.500	410.397	80.005	19.995	103.383	19.610	33.053	0.513
680.000	410.645	80.008	19.996	103.380	19.608	33.235	0.503
680.500	410.941	80.007	19.995	103.383	19.607	33.268	0.521
681.000	411.158	80.006	19.995	103.387	19.610	33.069	0.529
681.500	411.469	80.008	19.996	103.387	19.607	33.303	0.520
682.000	411.689	80.007	19.994	103.394	19.609	33.099	0.529
682.500	411.963	80.005	19.994	103.401	19.607	33.259	0.512
683.000	412.217	80.006	19.995	103.400	19.605	33.453	0.511
683.500	412.498	80.007	19.995	103.397	19.601	33.751	0.532
684.000	412.712	80.007	19.995	103.400	19.605	33.413	0.515
684.500	412.995	80.006	19.994	103.400	19.601	33.751	0.496
685.000	413.247	80.007	19.996	103.398	19.598	33.922	0.516
685.500	413.488	80.007	19.995	103.399	19.609	33.096	0.514
686.000	413.764	80.007	19.994	103.401	19.602	33.671	0.505
686.500	414.009	80.007	19.994	103.395	19.598	33.961	0.519
687.000	414.243	80.007	19.994	103.390	19.603	33.564	0.500
687.500	414.488	80.008	19.994	103.391	19.605	33.422	0.479
688.000	414.750	80.007	19.995	103.392	19.601	33.746	0.493
688.500	415.007	80.007	19.995	103.396	19.603	33.582	0.513
689.000	415.210	80.008	19.995	103.402	19.605	33.409	0.489
689.501	415.510	80.009	19.995	103.407	19.602	33.664	0.481
690.000	415.794	80.009	19.995	103.408	19.603	33.579	0.543
690.500	416.034	80.008	19.996	103.404	19.600	33.801	0.554
691.000	416.337	80.008	19.996	103.398	19.607	33.279	0.533
691.500	416.587	80.009	19.995	103.395	19.607	33.244	0.548
692.000	416.810	80.006	19.995	103.392	19.605	33.392	0.513
692.500	417.057	80.009	19.995	103.390	19.606	33.327	0.471
693.000	417.321	80.008	19.996	103.390	19.602	33.638	0.491
693.500	417.636	80.007	19.996	103.392	19.611	32.972	0.546
694.000	417.854	80.008	19.995	103.390	19.609	33.097	0.556
694.500	418.132	80.008	19.995	103.390	19.611	32.982	0.514
695.000	418.368	80.008	19.996	103.387	19.613	32.868	0.504
695.500	418.623	80.009	19.995	103.383	19.611	33.005	0.502
696.000	418.892	80.008	19.995	103.382	19.608	33.197	0.508
696.500	419.130	80.009	19.995	103.380	19.614	32.762	0.516
697.000	419.424	80.008	19.995	103.378	19.616	32.619	0.520
697.500	419.640	80.009	19.996	103.381	19.618	32.472	0.521
698.000	419.942	80.009	19.995	103.384	19.616	32.643	0.514
698.500	420.180	80.007	19.994	103.383	19.618	32.467	0.529
699.000	420.441	80.006	19.995	103.384	19.622	32.157	0.520
699.500	420.739	80.009	19.995	103.383	19.617	32.564	0.529
700.000	420.992	80.006	19.994	103.381	19.619	32.373	0.555
700.500	421.223	80.007	19.995	103.377	19.620	32.314	0.518
701.000	421.491	80.006	19.993	103.376	19.622	32.199	0.491
701.500	421.734	80.008	19.995	103.374	19.630	31.621	0.505
702.000	422.003	80.008	19.995	103.373	19.628	31.704	0.511
702.500	422.279	80.006	19.994	103.371	19.631	31.535	0.529
703.000	422.509	80.006	19.995	103.371	19.630	31.570	0.525
703.500	422.752	80.006	19.995	103.370	19.632	31.434	0.489
704.000	423.008	80.008	19.994	103.370	19.640	30.853	0.486
704.500	423.235	80.008	19.995	103.370	19.633	31.368	0.491
705.000	423.539	80.005	19.995	103.371	19.646	30.427	0.507
705.500	423.788	80.007	19.995	103.372	19.642	30.705	0.542
706.000	424.005	80.006	19.994	103.373	19.644	30.576	0.510
706.500	424.284	80.006	19.994	103.374	19.642	30.718	0.482
707.000	424.511	80.007	19.993	103.374	19.652	29.997	0.501
707.500	424.797	80.005	19.993	103.373	19.650	30.114	0.509
708.000	425.003	80.006	19.996	103.372	19.659	29.450	0.502
708.500	425.301	80.005	19.994	103.372	19.655	29.724	0.498
709.000	425.537	80.006	19.994	103.371	19.660	29.354	0.519
709.500	425.797	80.006	19.994	103.372	19.657	29.637	0.515
710.000	426.060	80.005	19.994	103.372	19.663	29.182	0.510
710.500	426.308	80.007	19.994	103.372	19.672	28.522	0.517
711.000	426.570	80.005	19.994	103.373	19.672	28.530	0.510
711.500	426.830	80.007	19.996	103.371	19.675	28.255	0.516
712.000	427.050	80.005	19.994	103.372	19.679	27.990	0.501
712.500	427.277	80.006	19.994	103.372	19.675	28.302	0.464
713.000	427.519	80.007	19.995	103.372	19.678	28.031	0.458
713.500	427.850	80.007	19.994	103.372	19.684	27.576	0.521
714.000	428.069	80.006	19.995	103.375	19.683	27.661	0.561
714.500	428.352	80.006	19.994	103.374	19.690	27.169	0.526
715.000	428.602	80.006	19.994	103.374	19.692	27.029	0.517
715.500	428.856	80.005	19.993	103.374	19.693	26.949	0.518
716.000	429.113	80.005	19.994	103.375	19.696	26.706	0.508
716.500	429.369	80.006	19.995	103.373	19.698	26.571	0.512
717.000	429.637	80.006	19.994	103.373	19.699	26.492	0.518
717.500	429.887	80.005	19.993	103.370	19.705	26.048	0.521
718.000	430.170	80.006	19.994	103.367	19.711	25.660	0.525
718.500	430.426	80.005	19.993	103.366	19.706	25.993	0.536
719.000	430.678	80.006	19.994	103.368	19.715	25.313	0.524
719.500	430.914	80.006	19.994	103.366	19.716	25.283	0.498
720.000	431.194	80.006	19.993	103.365	19.721	24.918	0.501
720.500	431.460	80.004	19.993	103.367	19.721	24.909	0.531
721.000	431.702	80.005	19.993	103.365	19.726	24.501	0.527
721.500	431.953	80.005	19.993	103.359	19.723	24.729	0.501
722.000	432.192	80.009	19.995	103.357	19.738	23.623	0.492
722.500	432.445	80.007	19.994	103.355	19.738	23.671	0.491
723.000	432.708	80.007	19.994	103.352	19.739	23.558	0.504
723.500	433.010	80.006	19.994	103.350	19.743	23.258	0.540
724.000	433.235	80.004	19.993	103.349	19.747	22.950	0.546
724.500	433.494	80.006	19.995	103.346	19.756	22.322	0.505
725.000	433.719	80.007	19.995	103.344	19.752	22.637	0.484
725.500	433.994	80.006	19.994	103.341	19.751	22.677	0.492
726.000	434.278	80.008	19.993	103.338	19.755	22.360	0.529
726.500	434.487	80.005	19.994	103.339	19.758	22.176	0.526
727.000	434.784	80.007	19.995	103.337	19.762	21.901	0.499
727.500	435.017	80.006	19.995	103.337	19.760	22.028	0.518
728.000	435.282	80.007	19.995	103.337	19.770	21.320	0.515
728.500	435.532	80.008	19.994	103.337	19.766	21.588	0.507
729.000	435.788	80.006	19.994	103.337	19.769	21.386	0.510
729.500	436.015	80.006	19.994	103.337	19.775	20.899	0.494
730.000	436.286	80.005	19.994	103.337	19.778	20.708	0.490
730.500	436.511	80.006	19.994	103.337	19.779	20.645	0.497
731.000	436.807	80.006	19.994	103.338	19.783	20.306	0.509
731.500	437.012	80.006	19.994	103.336	19.781	20.450	0.512
732.000	437.294	80.008	19.995	103.335	19.787	20.050	0.494
732.500	437.574	80.004	19.993	103.335	19.792	19.705	0.525
733.000	437.771	80.006	19.992	103.334	19.790	19.797	0.519
733.500	438.048	80.004	19.993	103.334	19.796	19.397	0.475
734.000	438.268	80.006	19.995	103.333	19.792	19.710	0.485
734.500	438.514	80.008	19.995	103.335	19.800	19.110	0.482
735.000	438.790	80.007	19.995	103.337	19.800	19.053	0.495
735.500	439.069	80.007	19.994	103.337	19.804	18.804	0.539
736.000	439.310	80.006	19.995	103.338	19.808	18.487	0.538
736.500	439.573	80.005	19.994	103.338	19.813	18.171	0.512
737.000	439.784	80.005	19.993	103.337	19.809	18.405	0.489
737.500	440.041	80.007	19.995	103.335	19.816	17.906	0.470
738.000	440.276	80.006	19.995	103.334	19.819	17.721	0.480
738.500	440.501	80.005	19.995	103.332	19.815	17.966	0.477
739.000	440.807	80.006	19.994	103.332	19.820	17.650	0.496
739.500	441.007	80.006	19.995	103.332	19.821	17.536	0.518
740.000	441.263	80.006	19.995	103.330	19.830	16.893	0.481
740.500	441.518	80.006	19.994	103.329	19.826	17.182	0.484
741.000	441.731	80.007	19.994	103.330	19.835	16.517	0.490
741.501	441.968	80.008	19.995	103.330	19.829	16.949	0.459
742.000	442.266	80.008	19.995	103.328	19.836	16.446	0.492
742.500	442.515	80.006	19.995	103.331	19.840	16.138	0.541
743.000	442.706	80.006	19.993	103.332	19.843	15.922	0.494
743.500	442.956	80.007	19.995	103.331	19.843	15.949	0.441
744.000	443.275	80.008	19.996	103.328	19.843	15.946	0.505
744.500	443.513	80.006	19.994	103.327	19.846	15.689	0.563
745.000	443.713	80.009	19.995	103.325	19.851	15.338	0.498
745.500	444.034	80.007	19.994	103.324	19.851	15.306	0.480
746.000	444.221	80.007	19.994	103.323	19.856	14.963	0.515
746.500	444.464	80.008	19.994	103.325	19.853	15.210	0.469
747.000	444.735	80.006	19.993	103.328	19.857	14.935	0.472
747.500	444.931	80.007	19.995	103.330	19.865	14.332	0.490
748.000	445.144	80.007	19.996	103.330	19.864	14.376	0.438
748.500	445.515	80.007	19.994	103.328	19.873	13.698	0.496
749.000	445.713	80.008	19.995	103.321	19.866	14.260	0.576
749.500	445.964	80.007	19.993	103.313	19.878	13.350	0.509
750.000	446.222	80.007	19.994	103.304	19.873	13.746	0.479
750.500	446.459	80.008	19.994	103.297	19.881	13.112	0.502
751.000	446.700	80.008	19.994	103.294	19.877	13.408	0.487
751.500	446.967	80.007	19.996	103.296	19.883	12.956	0.493
752.000	447.191	80.008	19.994	103.299	19.881	13.134	0.499
752.500	447.406	80.007	19.993	103.299	19.882	13.090	0.465
753.000	447.631	80.007	19.994	103.298	19.884	12.922	0.440
753.500	447.903	80.006	19.993	103.299	19.888	12.602	0.469
754.000	448.127	80.006	19.995	103.300	19.887	12.708	0.497
754.500	448.362	80.006	19.995	103.296	19.889	12.585	0.478
755.000	448.612	80.008	19.995	103.297	19.896	12.047	0.472
755.500	448.829	80.008	19.994	103.298	19.897	11.932	0.476
756.000	449.102	80.006	19.994	103.298	19.900	11.746	0.479
756.500	449.354	80.008	19.995	103.296	19.896	12.033	0.508
757.000	449.553	80.008	19.995	103.296	19.897	11.946	0.488
757.500	449.799	80.008	19.995	103.300	19.899	11.817	0.448
758.000	450.030	80.006	19.994	103.301	19.906	11.294	0.461
758.500	450.310	80.007	19.995	103.300	19.907	11.242	0.494
759.000	450.486	80.008	19.995	103.299	19.911	10.957	0.484
759.500	450.754	80.010	19.996	103.299	19.913	10.768	0.450
760.000	450.996	80.006	19.994	103.294	19.910	11.006	0.477
760.500	451.246	80.007	19.994	103.292	19.918	10.392	0.501
761.000	451.488	80.008	19.995	103.291	19.917	10.461	0.492
761.500	451.732	80.007	19.995	103.291	19.922	10.100	0.489
762.000	451.996	80.006	19.994	103.289	19.927	9.726	0.497
762.500	452.204	80.007	19.996	103.289	19.925	9.871	0.491
763.000	452.446	80.008	19.993	103.289	19.924	9.954	0.461
763.500	452.684	80.007	19.996	103.290	19.923	10.085	0.465
764.000	452.911	80.007	19.996	103.290	19.930	9.553	0.472
764.500	453.174	80.008	19.995	103.291	19.930	9.541	0.477
765.000	453.386	80.007	19.995	103.291	19.935	9.147	0.483
765.500	453.668	80.009	19.996	103.291	19.938	8.939	0.485
766.000	453.879	80.006	19.994	103.292	19.934	9.217	0.493
766.500	454.119	80.007	19.994	103.292	19.939	8.909	0.472
767.000	454.362	80.008	19.993	103.292	19.941	8.743	0.467
767.500	454.575	80.005	19.994	103.291	19.940	8.791	0.469
768.000	454.813	80.007	19.995	103.290	19.948	8.224	0.453
768.500	455.050	80.006	19.994	103.291	19.946	8.381	0.463
769.000	455.310	80.006	19.995	103.290	19.945	8.419	0.487
769.500	455.525	80.008	19.996	103.290	19.944	8.473	0.486
770.000	455.769	80.010	19.996	103.292	19.948	8.205	0.466
770.500	456.023	80.007	19.994	103.292	19.957	7.530	0.478
771.000	456.264	80.009	19.995	103.290	19.959	7.403	0.497
771.500	456.510	80.007	19.993	103.283	19.962	7.177	0.491
772.000	456.714	80.009	19.994	103.275	19.959	7.411	0.468
772.500	456.994	80.008	19.994	103.268	19.961	7.293	0.467
773.000	457.184	80.008	19.994	103.260	19.960	7.356	0.477
773.500	457.441	80.008	19.994	103.258	19.963	7.148	0.458
774.000	457.714	80.008	19.994	103.263	19.962	7.161	0.488
774.500	457.908	80.009	19.995	103.266	19.967	6.848	0.499
775.000	458.186	80.007	19.994	103.266	19.970	6.572	0.469
775.500	458.404	80.009	19.996	103.266	19.971	6.531	0.484
776.000	458.642	80.009	19.995	103.263	19.965	7.001	0.476
776.500	458.873	80.010	19.993	103.261	19.974	6.312	0.463
777.000	459.111	80.009	19.995	103.261	19.968	6.762	0.469
777.500	459.363	80.011	19.994	103.267	19.969	6.697	0.479
778.000	459.631	80.008	19.996	103.274	19.978	6.045	0.505
778.500	459.843	80.010	19.994	103.274	19.979	5.930	0.500
779.000	460.085	80.006	19.994	103.273	19.983	5.676	0.466
779.500	460.338	80.007	19.995	103.272	19.983	5.612	0.474
780.000	460.551	80.008	19.994	103.270	19.984	5.563	0.481
780.500	460.792	80.008	19.995	103.264	19.986	5.430	0.460
781.000	461.016	80.007	19.995	103.267	19.983	5.614	0.459
781.500	461.245	80.007	19.994	103.271	19.987	5.390	0.459
782.000	461.487	80.007	19.996	103.271	19.978	5.979	0.462
782.500	461.730	80.008	19.995	103.267	19.988	5.269	0.478
783.000	462.009	80.006	19.996	103.266	19.990	5.118	0.504
783.500	462.237	80.005	19.996	103.262	19.987	5.366	0.514
784.000	462.473	80.004	19.995	103.262	19.994	4.805	0.485
784.500	462.713	80.005	19.996	103.267	19.991	5.078	0.470
785.000	462.937	80.005	19.995	103.268	19.996	4.692	0.470
785.500	463.213	80.006	19.997	103.268	19.993	4.944	0.481
786.000	463.421	80.004	19.996	103.269	19.995	4.753	0.492
786.500	463.678	80.006	19.996	103.267	19.997	4.610	0.475
787.000	463.946	80.005	19.996	103.269	20.004	4.109	0.495
787.500	464.179	80.005	19.995	103.270	19.995	4.732	0.513
788.000	464.431	80.005	19.995	103.273	19.996	4.668	0.493
788.500	464.664	80.006	19.995	103.274	19.992	5.001	0.485
789.000	464.886	80.004	19.996	103.271	19.999	4.462	0.469
789.501	465.141	80.005	19.995	103.265	20.002	4.252	0.466
790.000	465.396	80.005	19.995	103.267	20.000	4.414	0.494
790.500	465.630	80.006	19.997	103.268	20.001	4.321	0.500
791.000	465.916	80.006	19.995	103.272	20.002	4.232	0.505
791.500	466.146	80.004	19.994	103.271	19.999	4.502	0.518
792.000	466.419	80.007	19.996	103.276	20.006	3.927	0.509
792.500	466.662	80.004	19.994	103.278	20.006	3.933	0.510
793.000	466.938	80.007	19.995	103.278	20.007	3.901	0.518
793.500	467.187	80.005	19.995	103.281	20.005	4.066	0.522
794.000	467.451	80.004	19.996	103.283	20.004	4.118	0.519
794.500	467.693	80.006	19.997	103.279	20.009	3.773	0.510
795.000	467.940	80.006	19.993	103.279	20.004	4.112	0.497
795.500	468.177	80.007	19.995	103.280	20.011	3.612	0.486
796.000	468.441	80.005	19.995	103.275	20.010	3.679	0.493
796.500	468.688	80.006	19.995	103.279	20.013	3.453	0.506
797.000	468.968	80.005	19.995	103.283	20.012	3.487	0.519
797.500	469.196	80.006	19.995	103.280	20.010	3.658	0.517
798.000	469.478	80.006	19.995	103.275	20.012	3.519	0.509
798.500	469.747	80.007	19.994	103.274	20.015	3.319	0.530
799.000	470.022	80.006	19.994	103.274	20.011	3.626	0.547
799.500	470.272	80.006	19.994	103.273	20.016	3.245	0.535
800.000	470.564	80.006	19.995	103.271	20.012	3.535	0.534
800.500	470.816	80.007	19.995	103.271	20.020	2.944	0.543
801.000	471.063	80.008	19.997	103.272	20.018	3.072	0.521
801.500	471.337	80.006	19.994	103.268	20.018	3.090	0.510
802.000	471.607	80.007	19.994	103.265	20.022	2.757	0.533
802.500	471.863	80.006	19.993	103.264	20.019	3.001	0.535
803.000	472.110	80.006	19.994	103.263	20.018	3.108	0.515
803.500	472.392	80.007	19.995	103.261	20.019	2.979	0.516
804.000	472.643	80.006	19.994	103.258	20.020	2.935	0.531
804.500	472.915	80.007	19.994	103.255	20.022	2.775	0.528
805.000	473.183	80.006	19.995	103.250	20.018	3.084	0.531
805.500	473.460	80.004	19.993	103.250	20.017	3.122	0.542
806.000	473.721	80.007	19.994	103.249	20.019	3.001	0.542
806.500	473.982	80.009	19.996	103.248	20.016	3.219	0.530
807.000	474.282	80.008	19.995	103.250	20.020	2.935	0.541
807.500	474.561	80.005	19.994	103.254	20.021	2.854	0.569
808.000	474.842	80.006	19.993	103.252	20.020	2.896	0.569
808.500	475.133	80.006	19.995	103.252	20.024	2.624	0.566
809.000	475.384	80.006	19.994	103.250	20.018	3.069	0.557
809.500	475.646	80.008	19.996	103.247	20.025	2.595	0.528
810.000	475.870	80.007	19.994	103.247	20.024	2.609	0.499
810.500	476.175	80.006	19.994	103.249	20.026	2.520	0.507
811.000	476.445	80.006	19.994	103.250	20.025	2.537	0.552
811.500	476.700	80.006	19.995	103.252	20.026	2.488	0.550
812.000	476.946	80.006	19.995	103.254	20.024	2.622	0.513
812.500	477.236	80.005	19.995	103.254	20.028	2.343	0.519
813.000	477.487	80.006	19.994	103.254	20.028	2.378	0.538
813.500	477.751	80.008	19.995	103.254	20.027	2.446	0.528
814.000	478.029	80.007	19.993	103.256	20.032	2.025	0.529
814.500	478.319	80.007	19.995	103.257	20.032	2.015	0.555
815.000	478.566	80.005	19.994	103.257	20.031	2.097	0.553
815.500	478.833	80.005	19.995	103.258	20.035	1.865	0.526
816.000	479.116	80.007	19.996	103.260	20.026	2.501	0.531
816.500	479.403	80.006	19.996	103.259	20.032	2.017	0.560
817.000	479.656	80.005	19.995	103.259	20.036	1.732	0.555
817.500	479.893	80.004	19.994	103.259	20.029	2.283	0.515
818.000	480.184	80.007	19.994	103.258	20.030	2.194	0.509
818.500	480.486	80.005	19.994	103.255	20.040	1.470	0.560
819.000	480.727	80.009	19.994	103.255	20.032	2.081	0.568
819.500	480.986	80.006	19.995	103.251	20.029	2.277	0.521
820.000	481.268	80.007	19.995	103.244	20.032	2.051	0.521
820.500	481.495	80.005	19.995	103.237	20.032	2.047	0.525
821.000	481.800	80.007	19.994	103.233	20.037	1.651	0.520
821.500	482.049	80.005	19.994	103.228	20.039	1.563	0.543
822.000	482.315	80.005	19.994	103.230	20.038	1.581	0.535
822.500	482.620	80.006	19.995	103.237	20.038	1.579	0.544
823.000	482.894	80.005	19.995	103.244	20.030	2.208	0.575
823.500	483.149	80.005	19.995	103.248	20.037	1.716	0.554
824.000	483.432	80.006	19.994	103.252	20.035	1.809	0.533
824.500	483.660	80.006	19.995	103.255	20.035	1.837	0.525
825.000	483.942	80.006	19.994	103.254	20.037	1.692	0.510
825.500	484.219	80.005	19.994	103.250	20.038	1.619	0.534
826.000	484.483	80.008	19.995	103.246	20.036	1.722	0.550
826.500	484.756	80.008	19.995	103.246	20.038	1.634	0.539
827.000	485.013	80.008	19.994	103.246	20.034	1.940	0.534
827.500	485.277	80.007	19.994	103.245	20.030	2.214	0.525
828.000	485.592	80.009	19.995	103.249	20.037	1.656	0.550
828.500	485.809	80.009	19.994	103.252	20.040	1.488	0.556
829.000	486.101	80.008	19.994	103.253	20.044	1.190	0.520
829.500	486.381	80.008	19.994	103.254	20.038	1.589	0.540
830.000	486.659	80.008	19.994	103.252	20.037	1.704	0.566
830.500	486.910	80.009	19.995	103.249	20.040	1.464	0.544
831.000	487.194	80.008	19.994	103.243	20.043	1.224	0.532
831.500	487.442	80.008	19.994	103.237	20.042	1.327	0.533
832.000	487.707	80.006	19.994	103.233	20.036	1.769	0.522
832.500	487.978	80.009	19.996	103.234	20.036	1.738	0.525
833.000	488.245	80.008	19.994	103.238	20.041	1.402	0.537
833.500	488.489	80.006	19.993	103.243	20.039	1.510	0.525
834.000	488.831	80.008	19.993	103.247	20.039	1.514	0.549
834.500	489.074	80.010	19.994	103.250	20.043	1.264	0.586
835.000	489.371	80.007	19.994	103.250	20.044	1.163	0.563
835.500	489.646	80.009	19.994	103.248	20.040	1.438	0.556
836.000	489.919	80.008	19.994	103.250	20.043	1.220	0.560
836.500	490.165	80.008	19.994	103.250	20.045	1.107	0.534
837.000	490.398	80.007	19.994	103.251	20.046	0.998	0.499
837.500	490.701	80.007	19.994	103.249	20.045	1.121	0.508
838.000	490.951	80.007	19.995	103.249	20.041	1.388	0.544
838.500	491.215	80.008	19.995	103.247	20.045	1.109	0.533
839.000	491.465	80.007	19.994	103.245	20.045	1.129	0.514
839.500	491.759	80.008	19.994	103.245	20.044	1.139	0.529
840.000	492.000	80.007	19.995	103.247	20.048	0.847	0.539
840.500	492.276	80.007	19.995	103.244	20.046	1.018	0.525
841.000	492.566	80.006	19.994	103.243	20.045	1.087	0.541
841.500	492.818	80.005	19.994	103.244	20.049	0.782	0.554
842.000	493.126	80.006	19.994	103.244	20.048	0.911	0.551
842.500	493.386	80.005	19.995	103.247	20.050	0.762	0.564
843.000	493.649	80.006	19.995	103.249	20.044	1.163	0.546
843.500	493.922	80.007	19.995	103.251	20.047	0.919	0.530
844.000	494.182	80.006	19.993	103.250	20.049	0.794	0.535
844.500	494.513	80.006	19.994	103.245	20.051	0.631	0.562
845.000	494.734	80.007	19.994	103.238	20.050	0.714	0.572
845.500	494.999	80.005	19.994	103.233	20.049	0.823	0.519
846.000	495.296	80.007	19.994	103.229	20.041	1.409	0.524
846.500	495.545	80.004	19.995	103.228	20.051	0.665	0.554
847.000	495.803	80.007	19.995	103.231	20.055	0.375	0.526
847.500	496.104	80.005	19.995	103.237	20.050	0.762	0.533
848.000	496.366	80.006	19.993	103.242	20.053	0.514	0.561
848.500	496.609	80.008	19.996	103.247	20.049	0.833	0.534
849.000	496.906	80.007	19.994	103.250	20.046	0.994	0.523
849.500	497.162	80.007	19.995	103.250	20.049	0.806	0.546
850.000	497.434	80.007	19.996	103.245	20.052	0.607	0.540
850.500	497.704	80.006	19.995	103.240	20.053	0.526	0.535
851.000	497.954	80.006	19.994	103.234	20.056	0.264	0.531
851.500	498.236	80.006	19.994	103.231	20.052	0.603	0.526
852.000	498.489	80.009	19.995	103.226	20.048	0.879	0.534
852.500	498.773	80.006	19.994	103.223	20.053	0.532	0.536
853.000	499.033	80.007	19.995	103.224	20.050	0.734	0.540
853.500	499.290	80.008	19.992	103.225	20.051	0.647	0.530
854.000	499.578	80.008	19.996	103.221	20.051	0.635	0.531
854.500	499.862	80.008	19.995	103.226	20.054	0.458	0.558
855.000	500.119	80.008	19.995	103.226	20.046	1.000	0.557
855.500	500.374	80.007	19.994	103.223	20.053	0.540	0.526
856.000	500.629	80.007	19.996	103.222	20.051	0.639	0.511
856.500	500.921	80.008	19.995	103.222	20.059	0.071	0.529
857.000	501.174	80.006	19.994	103.217	20.052	0.603	0.547
857.500	501.457	80.007	19.993	103.217	20.056	0.280	0.541
858.000	501.688	80.007	19.994	103.218	20.050	0.722	0.525
858.500	501.998	80.008	19.995	103.219	20.052	0.571	0.527
859.000	502.203	80.007	19.994	103.218	20.055	0.365	0.528
859.500	502.477	80.008	19.994	103.218	20.055	0.353	0.497
860.000	502.704	80.006	19.993	103.219	20.051	0.643	0.490
860.500	503.006	80.008	19.995	103.220	20.057	0.187	0.515
861.000	503.239	80.007	19.994	103.220	20.056	0.282	0.532
861.500	503.508	80.007	19.994	103.221	20.056	0.260	0.519
862.000	503.789	80.007	19.994	103.222	20.058	0.139	0.526
862.500	504.039	80.006	19.993	103.222	20.057	0.242	0.540
863.000	504.291	80.006	19.994	103.221	20.049	0.813	0.516
863.500	504.538	80.006	19.994	103.223	20.059	0.101	0.500
864.000	504.817	80.007	19.995	103.222	20.054	0.403	0.512
864.500	505.091	80.005	19.996	103.222	20.056	0.274	0.539
865.000	505.358	80.005	19.995	103.223	20.059	0.089	0.547
865.500	505.613	80.005	19.995	103.227	20.061	-0.042	0.532
866.000	505.869	80.005	19.995	103.227	20.059	0.079	0.517
866.500	506.078	80.006	19.995	103.234	20.059	0.034	0.488
867.000	506.383	80.005	19.995	103.235	20.059	0.073	0.489
867.500	506.659	80.006	19.994	103.237	20.055	0.361	0.547
868.000	506.916	80.006	19.995	103.234	20.055	0.361	0.557
868.500	507.151	80.007	19.996	103.234	20.059	0.101	0.513
869.000	507.418	80.006	19.994	103.228	20.056	0.282	0.497
869.500	507.701	80.005	19.996	103.226	20.057	0.206	0.526
870.000	507.961	80.005	19.994	103.222	20.058	0.161	0.546
870.500	508.253	80.006	19.995	103.219	20.060	0.000	0.547
871.000	508.487	80.006	19.996	103.217	20.059	0.075	0.539
871.500	508.742	80.007	19.995	103.217	20.058	0.125	0.508
872.000	509.014	80.007	19.995	103.221	20.060	0.030	0.508
872.500	509.300	80.005	19.995	103.221	20.058	0.159	0.543
873.000	509.527	80.006	19.996	103.221	20.060	0.008	0.535
873.500	509.772	80.006	19.996	103.221	20.060	-0.008	0.493
874.000	510.035	80.005	19.995	103.223	20.061	-0.103	0.490
874.500	510.319	80.007	19.994	103.220	20.060	0.016	0.527
875.000	510.565	80.006	19.995	103.221	20.063	-0.210	0.539
875.501	510.861	80.006	19.996	103.223	20.063	-0.210	0.536
876.000	511.095	80.005	19.995	103.225	20.061	-0.101	0.536
876.500	511.328	80.005	19.996	103.223	20.065	-0.335	0.499
877.000	511.602	80.006	19.995	103.222	20.062	-0.181	0.487
877.500	511.865	80.005	19.995	103.221	20.062	-0.131	0.522
878.000	512.122	80.006	19.996	103.218	20.062	-0.119	0.529
878.500	512.366	80.005	19.996	103.216	20.063	-0.216	0.511
879.000	512.655	80.006	19.995	103.216	20.062	-0.145	0.517
879.500	512.920	80.005	19.997	103.216	20.063	-0.226	0.544
880.000	513.138	80.005	19.997	103.217	20.064	-0.302	0.518
880.500	513.472	80.005	19.996	103.220	20.060	0.018	0.517
881.000	513.691	80.004	19.996	103.221	20.062	-0.135	0.553
881.500	513.937	80.004	19.996	103.224	20.059	0.075	0.509
882.000	514.227	80.005	19.996	103.227	20.062	-0.188	0.500
882.500	514.509	80.007	19.996	103.231	20.064	-0.274	0.554
883.000	514.749	80.004	19.994	103.232	20.065	-0.337	0.547
883.500	515.016	80.005	19.996	103.233	20.064	-0.329	0.515
884.000	515.273	80.006	19.996	103.231	20.065	-0.343	0.516
884.500	515.563	80.005	19.995	103.229	20.060	0.004	0.536
885.000	515.778	80.004	19.996	103.226	20.062	-0.139	0.526
885.500	516.051	80.005	19.995	103.224	20.068	-0.567	0.497
886.000	516.331	80.006	19.996	103.228	20.067	-0.486	0.521
886.500	516.571	80.006	19.995	103.230	20.065	-0.361	0.536
887.001	516.862	80.006	19.995	103.229	20.063	-0.238	0.526
887.501	517.152	80.006	19.995	103.227	20.065	-0.371	0.556
888.000	517.372	80.005	19.995	103.224	20.064	-0.333	0.545
888.500	517.638	80.006	19.995	103.222	20.064	-0.290	0.498
889.000	517.905	80.005	19.995	103.222	20.071	-0.823	0.509
889.500	518.146	80.007	19.996	103.224	20.069	-0.647	0.520
890.000	518.442	80.006	19.995	103.225	20.063	-0.190	0.522
890.500	518.680	80.006	19.994	103.226	20.067	-0.486	0.536
891.000	518.976	80.005	19.995	103.224	20.067	-0.488	0.535
891.501	519.211	80.006	19.994	103.220	20.068	-0.577	0.532
892.001	519.467	80.006	19.995	103.220	20.066	-0.444	0.511
892.500	519.751	80.006	19.994	103.220	20.071	-0.804	0.516
893.000	519.993	80.004	19.994	103.219	20.067	-0.488	0.533
893.500	520.263	80.008	19.995	103.219	20.065	-0.383	0.518
894.000	520.518	80.006	19.995	103.219	20.070	-0.770	0.519
894.500	520.777	80.005	19.993	103.216	20.071	-0.817	0.520
895.000	521.028	80.004	19.994	103.218	20.068	-0.615	0.512
895.500	521.299	80.007	19.994	103.219	20.067	-0.516	0.516
896.000	521.532	80.007	19.995	103.220	20.066	-0.474	0.513
896.500	521.780	80.006	19.995	103.220	20.069	-0.661	0.492
897.000	522.059	80.005	19.994	103.220	20.068	-0.557	0.504
897.500	522.328	80.004	19.994	103.219	20.070	-0.714	0.538
898.000	522.553	80.005	19.995	103.220	20.071	-0.839	0.521
898.500	522.823	80.006	19.994	103.223	20.074	-0.998	0.495
899.000	523.091	80.006	19.995	103.228	20.070	-0.744	0.517
899.500	523.379	80.005	19.994	103.230	20.071	-0.778	0.547
900.000	523.622	80.005	19.994	103.232	20.068	-0.579	0.543
900.500	523.878	80.005	19.995	103.230	20.069	-0.659	0.515
901.000	524.130	80.005	19.994	103.227	20.067	-0.520	0.503
901.500	524.378	80.007	19.995	103.220	20.067	-0.496	0.504
902.000	524.649	80.005	19.996	103.219	20.068	-0.571	0.510
902.500	524.896	80.005	19.994	103.217	20.070	-0.734	0.518
903.000	525.157	80.004	19.994	103.219	20.068	-0.627	0.513
903.500	525.440	80.004	19.995	103.223	20.068	-0.597	0.526
904.000	525.669	80.005	19.995	103.227	20.069	-0.675	0.528
904.500	525.942	80.005	19.994	103.227	20.069	-0.655	0.507
905.000	526.227	80.005	19.995	103.229	20.069	-0.629	0.530
905.500	526.479	80.005	19.994	103.233	20.071	-0.843	0.547
906.000	526.740	80.006	19.995	103.235	20.071	-0.786	0.525
906.500	527.009	80.005	19.995	103.238	20.072	-0.855	0.521
907.000	527.256	80.004	19.994	103.239	20.071	-0.788	0.523
907.500	527.507	80.005	19.994	103.238	20.069	-0.681	0.508
908.000	527.766	80.007	19.995	103.232	20.077	-1.234	0.504
908.500	528.016	80.007	19.995	103.228	20.068	-0.593	0.509
909.000	528.289	80.006	19.995	103.225	20.072	-0.887	0.516
909.500	528.546	80.006	19.995	103.223	20.072	-0.909	0.527
910.000	528.817	80.007	19.996	103.223	20.067	-0.540	0.529
910.500	529.040	80.009	19.995	103.224	20.070	-0.734	0.511
911.000	529.305	80.005	19.995	103.224	20.072	-0.875	0.491
911.500	529.573	80.006	19.995	103.222	20.072	-0.919	0.511
912.000	529.838	80.007	19.995	103.222	20.071	-0.784	0.533
912.500	530.075	80.007	19.994	103.221	20.071	-0.827	0.517
913.000	530.351	80.007	19.995	103.220	20.074	-1.018	0.508
913.500	530.610	80.006	19.994	103.218	20.075	-1.129	0.524
914.000	530.884	80.007	19.994	103.218	20.074	-1.054	0.534
914.500	531.135	80.007	19.995	103.218	20.074	-1.048	0.529
915.000	531.358	80.007	19.994	103.220	20.073	-0.974	0.500
915.500	531.642	80.008	19.995	103.220	20.073	-0.946	0.490
916.000	531.902	80.008	19.994	103.221	20.075	-1.121	0.525
916.500	532.153	80.007	19.995	103.222	20.074	-1.046	0.528
917.000	532.355	80.006	19.995	103.223	20.074	-1.022	0.482
917.500	532.687	80.005	19.995	103.225	20.078	-1.313	0.494
918.000	532.926	80.007	19.995	103.225	20.074	-1.065	0.552
918.500	533.171	80.005	19.995	103.224	20.074	-1.056	0.527
919.000	533.442	80.007	19.994	103.222	20.076	-1.161	0.500
919.500	533.683	80.006	19.994	103.222	20.075	-1.115	0.514
920.000	533.955	80.006	19.996	103.218	20.073	-0.976	0.512
920.500	534.220	80.008	19.996	103.218	20.077	-1.282	0.525
921.000	534.450	80.008	19.994	103.218	20.077	-1.218	0.516
921.500	534.736	80.007	19.994	103.220	20.075	-1.127	0.506
922.000	535.038	80.008	19.995	103.220	20.077	-1.236	0.552
922.500	535.239	80.007	19.994	103.221	20.078	-1.333	0.545
923.000	535.545	80.006	19.994	103.222	20.073	-0.950	0.505
923.500	535.778	80.007	19.995	103.222	20.076	-1.153	0.524
924.000	536.023	80.007	19.993	103.221	20.073	-0.934	0.509
924.500	536.328	80.007	19.994	103.221	20.077	-1.282	0.514
925.000	536.605	80.007	19.993	103.221	20.072	-0.911	0.566
925.500	536.806	80.007	19.995	103.222	20.074	-0.998	0.530
926.000	537.075	80.007	19.993	103.224	20.077	-1.266	0.474
926.500	537.359	80.007	19.995	103.224	20.073	-0.980	0.511
927.000	537.625	80.007	19.994	103.225	20.080	-1.478	0.551
927.500	537.868	80.005	19.993	103.225	20.069	-0.694	0.530
928.000	538.163	80.006	19.993	103.223	20.071	-0.827	0.524
928.500	538.396	80.007	19.994	103.222	20.073	-0.937	0.533
929.000	538.593	80.006	19.994	103.222	20.074	-1.040	0.479
929.500	538.887	80.006	19.994	103.223	20.075	-1.135	0.460
930.000	539.124	80.007	19.994	103.222	20.070	-0.734	0.511
930.500	539.392	80.007	19.994	103.222	20.076	-1.208	0.518
931.000	539.657	80.005	19.994	103.222	20.076	-1.157	0.519
931.500	539.909	80.007	19.995	103.225	20.077	-1.226	0.525
932.000	540.196	80.007	19.993	103.227	20.074	-1.058	0.528
932.500	540.411	80.009	19.994	103.231	20.076	-1.163	0.521
933.000	540.721	80.008	19.993	103.237	20.075	-1.101	0.514
933.500	540.925	80.009	19.995	103.236	20.074	-1.036	0.519
934.000	541.235	80.007	19.993	103.232	20.075	-1.117	0.514
934.500	541.511	80.008	19.994	103.228	20.075	-1.133	0.550
935.000	541.747	80.007	19.995	103.223	20.074	-1.008	0.549
935.500	542.003	80.008	19.994	103.216	20.077	-1.278	0.502
936.000	542.265	80.009	19.994	103.216	20.077	-1.264	0.505
936.500	542.510	80.009	19.995	103.215	20.077	-1.252	0.512
937.000	542.750	80.008	19.994	103.216	20.077	-1.252	0.496
937.500	543.024	80.009	19.995	103.217	20.077	-1.226	0.500
938.000	543.270	80.008	19.994	103.217	20.077	-1.228	0.517
938.500	543.547	80.009	19.994	103.216	20.079	-1.409	0.521
939.000	543.792	80.009	19.994	103.216	20.080	-1.468	0.523
939.500	544.063	80.010	19.995	103.216	20.074	-1.032	0.519
940.000	544.305	80.007	19.994	103.216	20.080	-1.450	0.514
940.500	544.553	80.010	19.994	103.215	20.078	-1.300	0.501
941.000	544.784	80.008	19.996	103.215	20.074	-1.020	0.485
941.500	545.030	80.010	19.995	103.215	20.078	-1.319	0.478
942.000	545.275	80.009	19.995	103.215	20.077	-1.244	0.484
942.500	545.536	80.007	19.994	103.214	20.081	-1.514	0.499
943.000	545.806	80.008	19.995	103.214	20.081	-1.573	0.518
943.500	546.080	80.007	19.995	103.214	20.079	-1.411	0.537
944.000	546.355	80.008	19.995	103.215	20.077	-1.282	0.546
944.500	546.594	80.006	19.994	103.215	20.077	-1.286	0.532
945.000	546.863	80.007	19.995	103.217	20.075	-1.089	0.511
945.500	547.152	80.006	19.995	103.218	20.076	-1.175	0.533
946.000	547.405	80.005	19.995	103.218	20.075	-1.137	0.550
946.500	547.673	80.005	19.995	103.220	20.076	-1.147	0.531
947.000	547.928	80.005	19.994	103.220	20.074	-1.046	0.521
947.500	548.208	80.006	19.994	103.222	20.077	-1.234	0.529
948.000	548.393	80.006	19.995	103.223	20.076	-1.161	0.500
948.500	548.720	80.005	19.995	103.223	20.071	-0.835	0.488
949.000	548.976	80.005	19.995	103.222	20.077	-1.220	0.548
949.500	549.224	80.005	19.996	103.222	20.076	-1.151	0.544
950.000	549.473	80.006	19.995	103.219	20.076	-1.153	0.500
950.500	549.728	80.005	19.994	103.217	20.079	-1.411	0.501
951.000	549.986	80.005	19.995	103.217	20.078	-1.353	0.508
951.500	550.250	80.006	19.996	103.217	20.078	-1.329	0.517
952.000	550.520	80.007	19.994	103.216	20.077	-1.268	0.528
952.501	550.764	80.005	19.994	103.217	20.075	-1.103	0.525
953.001	551.077	80.005	19.995	103.216	20.077	-1.264	0.536
953.501	551.349	80.006	19.995	103.216	20.078	-1.298	0.571
954.000	551.561	80.006	19.995	103.217	20.083	-1.691	0.535
954.500	551.827	80.007	19.994	103.217	20.079	-1.365	0.481
955.000	552.105	80.005	19.995	103.216	20.080	-1.500	0.511
955.500	552.361	80.006	19.995	103.216	20.081	-1.516	0.538
956.000	552.640	80.005	19.997	103.216	20.078	-1.339	0.534
956.500	552.876	80.004	19.994	103.216	20.082	-1.607	0.525
957.000	553.140	80.005	19.996	103.216	20.078	-1.359	0.508
957.500	553.376	80.007	19.996	103.216	20.078	-1.325	0.501
958.000	553.655	80.006	19.995	103.217	20.082	-1.639	0.507
958.500	553.923	80.006	19.994	103.219	20.080	-1.435	0.530
959.000	554.200	80.006	19.995	103.218	20.082	-1.609	0.546
959.500	554.408	80.008	19.995	103.218	20.084	-1.798	0.515
960.000	554.702	80.007	19.994	103.217	20.078	-1.331	0.494
960.500	554.960	80.005	19.995	103.217	20.082	-1.639	0.527
961.000	555.234	80.006	19.994	103.218	20.083	-1.728	0.542
961.500	555.501	80.005	19.995	103.219	20.083	-1.714	0.536
962.000	555.719	80.007	19.994	103.221	20.084	-1.734	0.513
962.500	556.017	80.005	19.995	103.221	20.084	-1.766	0.500
963.000	556.284	80.006	19.996	103.221	20.084	-1.780	0.541
963.500	556.510	80.006	19.994	103.218	20.086	-1.905	0.529
964.000	556.764	80.006	19.995	103.218	20.088	-2.079	0.486
964.500	557.053	80.005	19.995	103.215	20.082	-1.639	0.511
965.000	557.284	80.006	19.995	103.215	20.082	-1.617	0.532
965.500	557.592	80.006	19.996	103.215	20.085	-1.855	0.530
966.000	557.852	80.006	19.995	103.215	20.080	-1.506	0.553
966.500	558.090	80.004	19.995	103.215	20.083	-1.718	0.532
967.000	558.362	80.004	19.994	103.215	20.082	-1.603	0.504
967.500	558.618	80.005	19.995	103.215	20.084	-1.734	0.519
968.000	558.893	80.006	19.997	103.216	20.082	-1.641	0.530
968.500	559.184	80.004	19.996	103.216	20.083	-1.657	0.549
969.000	559.431	80.005	19.996	103.215	20.082	-1.589	0.552
969.500	559.709	80.006	19.996	103.217	20.084	-1.774	0.531
970.000	559.965	80.005	19.995	103.222	20.083	-1.669	0.530
970.500	560.255	80.005	19.995	103.222	20.083	-1.690	0.540
971.000	560.465	80.005	19.995	103.222	20.084	-1.788	0.523
971.500	560.737	80.004	19.995	103.223	20.079	-1.417	0.491
972.000	561.002	80.004	19.996	103.221	20.083	-1.706	0.509
972.500	561.265	80.005	19.994	103.217	20.082	-1.595	0.532
973.000	561.568	80.004	19.996	103.217	20.081	-1.558	0.547
973.500	561.819	80.005	19.995	103.217	20.083	-1.714	0.561
974.000	562.077	80.004	19.996	103.217	20.082	-1.597	0.531
974.500	562.332	80.005	19.996	103.217	20.083	-1.696	0.511
975.000	562.595	80.004	19.995	103.217	20.082	-1.649	0.515
975.500	562.850	80.005	19.996	103.217	20.081	-1.565	0.518
976.000	563.126	80.004	19.996	103.216	20.082	-1.603	0.525
976.500	563.385	80.005	19.995	103.217	20.080	-1.508	0.534
977.000	563.620	80.003	19.996	103.216	20.080	-1.502	0.514
977.500	563.877	80.005	19.996	103.216	20.082	-1.617	0.493
978.000	564.146	80.004	19.996	103.217	20.083	-1.720	0.509
978.500	564.393	80.005	19.995	103.218	20.083	-1.657	0.521
979.000	564.650	80.004	19.995	103.219	20.088	-2.040	0.510
979.500	564.924	80.005	19.995	103.220	20.083	-1.714	0.517
980.000	565.164	80.004	19.995	103.220	20.086	-1.895	0.522
980.500	565.452	80.004	19.995	103.219	20.083	-1.690	0.521
981.000	565.679	80.005	19.995	103.220	20.084	-1.794	0.521
981.500	565.940	80.005	19.995	103.218	20.086	-1.875	0.502
982.000	566.199	80.004	19.995	103.218	20.082	-1.613	0.504
982.500	566.488	80.004	19.995	103.218	20.083	-1.667	0.534
983.000	566.716	80.004	19.994	103.218	20.083	-1.720	0.532
983.500	566.980	80.004	19.994	103.217	20.082	-1.611	0.504
984.000	567.272	80.004	19.994	103.217	20.082	-1.651	0.524
984.500	567.502	80.006	19.994	103.218	20.083	-1.716	0.539
985.000	567.752	80.004	19.995	103.218	20.086	-1.914	0.501
985.500	568.029	80.004	19.993	103.218	20.083	-1.686	0.504
986.000	568.292	80.004	19.994	103.218	20.087	-2.014	0.534
986.500	568.529	80.004	19.994	103.219	20.086	-1.889	0.520
987.000	568.823	80.003	19.993	103.219	20.082	-1.609	0.515
987.500	569.067	80.005	19.993	103.219	20.086	-1.933	0.535
988.000	569.343	80.005	19.994	103.219	20.085	-1.867	0.529
988.500	569.591	80.006	19.995	103.219	20.085	-1.806	0.522
989.000	569.855	80.006	19.994	103.218	20.088	-2.026	0.518
989.500	570.126	80.006	19.994	103.219	20.085	-1.861	0.524
990.000	570.379	80.007	19.994	103.220	20.082	-1.653	0.529
990.500	570.618	80.006	19.993	103.220	20.083	-1.716	0.508
991.000	570.881	80.005	19.994	103.220	20.086	-1.935	0.497
991.500	571.145	80.006	19.994	103.220	20.086	-1.897	0.514
992.000	571.423	80.007	19.995	103.219	20.084	-1.756	0.534
992.500	571.658	80.006	19.993	103.219	20.087	-1.958	0.528
993.000	571.934	80.006	19.994	103.219	20.085	-1.802	0.512
993.500	572.197	80.007	19.994	103.220	20.081	-1.538	0.525
994.000	572.428	80.006	19.994	103.223	20.086	-1.933	0.517
994.500	572.724	80.009	19.994	103.226	20.084	-1.758	0.510
995.000	572.993	80.007	19.994	103.228	20.085	-1.859	0.546
995.500	573.251	80.007	19.994	103.231	20.085	-1.873	0.546
996.000	573.511	80.006	19.994	103.231	20.085	-1.819	0.522
996.500	573.799	80.007	19.993	103.228	20.083	-1.722	0.533
997.000	574.061	80.007	19.994	103.225	20.088	-2.071	0.549
997.500	574.324	80.007	19.993	103.220	20.087	-1.954	0.538
998.000	574.627	80.006	19.995	103.216	20.083	-1.687	0.545
998.500	574.856	80.005	19.995	103.216	20.089	-2.117	0.549
999.000	575.143	80.007	19.994	103.216	20.082	-1.645	0.524
999.500	575.364	80.006	19.995	103.215	20.088	-2.064	0.512
1000.000	575.633	80.006	19.994	103.217	20.086	-1.933	0.499
1000.500	575.914	80.006	19.994	103.217	20.089	-2.113	0.521
1001.000	576.159	80.006	19.994	103.217	20.089	-2.107	0.538
1001.501	576.433	80.006	19.995	103.216	20.092	-2.355	0.522
1002.001	576.693	80.006	19.994	103.216	20.092	-2.325	0.526
1002.501	576.975	80.006	19.993	103.215	20.084	-1.742	0.538
1003.000	577.190	80.005	19.994	103.215	20.087	-2.014	0.520
1003.500	577.436	80.006	19.994	103.215	20.090	-2.214	0.479
1004.000	577.678	80.007	19.995	103.214	20.090	-2.224	0.474
1004.500	577.972	80.006	19.995	103.214	20.086	-1.883	0.511
1005.000	578.244	80.008	19.995	103.213	20.088	-2.060	0.551
1005.500	578.502	80.007	19.995	103.215	20.091	-2.296	0.548
1006.000	578.766	80.006	19.993	103.215	20.090	-2.214	0.526
1006.500	579.008	80.006	19.994	103.218	20.092	-2.361	0.514
1007.000	579.257	80.006	19.993	103.218	20.092	-2.323	0.499
1007.500	579.514	80.006	19.994	103.219	20.089	-2.103	0.498
1008.000	579.775	80.006	19.994	103.219	20.088	-2.095	0.512
1008.500	580.033	80.007	19.995	103.219	20.090	-2.222	0.519
1009.000	580.298	80.006	19.995	103.217	20.092	-2.387	0.521
1009.500	580.539	80.008	19.994	103.216	20.095	-2.591	0.514
1010.000	580.832	80.006	19.994	103.216	20.087	-1.984	0.520
1010.500	581.047	80.007	19.993	103.215	20.090	-2.236	0.521
1011.000	581.289	80.007	19.994	103.215	20.089	-2.103	0.482
1011.500	581.562	80.007	19.995	103.215	20.092	-2.383	0.486
1012.000	581.840	80.006	19.994	103.216	20.093	-2.399	0.533
1012.500	582.061	80.007	19.994	103.215	20.094	-2.514	0.525
1013.000	582.323	80.007	19.994	103.215	20.094	-2.500	0.492
1013.500	582.589	80.007	19.994	103.216	20.093	-2.413	0.506
1014.000	582.841	80.008	19.994	103.216	20.086	-1.895	0.522
1014.500	583.120	80.008	19.994	103.214	20.092	-2.338	0.524
1015.000	583.377	80.007	19.995	103.215	20.093	-2.441	0.534
1015.500	583.625	80.007	19.995	103.213	20.095	-2.560	0.521
1016.000	583.853	80.006	19.995	103.213	20.090	-2.213	0.490
1016.500	584.152	80.009	19.994	103.213	20.092	-2.318	0.501
1017.000	584.399	80.009	19.994	103.215	20.094	-2.496	0.537
1017.500	584.646	80.008	19.994	103.215	20.089	-2.111	0.521
1018.000	584.890	80.009	19.995	103.217	20.087	-2.000	0.493
1018.500	585.135	80.008	19.993	103.217	20.090	-2.171	0.490
1019.000	585.427	80.008	19.994	103.214	20.089	-2.167	0.513
1019.500	585.669	80.009	19.993	103.213	20.093	-2.433	0.536
1020.000	585.903	80.007	19.995	103.213	20.090	-2.203	0.505
1020.500	586.185	80.007	19.995	103.213	20.090	-2.221	0.496
1021.000	586.423	80.009	19.994	103.213	20.092	-2.378	0.517
1021.500	586.681	80.009	19.994	103.215	20.089	-2.123	0.508
1022.000	586.941	80.009	19.993	103.213	20.088	-2.026	0.507
1022.500	587.213	80.008	19.994	103.213	20.090	-2.205	0.525
1023.000	587.472	80.008	19.994	103.211	20.090	-2.191	0.531
1023.500	587.722	80.008	19.994	103.211	20.087	-1.988	0.520
1024.000	587.932	80.007	19.993	103.211	20.092	-2.329	0.485
1024.501	588.209	80.007	19.993	103.211	20.088	-2.058	0.474
1025.001	588.453	80.007	19.994	103.209	20.090	-2.204	0.504
1025.500	588.671	80.007	19.994	103.210	20.085	-1.857	0.492
1026.000	588.988	80.006	19.994	103.208	20.088	-2.038	0.499
1026.500	589.224	80.006	19.994	103.208	20.090	-2.218	0.544
1027.001	589.448	80.006	19.993	103.209	20.093	-2.419	0.506
1027.501	589.731	80.006	19.994	103.208	20.089	-2.117	0.483
1028.000	590.002	80.007	19.994	103.207	20.091	-2.242	0.531
1028.500	590.245	80.006	19.994	103.207	20.092	-2.365	0.534
1029.000	590.486	80.007	19.995	103.206	20.087	-1.988	0.499
1029.500	590.725	80.006	19.994	103.205	20.085	-1.853	0.483
1030.000	590.955	80.006	19.995	103.204	20.089	-2.163	0.475
1030.500	591.219	80.006	19.994	103.199	20.087	-2.016	0.481
1031.000	591.497	80.006	19.995	103.196	20.088	-2.066	0.517
1031.501	591.716	80.005	19.995	103.194	20.087	-1.994	0.519
1032.001	591.968	80.004	19.996	103.193	20.087	-1.988	0.484
1032.500	592.252	80.006	19.996	103.196	20.086	-1.940	0.504
1033.000	592.492	80.004	19.995	103.204	20.087	-1.974	0.531
1033.500	592.760	80.004	19.994	103.207	20.088	-2.058	0.516
1034.000	592.993	80.004	19.996	103.211	20.084	-1.738	0.504
1034.500	593.233	80.004	19.995	103.216	20.085	-1.831	0.487
1035.001	593.522	80.005	19.996	103.217	20.088	-2.083	0.501
1035.501	593.785	80.003	19.995	103.217	20.086	-1.877	0.540
1036.001	594.031	80.004	19.996	103.217	20.085	-1.806	0.530
1036.500	594.282	80.005	19.995	103.214	20.087	-1.952	0.503
1037.000	594.509	80.005	19.995	103.212	20.085	-1.851	0.488
1037.500	594.770	80.004	19.995	103.211	20.083	-1.694	0.483
1038.000	595.054	80.005	19.994	103.211	20.077	-1.258	0.517
1038.500	595.277	80.004	19.996	103.212	20.084	-1.796	0.526
1039.000	595.591	80.005	19.996	103.216	20.085	-1.845	0.522
1039.500	595.809	80.005	19.995	103.217	20.084	-1.730	0.534
1040.000	596.084	80.006	19.995	103.217	20.086	-1.889	0.512
1040.500	596.332	80.007	19.994	103.217	20.083	-1.728	0.508
1041.000	596.577	80.004	19.995	103.217	20.088	-2.038	0.508
1041.501	596.820	80.005	19.995	103.217	20.084	-1.744	0.491
1042.001	597.077	80.004	19.995	103.217	20.089	-2.105	0.494
1042.500	597.289	80.006	19.996	103.217	20.083	-1.700	0.484
1043.000	597.563	80.004	19.995	103.217	20.085	-1.871	0.478
1043.500	597.848	80.006	19.995	103.218	20.087	-1.962	0.523
1044.000	598.140	80.005	19.994	103.218	20.087	-1.976	0.568
1044.500	598.343	80.005	19.994	103.218	20.091	-2.304	0.536
1045.000	598.608	80.005	19.995	103.218	20.085	-1.851	0.481
1045.500	598.816	80.005	19.995	103.217	20.092	-2.385	0.470
1046.000	599.090	80.006	19.994	103.217	20.087	-1.952	0.478
1046.501	599.334	80.006	19.994	103.218	20.084	-1.786	0.500
1047.001	599.591	80.006	19.995	103.218	20.088	-2.083	0.509
1047.500	599.847	80.005	19.995	103.218	20.085	-1.861	0.507
1048.000	600.090	80.006	19.996	103.220	20.092	-2.361	0.506
1048.500	600.328	80.005	19.995	103.220	20.085	-1.835	0.490
1049.001	600.577	80.005	19.994	103.221	20.083	-1.659	0.484
1049.501	600.863	80.005	19.995	103.221	20.087	-1.959	0.511
1050.000	601.092	80.005	19.995	103.221	20.087	-1.969	0.525
1050.501	601.325	80.007	19.995	103.220	20.083	-1.709	0.489
1051.001	601.571	80.005	19.994	103.219	20.085	-1.816	0.471
1051.501	601.873	80.005	19.994	103.219	20.086	-1.939	0.514
1052.000	602.099	80.004	19.994	103.218	20.085	-1.825	0.538
1052.500	602.354	80.004	19.994	103.218	20.089	-2.139	0.504
1053.000	602.651	80.005	19.995	103.218	20.086	-1.911	0.516
1053.500	602.870	80.005	19.994	103.218	20.087	-1.954	0.534
1054.000	603.151	80.005	19.994	103.219	20.085	-1.823	0.508
1054.500	603.398	80.005	19.994	103.220	20.083	-1.710	0.514
1055.000	603.675	80.004	19.995	103.220	20.091	-2.264	0.526
1055.500	603.883	80.004	19.994	103.221	20.092	-2.353	0.504
1056.000	604.148	80.004	19.995	103.221	20.090	-2.220	0.479
1056.500	604.414	80.003	19.995	103.221	20.092	-2.322	0.502
1057.000	604.660	80.003	19.995	103.222	20.090	-2.240	0.522
1057.500	604.928	80.005	19.994	103.225	20.090	-2.183	0.513
1058.000	605.194	80.005	19.995	103.224	20.090	-2.189	0.524
1058.500	605.426	80.003	19.995	103.223	20.089	-2.131	0.516
1059.000	605.706	80.004	19.995	103.220	20.086	-1.945	0.505
1059.500	605.929	80.003	19.996	103.215	20.092	-2.345	0.507
1060.001	606.203	80.003	19.997	103.210	20.087	-1.994	0.500
1060.501	606.427	80.005	19.996	103.206	20.089	-2.117	0.498
1061.001	606.681	80.003	19.995	103.205	20.088	-2.042	0.488
1061.500	606.979	80.003	19.995	103.207	20.093	-2.455	0.515
1062.000	607.239	80.004	19.996	103.209	20.091	-2.280	0.555
1062.501	607.477	80.002	19.995	103.210	20.093	-2.391	0.528
1063.001	607.688	80.003	19.995	103.214	20.089	-2.119	0.473
1063.501	607.986	80.003	19.996	103.215	20.091	-2.272	0.479
1064.000	608.226	80.003	19.995	103.215	20.093	-2.419	0.524
1064.500	608.479	80.003	19.994	103.215	20.088	-2.085	0.515
1065.000	608.713	80.004	19.996	103.215	20.092	-2.365	0.490
1065.500	608.962	80.004	19.996	103.214	20.091	-2.304	0.485
1066.000	609.208	80.006	19.996	103.213	20.090	-2.193	0.489
1066.500	609.489	80.004	19.995	103.211	20.089	-2.111	0.511
1067.000	609.728	80.004	19.996	103.209	20.094	-2.502	0.524
1067.501	609.995	80.004	19.997	103.208	20.092	-2.385	0.513
1068.001	610.240	80.005	19.995	103.209	20.094	-2.464	0.509
1068.500	610.518	80.005	19.996	103.210	20.094	-2.534	0.518
1069.000	610.782	80.004	19.995	103.211	20.093	-2.455	0.533
1069.500	611.014	80.005	19.995	103.213	20.093	-2.419	0.519
1070.000	611.301	80.006	19.995	103.214	20.093	-2.461	0.507
1070.500	611.568	80.006	19.996	103.213	20.093	-2.459	0.536
1071.000	611.797	80.006	19.995	103.211	20.098	-2.814	0.525
1071.500	612.031	80.006	19.995	103.211	20.096	-2.661	0.479
1072.000	612.273	80.005	19.996	103.211	20.097	-2.685	0.469
1072.500	612.559	80.007	19.995	103.211	20.094	-2.488	0.502
1073.000	612.798	80.004	19.995	103.212	20.092	-2.353	0.527
1073.500	613.014	80.006	19.996	103.215	20.092	-2.336	0.490
1074.001	613.273	80.007	19.994	103.216	20.094	-2.475	0.465
1074.501	613.553	80.007	19.995	103.216	20.094	-2.524	0.507
1075.000	613.787	80.007	19.996	103.217	20.098	-2.820	0.527
1075.500	614.068	80.008	19.995	103.217	20.094	-2.498	0.514
1076.000	614.352	80.008	19.995	103.217	20.094	-2.514	0.540
1076.500	614.609	80.007	19.995	103.216	20.100	-2.927	0.553
1077.000	614.833	80.007	19.994	103.216	20.098	-2.768	0.511
1077.500	615.129	80.008	19.995	103.214	20.091	-2.280	0.501
1078.000	615.377	80.007	19.994	103.215	20.097	-2.732	0.532
1078.500	615.613	80.007	19.994	103.215	20.098	-2.762	0.514
1079.000	615.877	80.007	19.995	103.215	20.098	-2.782	0.492
1079.500	616.106	80.006	19.993	103.213	20.094	-2.528	0.496
1080.000	616.414	80.008	19.995	103.208	20.095	-2.577	0.515
1080.500	616.646	80.007	19.994	103.206	20.099	-2.861	0.539
1081.000	616.892	80.007	19.995	103.207	20.099	-2.863	0.509
1081.500	617.125	80.006	19.994	103.207	20.102	-3.101	0.478
1082.000	617.413	80.006	19.995	103.209	20.094	-2.482	0.500
1082.500	617.648	80.007	19.994	103.215	20.094	-2.508	0.522
1083.001	617.915	80.007	19.995	103.215	20.099	-2.853	0.513
1083.501	618.174	80.005	19.994	103.211	20.097	-2.736	0.514
1084.001	618.404	80.006	19.994	103.205	20.095	-2.550	0.507
1084.500	618.656	80.004	19.995	103.201	20.099	-2.840	0.485
1085.001	618.919	80.007	19.995	103.196	20.099	-2.867	0.499
1085.501	619.183	80.007	19.995	103.195	20.100	-2.939	0.521
1086.000	619.429	80.006	19.995	103.197	20.103	-3.175	0.518
1086.500	619.701	80.007	19.995	103.202	20.099	-2.832	0.514
1087.000	619.931	80.006	19.996	103.201	20.100	-2.923	0.510
1087.501	620.164	80.006	19.994	103.208	20.101	-2.977	0.483
1088.001	620.446	80.006	19.993	103.215	20.101	-3.032	0.489
1088.500	620.701	80.007	19.994	103.217	20.103	-3.134	0.526
1089.000	621.015	80.005	19.995	103.218	20.104	-3.267	0.553
1089.500	621.190	80.007	19.995	103.222	20.104	-3.215	0.529
1090.000	621.466	80.006	19.993	103.220	20.102	-3.100	0.470
1090.500	621.745	80.005	19.993	103.217	20.107	-3.455	0.503
1091.000	621.995	80.007	19.994	103.216	20.106	-3.359	0.542
1091.500	622.218	80.006	19.994	103.216	20.107	-3.423	0.501
1092.000	622.486	80.008	19.994	103.215	20.104	-3.229	0.482
1092.500	622.736	80.006	19.996	103.215	20.099	-2.830	0.504
1093.000	622.976	80.007	19.994	103.214	20.105	-3.308	0.504
1093.500	623.233	80.006	19.994	103.211	20.102	-3.104	0.494
1094.000	623.510	80.007	19.994	103.209	20.108	-3.515	0.516
1094.500	623.750	80.007	19.994	103.210	20.104	-3.257	0.526
1095.000	624.037	80.008	19.996	103.210	20.102	-3.064	0.522
1095.500	624.238	80.006	19.995	103.207	20.105	-3.334	0.507
1096.000	624.484	80.008	19.996	103.205	20.102	-3.107	0.467
1096.500	624.758	80.008	19.994	103.202	20.108	-3.550	0.483
1097.000	625.010	80.008	19.995	103.201	20.107	-3.455	0.523
1097.500	625.260	80.008	19.994	103.198	20.109	-3.598	0.514
1098.000	625.483	80.007	19.995	103.199	20.105	-3.294	0.488
1098.501	625.778	80.008	19.995	103.199	20.105	-3.338	0.496
1099.001	626.030	80.007	19.995	103.199	20.108	-3.528	0.533
1099.500	626.239	80.008	19.994	103.196	20.109	-3.627	0.504
1100.000	626.531	80.007	19.994	103.198	20.105	-3.302	0.481
1100.500	626.760	80.007	19.995	103.200	20.108	-3.561	0.511
1101.000	627.005	80.008	19.993	103.202	20.107	-3.454	0.498
1101.500	627.225	80.006	19.995	103.207	20.105	-3.305	0.469
1102.000	627.506	80.007	19.994	103.211	20.107	-3.448	0.483
1102.500	627.801	80.008	19.995	103.211	20.104	-3.206	0.539
1103.000	628.035	80.005	19.994	103.206	20.107	-3.448	0.553
1103.500	628.280	80.008	19.994	103.202	20.106	-3.357	0.504
1104.000	628.579	80.009	19.995	103.196	20.109	-3.569	0.511
1104.500	628.837	80.007	19.993	103.189	20.105	-3.312	0.550
1105.000	629.046	80.007	19.995	103.187	20.109	-3.602	0.512
1105.500	629.324	80.007	19.995	103.193	20.108	-3.528	0.477
1106.000	629.569	80.006	19.994	103.199	20.102	-3.084	0.505
1106.501	629.787	80.006	19.995	103.206	20.102	-3.096	0.493
1107.001	630.051	80.005	19.994	103.212	20.106	-3.398	0.473
1107.500	630.307	80.005	19.995	103.210	20.118	-4.227	0.501
1108.001	630.587	80.007	19.995	103.208	20.114	-3.953	0.529
1108.501	630.855	80.006	19.994	103.204	20.104	-3.245	0.542
1109.001	631.093	80.006	19.995	103.203	20.112	-3.834	0.527
1109.501	631.370	80.006	19.995	103.204	20.109	-3.576	0.511
1110.000	631.631	80.005	19.995	103.209	20.115	-4.023	0.526
1110.500	631.894	80.005	19.993	103.211	20.108	-3.527	0.531
1111.000	632.188	80.005	19.994	103.218	20.113	-3.906	0.541
1111.500	632.422	80.006	19.994	103.223	20.114	-3.936	0.542
1112.000	632.733	80.005	19.995	103.225	20.111	-3.741	0.536
1112.500	632.921	80.006	19.995	103.225	20.111	-3.753	0.522
1113.000	633.242	80.005	19.993	103.226	20.110	-3.690	0.504
1113.500	633.492	80.006	19.994	103.224	20.111	-3.753	0.540
1114.000	633.750	80.007	19.994	103.221	20.112	-3.783	0.540
1114.500	634.017	80.004	19.993	103.221	20.114	-3.955	0.517
1115.000	634.301	80.005	19.994	103.220	20.110	-3.687	0.538
1115.500	634.542	80.004	19.994	103.216	20.111	-3.770	0.537
1116.000	634.832	80.005	19.994	103.209	20.112	-3.846	0.528
1116.500	635.075	80.004	19.994	103.200	20.114	-3.963	0.532
1117.000	635.366	80.005	19.994	103.192	20.109	-3.604	0.534
1117.500	635.623	80.004	19.994	103.187	20.110	-3.701	0.541
1118.000	635.888	80.006	19.994	103.187	20.113	-3.912	0.535
1118.501	636.191	80.004	19.994	103.194	20.112	-3.828	0.545
1119.001	636.483	80.003	19.993	103.195	20.110	-3.651	0.581
1119.500	636.822	80.004	19.995	103.202	20.112	-3.842	0.613
1120.000	637.015	80.004	19.993	103.201	20.108	-3.550	0.582
1120.500	637.245	80.005	19.993	103.197	20.112	-3.794	0.477
1121.000	637.477	80.004	19.994	103.190	20.112	-3.790	0.443
1121.500	637.753	80.005	19.994	103.188	20.113	-3.888	0.485
1122.000	638.015	80.004	19.994	103.182	20.108	-3.542	0.523
1122.500	638.326	80.004	19.994	103.181	20.111	-3.774	0.556
1123.000	638.563	80.006	19.995	103.182	20.111	-3.753	0.561
1123.500	638.842	80.003	19.994	103.184	20.113	-3.892	0.532
1124.000	639.121	80.005	19.994	103.186	20.111	-3.731	0.537
1124.500	639.387	80.005	19.993	103.186	20.112	-3.794	0.552
1125.000	639.678	80.005	19.994	103.188	20.111	-3.729	0.551
1125.500	639.945	80.005	19.994	103.194	20.109	-3.626	0.557
1126.001	640.213	80.004	19.994	103.199	20.114	-3.943	0.546
1126.501	640.473	80.005	19.995	103.204	20.113	-3.908	0.532
1127.000	640.759	80.005	19.995	103.207	20.113	-3.876	0.537
1127.500	641.031	80.006	19.995	103.205	20.112	-3.783	0.552
1128.001	641.287	80.005	19.995	103.202	20.110	-3.665	0.543
1128.501	641.565	80.004	19.995	103.200	20.109	-3.598	0.531
1129.000	641.824	80.005	19.995	103.197	20.113	-3.909	0.535
1129.500	642.114	80.005	19.996	103.199	20.116	-4.132	0.543
1130.000	642.348	80.005	19.995	103.205	20.113	-3.902	0.537
1130.501	642.610	80.005	19.994	103.202	20.113	-3.900	0.510
1131.001	642.900	80.005	19.996	103.199	20.110	-3.696	0.524
1131.500	643.159	80.003	19.995	103.201	20.112	-3.799	0.550
1132.000	643.434	80.003	19.994	103.202	20.115	-4.053	0.541
1132.500	643.670	80.005	19.995	103.201	20.113	-3.904	0.522
1133.000	643.961	80.002	19.997	103.203	20.111	-3.771	0.519
1133.501	644.211	80.004	19.994	103.201	20.117	-4.195	0.534
1134.001	644.452	80.005	19.996	103.198	20.116	-4.140	0.516
1134.501	644.741	80.004	19.996	103.195	20.115	-4.007	0.511
1135.000	645.016	80.003	19.995	103.197	20.118	-4.249	0.548
1135.500	645.307	80.005	19.995	103.199	20.116	-4.076	0.565
1136.000	645.541	80.004	19.995	103.202	20.117	-4.148	0.545
1136.500	645.806	80.003	19.995	103.200	20.120	-4.408	0.512
1137.000	646.063	80.005	19.995	103.197	20.114	-3.971	0.511
1137.500	646.347	80.004	19.995	103.196	20.116	-4.112	0.532
1138.000	646.580	80.004	19.995	103.194	20.116	-4.105	0.529
1138.500	646.837	80.003	19.994	103.195	20.118	-4.256	0.503
1139.000	647.119	80.003	19.996	103.197	20.117	-4.210	0.514
1139.500	647.362	80.004	19.994	103.202	20.114	-3.936	0.532
1140.000	647.647	80.004	19.995	103.199	20.118	-4.228	0.527
1140.500	647.896	80.004	19.995	103.199	20.120	-4.395	0.531
1141.000	648.167	80.003	19.994	103.194	20.119	-4.367	0.527
1141.500	648.397	80.004	19.994	103.190	20.119	-4.353	0.511
1142.000	648.655	80.003	19.995	103.184	20.116	-4.142	0.494
1142.500	648.939	80.005	19.995	103.181	20.118	-4.265	0.514
1143.000	649.207	80.003	19.995	103.181	20.117	-4.206	0.547
1143.500	649.499	80.004	19.995	103.188	20.121	-4.447	0.556
1144.000	649.714	80.004	19.994	103.194	20.119	-4.344	0.533
1144.501	650.007	80.005	19.995	103.198	20.117	-4.187	0.507
1145.001	650.273	80.005	19.993	103.200	20.123	-4.592	0.534
1145.501	650.506	80.005	19.995	103.199	20.120	-4.372	0.529
1146.000	650.770	80.005	19.995	103.199	20.117	-4.150	0.498
1146.500	651.018	80.003	19.995	103.195	20.123	-4.593	0.504
1147.000	651.286	80.004	19.995	103.195	20.121	-4.510	0.514
1147.500	651.535	80.006	19.995	103.192	20.118	-4.273	0.517
1148.000	651.815	80.005	19.995	103.190	20.114	-4.000	0.523
1148.500	652.044	80.005	19.994	103.184	20.119	-4.357	0.519
1149.000	652.327	80.006	19.995	103.182	20.118	-4.277	0.510
1149.501	652.553	80.005	19.996	103.179	20.118	-4.273	0.510
1150.001	652.826	80.006	19.996	103.177	20.121	-4.458	0.504
1150.501	653.060	80.004	19.995	103.174	20.124	-4.662	0.503
1151.001	653.334	80.006	19.995	103.172	20.123	-4.619	0.508
1151.501	653.618	80.004	19.995	103.171	20.121	-4.492	0.533
1152.001	653.850	80.003	19.994	103.171	20.125	-4.748	0.537
1152.500	654.167	80.005	19.996	103.173	20.120	-4.375	0.532
1153.001	654.394	80.006	19.994	103.178	20.122	-4.579	0.547
1153.501	654.665	80.005	19.994	103.182	20.121	-4.509	0.522
1154.000	654.896	80.006	19.996	103.188	20.123	-4.654	0.500
1154.500	655.168	80.006	19.996	103.196	20.123	-4.594	0.502
1155.000	655.425	80.006	19.996	103.204	20.121	-4.499	0.516
1155.500	655.691	80.007	19.996	103.207	20.126	-4.814	0.526
1156.001	655.942	80.005	19.996	103.206	20.123	-4.646	0.520
1156.501	656.214	80.006	19.995	103.202	20.128	-4.957	0.520
1157.000	656.462	80.005	19.996	103.194	20.121	-4.509	0.521
1157.500	656.716	80.006	19.996	103.187	20.123	-4.610	0.511
1158.000	656.961	80.005	19.995	103.181	20.122	-4.576	0.501
1158.500	657.265	80.005	19.995	103.178	20.124	-4.721	0.524
1159.000	657.489	80.006	19.996	103.176	20.117	-4.164	0.538
1159.500	657.735	80.006	19.996	103.179	20.123	-4.623	0.499
1160.000	658.024	80.006	19.994	103.178	20.121	-4.464	0.503
1160.500	658.249	80.007	19.996	103.178	20.122	-4.521	0.525
1161.000	658.492	80.005	19.996	103.179	20.122	-4.549	0.491
1161.500	658.750	80.006	19.996	103.179	20.125	-4.738	0.484
1162.001	658.992	80.006	19.995	103.176	20.123	-4.622	0.501
1162.501	659.303	80.005	19.995	103.176	20.122	-4.547	0.527
1163.000	659.503	80.005	19.995	103.177	20.121	-4.495	0.532
1163.500	659.775	80.006	19.996	103.178	20.119	-4.352	0.491
1164.000	660.021	80.004	19.995	103.179	20.126	-4.829	0.495
1164.500	660.282	80.004	19.995	103.187	20.124	-4.712	0.513
1165.000	660.560	80.005	19.994	103.194	20.122	-4.541	0.523
1165.500	660.779	80.005	19.995	103.196	20.132	-5.271	0.518
1166.000	661.027	80.004	19.996	103.196	20.123	-4.592	0.482
1166.501	661.290	80.005	19.995	103.200	20.122	-4.536	0.489
1167.001	661.555	80.003	19.994	103.195	20.123	-4.595	0.519
1167.500	661.783	80.005	19.995	103.196	20.125	-4.774	0.511
1168.000	662.045	80.007	19.995	103.198	20.119	-4.349	0.492
1168.500	662.295	80.004	19.994	103.200	20.121	-4.485	0.501
1169.000	662.586	80.004	19.995	103.197	20.122	-4.558	0.526
1169.500	662.800	80.005	19.994	103.197	20.118	-4.263	0.523
1170.000	663.088	80.005	19.994	103.189	20.119	-4.336	0.504
1170.500	663.311	80.006	19.994	103.184	20.120	-4.394	0.507
1171.001	663.556	80.005	19.994	103.182	20.124	-4.662	0.490
1171.501	663.821	80.006	19.993	103.182	20.123	-4.603	0.489
1172.000	664.062	80.006	19.995	103.181	20.122	-4.523	0.508
1172.500	664.323	80.006	19.993	103.184	20.117	-4.218	0.504
1173.000	664.558	80.006	19.994	103.189	20.121	-4.489	0.499
1173.500	664.818	80.007	19.993	103.189	20.121	-4.442	0.495
1174.000	665.097	80.006	19.995	103.189	20.126	-4.871	0.517
1174.500	665.322	80.007	19.994	103.188	20.125	-4.761	0.522
1175.000	665.562	80.006	19.993	103.187	20.129	-5.075	0.485
1175.500	665.831	80.005	19.993	103.185	20.121	-4.480	0.487
1176.000	666.099	80.007	19.993	103.193	20.124	-4.682	0.523
1176.500	666.313	80.007	19.994	103.198	20.125	-4.753	0.509
1177.000	666.585	80.007	19.994	103.206	20.126	-4.867	0.484
1177.500	666.827	80.007	19.993	103.211	20.126	-4.841	0.500
1178.000	667.109	80.006	19.994	103.215	20.124	-4.676	0.519
1178.500	667.338	80.008	19.994	103.215	20.122	-4.565	0.517
1179.000	667.611	80.008	19.994	103.214	20.126	-4.825	0.506
1179.500	667.847	80.005	19.994	103.208	20.122	-4.553	0.505
1180.000	668.103	80.007	19.994	103.202	20.121	-4.492	0.501
1180.500	668.347	80.007	19.993	103.198	20.123	-4.641	0.497
1181.000	668.608	80.007	19.994	103.192	20.122	-4.573	0.502
1181.500	668.842	80.006	19.994	103.188	20.124	-4.730	0.500
1182.000	669.072	80.006	19.993	103.189	20.125	-4.734	0.479
1182.500	669.353	80.007	19.993	103.188	20.126	-4.859	0.487
1183.000	669.608	80.007	19.995	103.185	20.123	-4.613	0.524
1183.500	669.864	80.007	19.994	103.187	20.124	-4.674	0.524
1184.000	670.111	80.006	19.994	103.189	20.125	-4.764	0.507
1184.501	670.357	80.007	19.993	103.187	20.121	-4.466	0.498
1185.001	670.608	80.007	19.994	103.187	20.126	-4.865	0.495
1185.501	670.889	80.006	19.994	103.188	20.126	-4.879	0.515
1186.001	671.116	80.007	19.994	103.187	20.125	-4.784	0.520
1186.500	671.386	80.006	19.994	103.185	20.124	-4.661	0.502
1187.000	671.619	80.005	19.994	103.186	20.131	-5.175	0.499
1187.501	671.885	80.005	19.994	103.186	20.126	-4.843	0.501
1188.001	672.133	80.006	19.994	103.187	20.120	-4.426	0.507
1188.501	672.399	80.006	19.994	103.185	20.123	-4.655	0.514
1189.000	672.623	80.005	19.994	103.184	20.124	-4.718	0.502
1189.500	672.896	80.004	19.995	103.182	20.119	-4.333	0.493
1190.000	673.168	80.005	19.994	103.181	20.123	-4.650	0.521
1190.500	673.410	80.005	19.994	103.178	20.127	-4.904	0.529
1191.000	673.665	80.005	19.994	103.178	20.127	-4.936	0.506
1191.501	673.904	80.005	19.993	103.177	20.125	-4.803	0.496
1192.001	674.211	80.006	19.995	103.177	20.125	-4.754	0.520
1192.500	674.498	80.005	19.994	103.178	20.125	-4.788	0.570
1193.000	674.690	80.004	19.995	103.178	20.125	-4.748	0.536
1193.500	674.983	80.006	19.995	103.178	20.127	-4.887	0.482
1194.000	675.201	80.006	19.995	103.179	20.123	-4.627	0.498
1194.500	675.471	80.005	19.994	103.179	20.127	-4.902	0.500
1195.000	675.709	80.007	19.995	103.178	20.129	-5.095	0.498
1195.500	675.966	80.005	19.994	103.179	20.128	-5.005	0.501
1196.000	676.250	80.004	19.994	103.178	20.128	-4.964	0.518
1196.500	676.467	80.005	19.994	103.178	20.130	-5.121	0.521
1197.000	676.732	80.005	19.994	103.178	20.128	-4.984	0.492
1197.500	676.941	80.006	19.995	103.178	20.123	-4.636	0.478
1198.000	677.201	80.007	19.995	103.178	20.124	-4.714	0.471
1198.500	677.480	80.006	19.994	103.178	20.125	-4.755	0.504
1199.000	677.735	80.005	19.993	103.179	20.125	-4.787	0.536
1199.500	677.975	80.006	19.994	103.178	20.125	-4.745	0.514
1200.000	678.209	80.006	19.994	103.181	20.126	-4.849	0.485
1200.500	678.491	80.004	19.994	103.182	20.125	-4.741	0.495
1201.000	678.765	80.005	19.994	103.184	20.123	-4.658	0.536
1201.500	678.976	80.005	19.995	103.185	20.125	-4.777	0.521
1202.001	679.226	80.005	19.994	103.185	20.129	-5.035	0.473
1202.501	679.480	80.005	19.993	103.182	20.124	-4.678	0.483
1203.001	679.700	80.005	19.994	103.181	20.127	-4.896	0.489
1203.500	679.950	80.006	19.995	103.179	20.125	-4.761	0.472
1204.000	680.238	80.005	19.994	103.177	20.125	-4.795	0.504
1204.500	680.472	80.005	19.994	103.181	20.127	-4.922	0.530
1205.000	680.763	80.005	19.993	103.182	20.125	-4.745	0.524
1205.500	680.998	80.004	19.994	103.184	20.128	-4.976	0.525
1206.000	681.260	80.005	19.995	103.186	20.128	-4.982	0.512
1206.500	681.497	80.006	19.993	103.189	20.125	-4.793	0.498
1207.000	681.741	80.005	19.995	103.187	20.127	-4.891	0.490
1207.500	682.025	80.006	19.995	103.188	20.131	-5.244	0.504
1208.000	682.275	80.005	19.994	103.187	20.127	-4.897	0.531
1208.500	682.537	80.005	19.995	103.187	20.130	-5.147	0.523
1209.000	682.763	80.005	19.994	103.186	20.129	-5.075	0.500
1209.500	683.025	80.006	19.995	103.186	20.129	-5.095	0.488
1210.000	683.257	80.004	19.994	103.189	20.123	-4.599	0.491
1210.500	683.582	80.005	19.995	103.190	20.124	-4.690	0.525
1211.000	683.758	80.006	19.995	103.191	20.127	-4.952	0.529
1211.500	684.016	80.004	19.993	103.191	20.126	-4.831	0.468
1212.000	684.260	80.005	19.994	103.193	20.124	-4.714	0.468
1212.500	684.523	80.005	19.995	103.191	20.128	-5.019	0.505
1213.000	684.757	80.005	19.995	103.192	20.126	-4.876	0.502
1213.500	685.016	80.003	19.994	103.190	20.129	-5.084	0.495
1214.000	685.262	80.005	19.996	103.191	20.134	-5.397	0.499
1214.500	685.541	80.005	19.995	103.188	20.129	-5.068	0.515
1215.000	685.815	80.006	19.995	103.189	20.132	-5.249	0.539
1215.500	686.054	80.006	19.995	103.191	20.130	-5.134	0.533
1216.000	686.332	80.004	19.995	103.191	20.126	-4.846	0.515
1216.500	686.590	80.004	19.994	103.189	20.125	-4.769	0.526
1217.000	686.814	80.005	19.996	103.189	20.127	-4.952	0.508
1217.501	687.115	80.003	19.995	103.188	20.126	-4.845	0.504
1218.001	687.323	80.003	19.996	103.182	20.126	-4.825	0.518
1218.500	687.592	80.004	19.995	103.182	20.125	-4.761	0.493
1219.000	687.895	80.005	19.995	103.182	20.126	-4.847	0.524
1219.500	688.154	80.004	19.995	103.180	20.132	-5.309	0.567
1220.000	688.404	80.004	19.995	103.177	20.129	-5.041	0.536
1220.500	688.696	80.005	19.996	103.177	20.127	-4.948	0.526
1221.000	688.922	80.005	19.994	103.178	20.130	-5.101	0.530
1221.501	689.214	80.004	19.995	103.177	20.126	-4.855	0.518
1222.001	689.474	80.004	19.996	103.177	20.126	-4.873	0.535
1222.500	689.714	80.004	19.996	103.177	20.131	-5.244	0.526
1223.001	690.006	80.004	19.996	103.181	20.128	-5.006	0.516
1223.501	690.253	80.004	19.996	103.189	20.128	-4.992	0.536
1224.000	690.501	80.004	19.995	103.197	20.128	-4.976	0.517
1224.500	690.767	80.004	19.996	103.204	20.134	-5.406	0.504
1225.000	691.035	80.006	19.996	103.211	20.132	-5.257	0.524
1225.500	691.282	80.002	19.995	103.212	20.131	-5.246	0.525
1226.000	691.565	80.005	19.994	103.205	20.129	-5.067	0.523
1226.500	691.857	80.005	19.994	103.197	20.127	-4.891	0.552
1227.000	692.119	80.005	19.994	103.194	20.127	-4.925	0.564
1227.500	692.390	80.006	19.995	103.187	20.128	-5.008	0.543
1228.000	692.663	80.003	19.994	103.183	20.130	-5.123	0.539
1228.501	692.903	80.005	19.995	103.184	20.129	-5.052	0.529
1229.001	693.170	80.005	19.994	103.189	20.133	-5.323	0.510
1229.500	693.455	80.006	19.995	103.187	20.134	-5.411	0.529
1230.000	693.704	80.005	19.994	103.190	20.131	-5.232	0.543
1230.500	694.002	80.006	19.994	103.193	20.131	-5.214	0.540
1231.000	694.253	80.005	19.994	103.195	20.129	-5.085	0.548
1231.500	694.490	80.007	19.994	103.192	20.128	-4.992	0.519
1232.000	694.813	80.006	19.994	103.191	20.139	-5.824	0.524
1232.500	695.055	80.006	19.994	103.188	20.129	-5.056	0.562
1233.000	695.332	80.006	19.995	103.185	20.134	-5.431	0.542
1233.501	695.616	80.006	19.995	103.182	20.137	-5.655	0.540
1234.001	695.866	80.006	19.994	103.182	20.132	-5.303	0.548
1234.500	696.131	80.005	19.994	103.188	20.131	-5.224	0.525
1235.000	696.400	80.007	19.995	103.189	20.133	-5.393	0.525
1235.500	696.672	80.005	19.994	103.189	20.133	-5.367	0.538
1236.000	696.958	80.006	19.994	103.189	20.126	-4.839	0.549
1236.501	697.196	80.004	19.994	103.186	20.133	-5.325	0.541
1237.001	697.446	80.006	19.995	103.180	20.134	-5.411	0.506
1237.500	697.715	80.004	19.994	103.179	20.132	-5.307	0.504
1238.000	698.017	80.003	19.994	103.178	20.131	-5.192	0.545
1238.500	698.289	80.005	19.994	103.178	20.135	-5.482	0.573
1239.001	698.542	80.005	19.995	103.178	20.132	-5.248	0.549
1239.501	698.827	80.006	19.995	103.178	20.127	-4.908	0.531
1240.001	699.052	80.005	19.994	103.179	20.136	-5.563	0.524
1240.501	699.320	80.005	19.995	103.178	20.128	-4.991	0.502
1241.000	699.575	80.005	19.995	103.179	20.129	-5.094	0.508
1241.500	699.872	80.004	19.995	103.178	20.126	-4.838	0.538
1242.000	700.176	80.006	19.995	103.176	20.133	-5.372	0.576
1242.500	700.422	80.005	19.995	103.175	20.131	-5.226	0.575
1243.000	700.691	80.004	19.994	103.177	20.138	-5.760	0.532
1243.500	700.950	80.005	19.994	103.177	20.129	-5.065	0.521
1244.000	701.246	80.005	19.994	103.178	20.134	-5.417	0.542
1244.500	701.488	80.004	19.994	103.180	20.132	-5.319	0.547
1245.000	701.742	80.005	19.995	103.182	20.131	-5.194	0.517
1245.500	702.060	80.004	19.995	103.183	20.129	-5.083	0.533
1246.000	702.319	80.005	19.994	103.183	20.129	-5.077	0.574
1246.500	702.592	80.003	19.995	103.184	20.128	-5.014	0.555
1247.000	702.827	80.004	19.995	103.186	20.131	-5.200	0.520
1247.500	703.100	80.004	19.995	103.185	20.131	-5.186	0.508
1248.000	703.373	80.004	19.995	103.183	20.132	-5.297	0.527
1248.501	703.633	80.004	19.995	103.183	20.136	-5.604	0.539
1249.001	703.890	80.004	19.995	103.179	20.134	-5.429	0.525
1249.500	704.162	80.004	19.995	103.178	20.137	-5.634	0.523
1250.000	704.432	80.004	19.995	103.183	20.130	-5.172	0.536
1250.500	704.719	80.005	19.995	103.186	20.131	-5.195	0.549
1251.000	704.953	80.004	19.995	103.190	20.136	-5.604	0.539
1251.501	705.249	80.005	19.995	103.199	20.133	-5.356	0.526
1252.001	705.489	80.005	19.995	103.203	20.129	-5.066	0.533
1252.500	705.771	80.006	19.995	103.199	20.134	-5.443	0.528
1253.000	706.004	80.005	19.995	103.195	20.135	-5.506	0.518
1253.501	706.283	80.006	19.995	103.191	20.133	-5.385	0.514
1254.001	706.541	80.006	19.994	103.184	20.138	-5.738	0.524
1254.501	706.813	80.005	19.995	103.178	20.133	-5.349	0.533
1255.001	707.075	80.006	19.994	103.179	20.129	-5.067	0.532
1255.500	707.306	80.007	19.995	103.184	20.138	-5.732	0.514
1256.000	707.568	80.007	19.994	103.185	20.132	-5.299	0.493
1256.500	707.825	80.007	19.995	103.184	20.136	-5.561	0.506
1257.000	708.121	80.008	19.995	103.184	20.132	-5.308	0.536
1257.500	708.378	80.008	19.995	103.185	20.136	-5.610	0.553
1258.000	708.649	80.007	19.994	103.180	20.138	-5.702	0.540
1258.500	708.905	80.008	19.994	103.185	20.130	-5.119	0.527
1259.000	709.112	80.006	19.994	103.192	20.126	-4.859	0.495
1259.500	709.418	80.007	19.994	103.200	20.132	-5.282	0.488
1260.000	709.679	80.008	19.994	103.201	20.133	-5.333	0.540
1260.500	709.940	80.008	19.994	103.199	20.133	-5.326	0.544
1261.000	710.166	80.008	19.994	103.185	20.134	-5.435	0.505
1261.500	710.484	80.008	19.995	103.173	20.133	-5.393	0.516
1262.000	710.751	80.007	19.994	103.165	20.136	-5.613	0.564
1262.500	710.983	80.008	19.994	103.161	20.137	-5.623	0.542
1263.000	711.234	80.006	19.993	103.162	20.141	-5.919	0.491
1263.500	711.509	80.007	19.994	103.170	20.135	-5.518	0.504
1264.000	711.794	80.009	19.994	103.176	20.134	-5.434	0.543
1264.500	712.053	80.006	19.992	103.180	20.138	-5.694	0.553
1265.000	712.297	80.005	19.993	103.181	20.136	-5.558	0.523
1265.500	712.551	80.006	19.993	103.182	20.136	-5.579	0.500
1266.000	712.809	80.006	19.994	103.184	20.135	-5.536	0.505
1266.500	713.079	80.005	19.995	103.189	20.130	-5.125	0.520
1267.000	713.308	80.004	19.994	103.194	20.139	-5.792	0.513
1267.500	713.611	80.005	19.994	103.199	20.138	-5.701	0.515
1268.000	713.893	80.005	19.993	103.201	20.138	-5.742	0.559
1268.500	714.134	80.005	19.993	103.198	20.142	-6.042	0.554
1269.000	714.416	80.005	19.993	103.192	20.142	-5.986	0.523
1269.500	714.678	80.006	19.995	103.185	20.134	-5.446	0.534
1270.000	714.904	80.005	19.995	103.180	20.137	-5.667	0.516
1270.500	715.219	80.005	19.994	103.178	20.135	-5.514	0.515
1271.001	715.491	80.004	19.993	103.178	20.136	-5.613	0.564
1271.501	715.766	80.006	19.995	103.177	20.138	-5.694	0.567
1272.000	716.014	80.006	19.995	103.177	20.134	-5.464	0.535
1272.500	716.267	80.006	19.995	103.179	20.137	-5.646	0.512
1273.000	716.460	80.002	19.995	103.180	20.136	-5.575	0.473
1273.500	716.770	80.003	19.993	103.184	20.136	-5.587	0.474
1274.000	717.089	80.006	19.995	103.186	20.139	-5.811	0.566
1274.500	717.311	80.003	19.995	103.185	20.138	-5.758	0.585
1275.000	717.571	80.005	19.994	103.186	20.138	-5.689	0.512
1275.501	717.869	80.005	19.994	103.185	20.140	-5.903	0.520
1276.001	718.131	80.004	19.995	103.182	20.140	-5.844	0.559
1276.500	718.414	80.004	19.995	103.181	20.137	-5.637	0.552
1277.000	718.665	80.005	19.995	103.181	20.139	-5.814	0.539
1277.500	718.924	80.005	19.994	103.178	20.140	-5.887	0.522
1278.000	719.192	80.005	19.994	103.178	20.139	-5.784	0.519
1278.500	719.471	80.006	19.994	103.178	20.138	-5.722	0.537
1279.000	719.720	80.006	19.995	103.178	20.142	-5.986	0.537
1279.500	720.000	80.005	19.994	103.180	20.139	-5.819	0.528
1280.000	720.245	80.005	19.994	103.180	20.137	-5.626	0.527
1280.500	720.502	80.005	19.994	103.180	20.141	-5.944	0.514
1281.000	720.742	80.005	19.995	103.180	20.139	-5.785	0.500
1281.500	721.033	80.006	19.994	103.184	20.138	-5.718	0.514
1282.000	721.289	80.005	19.995	103.186	20.139	-5.778	0.539
1282.500	721.518	80.006	19.994	103.188	20.141	-5.919	0.516
1283.000	721.803	80.006	19.995	103.192	20.139	-5.788	0.500
1283.500	722.033	80.005	19.995	103.195	20.133	-5.353	0.514
1284.000	722.306	80.005	19.994	103.190	20.142	-6.010	0.509
1284.500	722.581	80.006	19.995	103.186	20.134	-5.439	0.526
1285.000	722.853	80.006	19.994	103.184	20.138	-5.712	0.548
1285.500	723.092	80.006	19.994	103.179	20.138	-5.695	0.529
1286.000	723.328	80.004	19.994	103.176	20.138	-5.699	0.493
1286.500	723.595	80.006	19.995	103.177	20.138	-5.701	0.490
1287.000	723.873	80.006	19.994	103.178	20.139	-5.768	0.524
1287.500	724.144	80.005	19.995	103.181	20.138	-5.726	0.547
1288.000	724.415	80.006	19.995	103.182	20.138	-5.726	0.545
1288.501	724.678	80.005	19.993	103.184	20.141	-5.945	0.538
1289.001	724.939	80.005	19.994	103.184	20.141	-5.956	0.529
1289.501	725.241	80.007	19.995	103.187	20.141	-5.941	0.543
1290.001	725.483	80.004	19.993	103.186	20.140	-5.899	0.553
1290.501	725.708	80.005	19.994	103.189	20.133	-5.351	0.506
1291.000	725.983	80.005	19.994	103.194	20.136	-5.597	0.483
1291.500	726.265	80.006	19.994	103.193	20.139	-5.824	0.528
1292.000	726.527	80.007	19.994	103.189	20.140	-5.835	0.551
1292.500	726.804	80.005	19.995	103.187	20.138	-5.732	0.542
1293.000	727.068	80.006	19.994	103.186	20.141	-5.941	0.540
1293.500	727.306	80.004	19.993	103.180	20.138	-5.744	0.522
1294.001	727.564	80.006	19.994	103.180	20.137	-5.619	0.499
1294.501	727.845	80.006	19.994	103.180	20.136	-5.554	0.517
1295.000	728.112	80.005	19.994	103.181	20.138	-5.691	0.543
1295.500	728.370	80.005	19.995	103.180	20.141	-5.927	0.537
1296.000	728.645	80.006	19.993	103.181	20.137	-5.681	0.529
1296.501	728.894	80.006	19.995	103.180	20.139	-5.814	0.528
1297.001	729.169	80.005	19.995	103.180	20.137	-5.641	0.523
1297.501	729.402	80.004	19.993	103.180	20.143	-6.076	0.516
1298.001	729.640	80.006	19.995	103.180	20.142	-6.050	0.490
1298.500	729.920	80.004	19.994	103.179	20.136	-5.556	0.495
1299.001	730.206	80.005	19.994	103.180	20.134	-5.448	0.542
1299.501	730.475	80.003	19.994	103.181	20.140	-5.835	0.560
1300.001	730.741	80.004	19.994	103.183	20.136	-5.607	0.545
1300.501	731.016	80.005	19.994	103.183	20.140	-5.851	0.538
1301.000	731.280	80.004	19.995	103.183	20.137	-5.637	0.540
1301.500	731.548	80.005	19.995	103.183	20.139	-5.806	0.536
1302.001	731.808	80.004	19.994	103.181	20.138	-5.700	0.530
1302.501	732.064	80.004	19.994	103.181	20.141	-5.917	0.522
1303.000	732.318	80.005	19.994	103.180	20.141	-5.911	0.513
1303.500	732.610	80.004	19.995	103.181	20.140	-5.877	0.528
1304.000	732.870	80.005	19.994	103.180	20.138	-5.732	0.549
1304.500	733.117	80.003	19.995	103.180	20.143	-6.115	0.530
1305.000	733.364	80.004	19.994	103.181	20.142	-5.984	0.500
1305.501	733.641	80.004	19.995	103.181	20.139	-5.796	0.508
1306.001	733.922	80.005	19.994	103.181	20.142	-6.036	0.541
1306.501	734.137	80.005	19.995	103.181	20.142	-6.016	0.527
1307.001	734.415	80.006	19.995	103.180	20.137	-5.673	0.494
1307.501	734.707	80.005	19.995	103.180	20.140	-5.844	0.532
1308.000	734.913	80.004	19.995	103.180	20.138	-5.736	0.535
1308.500	735.191	80.005	19.993	103.180	20.139	-5.808	0.491
1309.000	735.470	80.006	19.994	103.180	20.141	-5.921	0.520
1309.500	735.744	80.005	19.995	103.180	20.145	-6.211	0.555
1310.000	735.986	80.007	19.995	103.180	20.138	-5.760	0.535
1310.500	736.258	80.005	19.995	103.180	20.136	-5.580	0.515
1311.000	736.509	80.005	19.994	103.180	20.143	-6.092	0.518
1311.500	736.784	80.005	19.994	103.180	20.138	-5.728	0.525
1312.001	737.030	80.006	19.995	103.181	20.139	-5.788	0.524
1312.501	737.253	80.007	19.995	103.181	20.137	-5.665	0.495
1313.000	737.495	80.006	19.994	103.182	20.143	-6.117	0.467
1313.500	737.800	80.005	19.995	103.181	20.140	-5.901	0.506
1314.001	738.044	80.007	19.994	103.181	20.139	-5.792	0.548
1314.501	738.288	80.006	19.995	103.182	20.138	-5.724	0.519
1315.001	738.529	80.006	19.995	103.182	20.140	-5.903	0.486
1315.501	738.819	80.005	19.994	103.182	20.143	-6.068	0.508
1316.001	739.089	80.007	19.995	103.183	20.140	-5.875	0.545
1316.500	739.340	80.005	19.994	103.182	20.139	-5.782	0.541
1317.000	739.615	80.006	19.996	103.180	20.140	-5.877	0.523
1317.500	739.865	80.007	19.994	103.180	20.141	-5.927	0.525
1318.000	740.135	80.006	19.994	103.179	20.143	-6.108	0.523
1318.500	740.362	80.005	19.995	103.178	20.139	-5.812	0.509
1319.000	740.658	80.006	19.996	103.177	20.144	-6.141	0.509
1319.500	740.902	80.007	19.994	103.178	20.139	-5.808	0.531
1320.000	741.167	80.005	19.995	103.177	20.140	-5.848	0.525
1320.500	741.444	80.006	19.994	103.177	20.139	-5.818	0.526
1321.001	741.671	80.006	19.995	103.177	20.138	-5.717	0.523
1321.501	741.917	80.006	19.994	103.177	20.136	-5.596	0.488
1322.000	742.193	80.005	19.994	103.177	20.139	-5.824	0.498
1322.500	742.429	80.007	19.994	103.177	20.134	-5.439	0.517
1323.000	742.701	80.006	19.994	103.178	20.142	-5.994	0.510
1323.500	742.914	80.005	19.995	103.177	20.135	-5.530	0.496
1324.000	743.167	80.007	19.994	103.180	20.140	-5.842	0.476
1324.500	743.423	80.007	19.994	103.180	20.139	-5.792	0.488
1325.000	743.689	80.006	19.995	103.180	20.141	-5.923	0.515
