Sample ID:	C:\MCC\MCC Cal\Test\Bamboo_RugB_MCC_30K_min_211129_R3.txt
Sample Weight (mg):	4.89
Heating Rate (C/s):	0.5
Combustor Temp (C):	900
N2 Flow Rate (cc/min):	80
O2 Flow Rate (cc/min):	20
Calibration File:	C:\MCC\MCC Cal\Coeff1 JN10440_30_210304.txt.txt
T Correction Coefficients:	0	1.024463	0
Time Shift (s):	14
*
Time (s)	Temperature (C)	N2 flow rate (cc/min)	O2 flow rate (cc/min)	Flow Rate (cc/min)	Oxygen (%)	HRR (W/g)	Heating rate (C/s)
0.000	110.763	80.003	19.995	103.120	20.248	-0.007	0.022
0.499	110.745	80.003	19.994	103.119	20.246	0.112	0.012
1.000	110.756	80.003	19.995	103.119	20.246	0.121	-0.005
1.500	110.723	80.003	19.995	103.114	20.248	-0.005	-0.015
2.000	110.726	80.003	19.993	103.110	20.251	-0.186	-0.026
2.500	110.738	80.004	19.995	103.108	20.247	0.049	-0.008
3.000	110.724	80.003	19.994	103.112	20.248	0.024	0.006
3.500	110.771	80.002	19.994	103.117	20.249	-0.076	0.016
4.000	110.708	80.004	19.996	103.125	20.249	-0.067	0.008
4.500	110.743	80.002	19.994	103.132	20.247	0.089	-0.022
5.000	110.728	80.001	19.995	103.137	20.248	0.007	-0.004
5.500	110.744	80.003	19.994	103.138	20.247	0.065	0.011
6.000	110.724	80.002	19.996	103.138	20.250	-0.103	-0.001
6.500	110.773	80.003	19.994	103.137	20.249	-0.040	0.012
7.000	110.711	80.003	19.995	103.137	20.251	-0.184	0.007
7.500	110.712	80.002	19.994	103.137	20.247	0.040	-0.037
8.000	110.738	80.003	19.994	103.137	20.250	-0.137	-0.017
8.500	110.705	80.003	19.995	103.138	20.250	-0.143	0.010
9.000	110.713	80.004	19.995	103.138	20.251	-0.192	-0.016
9.500	110.725	80.002	19.995	103.138	20.249	-0.063	-0.002
10.000	110.738	80.003	19.995	103.137	20.248	0.014	0.022
10.500	110.726	80.003	19.995	103.137	20.247	0.090	0.013
11.000	110.734	80.004	19.995	103.136	20.249	-0.043	-0.002
11.500	110.750	80.005	19.995	103.136	20.249	-0.051	0.010
12.000	110.740	80.003	19.994	103.136	20.251	-0.168	0.015
12.500	110.717	80.003	19.996	103.136	20.247	0.033	-0.014
13.000	110.729	80.004	19.995	103.135	20.249	-0.040	-0.022
13.500	110.736	80.005	19.996	103.136	20.249	-0.100	0.004
14.000	110.728	80.005	19.996	103.136	20.249	-0.036	0.009
14.500	110.706	80.005	19.995	103.135	20.252	-0.232	-0.015
15.000	110.726	80.004	19.995	103.135	20.249	-0.042	-0.016
15.500	110.725	80.005	19.994	103.137	20.249	-0.080	0.008
16.000	110.767	80.005	19.996	103.138	20.248	0.025	0.030
16.500	110.761	80.006	19.996	103.139	20.248	0.002	0.039
17.000	110.752	80.005	19.995	103.143	20.248	0.016	0.011
17.500	110.742	80.005	19.995	103.147	20.244	0.246	-0.017
18.000	110.764	80.004	19.995	103.150	20.247	0.065	-0.004
18.500	110.790	80.005	19.996	103.150	20.249	-0.051	0.030
19.000	110.781	80.004	19.995	103.151	20.245	0.179	0.033
19.500	110.773	80.007	19.995	103.148	20.244	0.268	0.000
20.000	110.780	80.005	19.996	103.145	20.244	0.264	-0.009
20.500	110.794	80.004	19.996	103.144	20.242	0.375	0.010
21.000	110.793	80.005	19.996	103.145	20.242	0.377	0.017
21.500	110.804	80.006	19.995	103.149	20.243	0.344	0.012
22.000	110.828	80.005	19.995	103.155	20.245	0.216	0.023
22.500	110.834	80.005	19.995	103.161	20.242	0.368	0.032
23.000	110.846	80.006	19.996	103.165	20.240	0.516	0.024
23.500	110.847	80.003	19.995	103.172	20.242	0.411	0.016
24.000	110.857	80.005	19.997	103.174	20.240	0.504	0.012
24.500	110.883	80.003	19.995	103.174	20.239	0.605	0.023
25.000	110.867	80.004	19.995	103.175	20.237	0.746	0.023
25.500	110.863	80.004	19.995	103.179	20.234	0.925	-0.005
26.000	110.912	80.003	19.994	103.186	20.235	0.864	0.012
26.500	110.923	80.003	19.994	103.197	20.234	0.924	0.053
27.000	110.928	80.004	19.993	103.211	20.232	1.030	0.038
27.500	110.972	80.005	19.994	103.228	20.232	1.043	0.033
28.000	110.948	80.004	19.995	103.241	20.232	1.021	0.034
28.500	111.000	80.005	19.993	103.251	20.229	1.219	0.023
29.000	111.025	80.005	19.995	103.262	20.228	1.328	0.052
29.500	111.059	80.005	19.993	103.270	20.227	1.375	0.068
30.000	111.065	80.004	19.994	103.276	20.223	1.621	0.050
30.500	111.074	80.004	19.995	103.284	20.226	1.454	0.028
31.000	111.107	80.003	19.993	103.291	20.227	1.384	0.029
31.500	111.177	80.004	19.994	103.293	20.227	1.375	0.073
32.000	111.177	80.005	19.994	103.295	20.226	1.476	0.086
32.499	111.210	80.004	19.993	103.296	20.223	1.632	0.051
32.999	111.284	80.005	19.994	103.296	20.223	1.645	0.070
33.499	111.296	80.005	19.994	103.297	20.226	1.427	0.097
33.999	111.324	80.006	19.993	103.296	20.224	1.592	0.063
34.499	111.344	80.005	19.994	103.293	20.222	1.734	0.044
34.999	111.369	80.005	19.994	103.289	20.225	1.531	0.047
35.499	111.464	80.004	19.994	103.286	20.224	1.612	0.083
35.999	111.513	80.006	19.994	103.279	20.221	1.790	0.132
36.500	111.573	80.006	19.993	103.274	20.219	1.901	0.126
37.000	111.600	80.006	19.994	103.276	20.220	1.819	0.098
37.499	111.662	80.005	19.995	103.279	20.223	1.649	0.088
37.999	111.717	80.005	19.994	103.279	20.220	1.837	0.103
38.499	111.793	80.004	19.992	103.280	20.222	1.741	0.123
39.000	111.838	80.005	19.993	103.284	20.221	1.756	0.126
39.500	111.907	80.007	19.994	103.284	20.220	1.850	0.118
39.999	111.956	80.006	19.994	103.284	20.222	1.730	0.116
40.499	112.013	80.006	19.995	103.286	20.218	1.986	0.112
40.999	112.075	80.006	19.993	103.288	20.219	1.932	0.112
41.499	112.137	80.004	19.994	103.289	20.219	1.917	0.121
41.999	112.203	80.005	19.994	103.290	20.220	1.848	0.126
42.500	112.280	80.006	19.994	103.290	20.216	2.115	0.136
43.000	112.335	80.005	19.993	103.292	20.220	1.814	0.138
43.500	112.426	80.006	19.993	103.295	20.217	2.024	0.139
44.000	112.500	80.005	19.993	103.300	20.219	1.921	0.155
44.499	112.553	80.005	19.993	103.301	20.218	1.994	0.146
44.999	112.632	80.005	19.994	103.305	20.216	2.097	0.129
45.499	112.739	80.005	19.993	103.309	20.218	1.979	0.159
46.000	112.784	80.005	19.994	103.315	20.216	2.108	0.169
46.500	112.865	80.004	19.993	103.315	20.218	2.008	0.139
46.999	112.934	80.005	19.995	103.320	20.214	2.211	0.138
47.499	113.065	80.004	19.994	103.321	20.215	2.162	0.175
47.999	113.121	80.003	19.995	103.322	20.215	2.191	0.194
48.499	113.178	80.003	19.994	103.324	20.214	2.225	0.150
48.999	113.275	80.001	19.993	103.327	20.217	2.059	0.133
49.500	113.394	80.003	19.995	103.328	20.213	2.296	0.185
50.000	113.441	80.002	19.994	103.331	20.214	2.218	0.191
50.499	113.515	80.003	19.993	103.334	20.211	2.410	0.144
50.999	113.643	80.002	19.994	103.335	20.210	2.533	0.162
51.499	113.697	80.002	19.993	103.336	20.213	2.291	0.192
51.999	113.802	80.003	19.994	103.340	20.208	2.613	0.170
52.499	113.904	80.002	19.994	103.342	20.211	2.421	0.183
52.999	113.971	80.003	19.994	103.347	20.209	2.551	0.188
53.499	114.079	80.002	19.994	103.354	20.210	2.502	0.172
53.999	114.211	80.003	19.993	103.357	20.209	2.559	0.207
54.499	114.301	80.004	19.994	103.357	20.208	2.622	0.231
54.999	114.402	80.003	19.993	103.359	20.210	2.528	0.207
55.499	114.511	80.003	19.994	103.360	20.210	2.503	0.200
55.999	114.625	80.002	19.995	103.359	20.210	2.498	0.216
56.500	114.712	80.002	19.994	103.357	20.211	2.427	0.212
57.000	114.833	80.004	19.994	103.355	20.210	2.518	0.205
57.499	114.944	80.002	19.994	103.350	20.209	2.539	0.220
57.999	115.051	80.003	19.994	103.344	20.206	2.777	0.225
58.499	115.147	80.003	19.993	103.337	20.207	2.726	0.210
58.999	115.316	80.002	19.994	103.339	20.205	2.835	0.234
59.499	115.418	80.004	19.993	103.345	20.208	2.608	0.268
59.999	115.553	80.003	19.995	103.350	20.205	2.837	0.254
60.499	115.634	80.002	19.992	103.352	20.208	2.623	0.226
60.999	115.733	80.003	19.994	103.355	20.205	2.820	0.198
61.499	115.870	80.002	19.994	103.353	20.207	2.688	0.208
61.999	116.000	80.004	19.994	103.347	20.206	2.784	0.251
62.499	116.113	80.002	19.994	103.342	20.208	2.616	0.255
62.999	116.259	80.004	19.994	103.340	20.207	2.719	0.251
63.499	116.388	80.003	19.994	103.336	20.208	2.621	0.267
63.999	116.503	80.003	19.994	103.333	20.207	2.694	0.260
64.499	116.605	80.004	19.994	103.334	20.207	2.697	0.231
64.999	116.728	80.003	19.994	103.339	20.208	2.654	0.221
65.499	116.912	80.004	19.994	103.345	20.208	2.654	0.266
65.999	117.039	80.004	19.994	103.349	20.204	2.906	0.309
66.499	117.174	80.004	19.993	103.355	20.208	2.614	0.287
66.999	117.322	80.003	19.992	103.360	20.205	2.821	0.273
67.499	117.455	80.003	19.994	103.362	20.205	2.826	0.282
67.999	117.586	80.003	19.994	103.361	20.204	2.908	0.272
68.499	117.689	80.003	19.994	103.362	20.206	2.783	0.249
68.999	117.845	80.003	19.994	103.364	20.205	2.808	0.247
69.499	117.995	80.004	19.994	103.365	20.203	2.985	0.282
69.999	118.130	80.003	19.995	103.366	20.206	2.779	0.295
70.499	118.283	80.004	19.994	103.368	20.205	2.846	0.286
70.999	118.445	80.003	19.994	103.370	20.203	2.935	0.302
71.499	118.548	80.004	19.994	103.371	20.205	2.848	0.290
71.999	118.716	80.005	19.993	103.372	20.204	2.924	0.268
72.499	118.856	80.003	19.993	103.372	20.201	3.080	0.289
72.999	118.973	80.003	19.994	103.372	20.202	3.047	0.283
73.499	119.191	80.004	19.994	103.374	20.202	3.011	0.296
73.999	119.334	80.004	19.994	103.373	20.202	3.042	0.348
74.500	119.465	80.003	19.995	103.375	20.201	3.087	0.318
75.000	119.625	80.002	19.994	103.376	20.200	3.149	0.283
75.499	119.786	80.004	19.993	103.378	20.200	3.149	0.306
75.999	119.954	80.003	19.994	103.377	20.199	3.250	0.325
76.500	120.127	80.004	19.994	103.377	20.200	3.163	0.335
77.001	120.304	80.004	19.995	103.377	20.202	3.047	0.345
77.500	120.438	80.003	19.994	103.377	20.201	3.127	0.330
77.999	120.607	80.003	19.995	103.375	20.201	3.103	0.307
78.499	120.795	80.003	19.995	103.375	20.199	3.205	0.330
78.999	120.951	80.003	19.994	103.375	20.200	3.178	0.350
79.499	121.112	80.003	19.995	103.374	20.201	3.111	0.330
79.999	121.304	80.003	19.996	103.372	20.199	3.214	0.335
80.499	121.485	80.004	19.994	103.372	20.204	2.933	0.363
80.999	121.673	80.002	19.995	103.372	20.201	3.105	0.371
81.499	121.809	80.001	19.997	103.372	20.200	3.198	0.346
81.999	121.980	80.003	19.995	103.372	20.201	3.080	0.315
82.499	122.156	80.002	19.996	103.373	20.198	3.290	0.327
82.999	122.303	80.004	19.995	103.372	20.200	3.165	0.336
83.499	122.488	80.005	19.995	103.373	20.200	3.181	0.327
83.999	122.696	80.003	19.994	103.372	20.198	3.268	0.362
84.499	122.844	80.004	19.995	103.372	20.200	3.183	0.375
84.999	123.063	80.003	19.996	103.372	20.206	2.744	0.362
85.499	123.233	80.002	19.995	103.372	20.199	3.257	0.378
85.999	123.419	80.003	19.995	103.371	20.201	3.072	0.372
86.500	123.573	80.002	19.994	103.372	20.198	3.286	0.348
87.000	123.731	80.002	19.994	103.373	20.202	3.022	0.327
87.499	123.924	80.003	19.995	103.374	20.200	3.167	0.332
87.999	124.101	80.003	19.996	103.377	20.203	2.944	0.360
88.499	124.281	80.004	19.996	103.377	20.201	3.111	0.363
88.999	124.477	80.003	19.994	103.377	20.202	3.015	0.367
89.499	124.704	80.004	19.995	103.377	20.199	3.254	0.400
89.999	124.864	80.004	19.994	103.377	20.199	3.256	0.405
90.499	125.029	80.003	19.995	103.373	20.201	3.116	0.356
90.999	125.242	80.004	19.995	103.374	20.198	3.274	0.351
91.499	125.410	80.003	19.995	103.374	20.200	3.154	0.379
92.000	125.617	80.005	19.994	103.374	20.200	3.132	0.377
92.501	125.804	80.004	19.995	103.373	20.202	3.044	0.384
93.000	125.991	80.004	19.994	103.373	20.199	3.247	0.384
93.499	126.193	80.005	19.994	103.372	20.199	3.247	0.382
93.999	126.377	80.004	19.994	103.372	20.197	3.375	0.387
94.499	126.548	80.006	19.993	103.370	20.200	3.182	0.370
95.000	126.754	80.004	19.994	103.371	20.200	3.182	0.366
95.500	126.952	80.004	19.994	103.372	20.196	3.441	0.390
95.999	127.151	80.005	19.995	103.372	20.193	3.599	0.401
96.499	127.356	80.004	19.994	103.373	20.194	3.537	0.401
97.000	127.512	80.004	19.995	103.373	20.194	3.541	0.383
97.500	127.716	80.004	19.994	103.373	20.197	3.363	0.360
97.999	127.922	80.005	19.994	103.374	20.196	3.400	0.385
98.500	128.128	80.005	19.995	103.374	20.194	3.557	0.411
99.000	128.348	80.004	19.994	103.376	20.197	3.385	0.419
99.499	128.531	80.005	19.994	103.381	20.197	3.379	0.415
99.999	128.702	80.004	19.995	103.388	20.196	3.454	0.379
100.499	128.920	80.005	19.996	103.390	20.192	3.720	0.371
100.999	129.140	80.005	19.994	103.391	20.193	3.637	0.414
101.500	129.367	80.005	19.994	103.389	20.198	3.296	0.442
102.000	129.559	80.003	19.995	103.385	20.196	3.431	0.433
102.499	129.725	80.003	19.995	103.380	20.193	3.614	0.389
102.999	129.914	80.003	19.995	103.378	20.192	3.668	0.357
103.499	130.130	80.005	19.994	103.378	20.194	3.561	0.380
103.999	130.336	80.003	19.995	103.378	20.193	3.642	0.413
104.499	130.574	80.005	19.995	103.378	20.190	3.840	0.433
104.999	130.756	80.002	19.995	103.379	20.193	3.627	0.432
105.500	130.975	80.004	19.995	103.382	20.194	3.537	0.410
106.000	131.173	80.004	19.995	103.386	20.194	3.577	0.409
106.499	131.369	80.004	19.995	103.389	20.195	3.463	0.406
106.999	131.602	80.003	19.996	103.395	20.191	3.738	0.411
107.499	131.830	80.003	19.995	103.399	20.193	3.622	0.445
107.999	132.026	80.002	19.996	103.400	20.193	3.659	0.442
108.499	132.217	80.003	19.996	103.401	20.193	3.632	0.406
108.999	132.459	80.002	19.996	103.401	20.194	3.584	0.410
109.499	132.673	80.003	19.997	103.396	20.193	3.615	0.445
110.000	132.845	80.004	19.996	103.392	20.192	3.667	0.421
110.500	133.088	80.004	19.995	103.390	20.192	3.705	0.400
110.999	133.285	80.004	19.996	103.389	20.194	3.586	0.427
111.499	133.515	80.002	19.995	103.392	20.194	3.576	0.433
111.999	133.742	80.003	19.994	103.395	20.192	3.683	0.442
112.500	133.981	80.004	19.996	103.399	20.195	3.508	0.462
113.000	134.177	80.003	19.995	103.403	20.196	3.415	0.451
113.499	134.412	80.002	19.995	103.405	20.191	3.756	0.433
113.999	134.621	80.003	19.995	103.400	20.192	3.684	0.438
114.499	134.856	80.004	19.995	103.397	20.193	3.624	0.444
114.999	135.060	80.002	19.994	103.391	20.194	3.564	0.441
115.500	135.289	80.004	19.996	103.387	20.198	3.310	0.436
116.000	135.531	80.003	19.995	103.381	20.193	3.616	0.452
116.499	135.728	80.005	19.995	103.380	20.194	3.553	0.455
116.999	135.920	80.004	19.993	103.382	20.198	3.290	0.414
117.499	136.165	80.005	19.995	103.384	20.193	3.597	0.413
118.000	136.364	80.006	19.994	103.386	20.196	3.433	0.440
118.500	136.601	80.005	19.995	103.393	20.199	3.227	0.440
118.999	136.855	80.006	19.994	103.398	20.197	3.392	0.464
119.499	137.070	80.005	19.994	103.395	20.195	3.482	0.480
119.999	137.323	80.006	19.993	103.393	20.195	3.510	0.469
120.499	137.549	80.006	19.993	103.389	20.196	3.446	0.474
120.999	137.766	80.006	19.994	103.382	20.194	3.530	0.461
121.499	137.965	80.007	19.995	103.376	20.196	3.453	0.429
121.999	138.189	80.006	19.994	103.374	20.199	3.252	0.419
122.499	138.441	80.006	19.994	103.374	20.195	3.488	0.450
122.999	138.666	80.007	19.995	103.373	20.196	3.451	0.477
123.499	138.918	80.006	19.993	103.377	20.196	3.432	0.477
123.999	139.143	80.006	19.994	103.378	20.197	3.363	0.477
124.499	139.351	80.006	19.994	103.380	20.198	3.301	0.455
124.999	139.607	80.006	19.994	103.380	20.195	3.473	0.448
125.500	139.813	80.006	19.993	103.379	20.194	3.542	0.463
126.000	140.093	80.007	19.994	103.374	20.195	3.477	0.474
126.499	140.280	80.004	19.994	103.374	20.200	3.174	0.477
126.999	140.549	80.006	19.994	103.375	20.196	3.428	0.462
127.499	140.772	80.005	19.994	103.376	20.195	3.468	0.474
127.999	140.999	80.006	19.994	103.378	20.194	3.546	0.470
128.500	141.248	80.005	19.994	103.377	20.197	3.332	0.463
129.000	141.492	80.005	19.994	103.376	20.198	3.283	0.485
129.500	141.723	80.005	19.993	103.374	20.196	3.410	0.484
130.000	141.973	80.004	19.994	103.380	20.196	3.406	0.478
130.500	142.211	80.003	19.993	103.380	20.196	3.441	0.484
131.000	142.401	80.005	19.994	103.381	20.197	3.377	0.458
131.500	142.696	80.003	19.993	103.382	20.195	3.464	0.456
132.000	142.912	80.003	19.993	103.380	20.197	3.394	0.498
132.500	143.199	80.003	19.995	103.375	20.195	3.522	0.507
133.000	143.410	80.004	19.994	103.374	20.199	3.250	0.501
133.500	143.673	80.004	19.994	103.374	20.197	3.373	0.486
134.000	143.904	80.004	19.994	103.375	20.198	3.297	0.484
134.500	144.130	80.004	19.995	103.380	20.194	3.589	0.475
135.000	144.399	80.003	19.994	103.382	20.199	3.250	0.475
135.500	144.637	80.004	19.995	103.381	20.195	3.515	0.501
136.000	144.908	80.005	19.993	103.381	20.197	3.356	0.508
136.500	145.125	80.003	19.993	103.382	20.196	3.424	0.499
137.000	145.324	80.004	19.994	103.378	20.195	3.473	0.452
137.500	145.614	80.003	19.994	103.381	20.198	3.299	0.452
138.000	145.846	80.002	19.994	103.381	20.193	3.606	0.505
138.500	146.101	80.003	19.995	103.380	20.196	3.408	0.504
139.000	146.355	80.005	19.993	103.378	20.195	3.488	0.498
139.500	146.568	80.004	19.994	103.377	20.195	3.482	0.488
140.000	146.841	80.004	19.995	103.372	20.195	3.473	0.477
140.500	147.093	80.005	19.994	103.373	20.196	3.428	0.506
141.000	147.334	80.004	19.993	103.376	20.198	3.317	0.509
141.500	147.572	80.004	19.994	103.382	20.196	3.426	0.486
142.000	147.813	80.004	19.994	103.385	20.195	3.469	0.479
142.500	148.058	80.004	19.996	103.385	20.195	3.495	0.483
143.000	148.322	80.003	19.995	103.385	20.195	3.462	0.497
143.500	148.563	80.004	19.994	103.381	20.197	3.339	0.507
144.000	148.806	80.005	19.994	103.376	20.197	3.354	0.495
144.500	149.024	80.004	19.994	103.375	20.196	3.433	0.473
145.000	149.289	80.004	19.994	103.379	20.197	3.344	0.472
145.500	149.532	80.004	19.993	103.380	20.195	3.517	0.495
146.000	149.782	80.003	19.995	103.382	20.197	3.337	0.501
146.500	150.012	80.003	19.994	103.382	20.197	3.372	0.486
147.000	150.279	80.003	19.994	103.380	20.196	3.455	0.488
147.500	150.527	80.004	19.995	103.377	20.195	3.498	0.507
148.000	150.788	80.005	19.995	103.376	20.196	3.449	0.512
148.500	150.991	80.003	19.995	103.377	20.196	3.460	0.486
149.000	151.283	80.005	19.995	103.378	20.200	3.192	0.480
149.500	151.515	80.005	19.994	103.377	20.197	3.337	0.509
150.000	151.744	80.004	19.995	103.376	20.193	3.647	0.492
150.500	152.010	80.005	19.994	103.375	20.194	3.593	0.478
151.000	152.251	80.004	19.994	103.372	20.194	3.546	0.501
151.500	152.522	80.002	19.995	103.371	20.196	3.421	0.510
152.000	152.766	80.004	19.994	103.371	20.192	3.665	0.514
152.500	152.999	80.004	19.995	103.372	20.192	3.673	0.496
153.000	153.255	80.004	19.994	103.371	20.190	3.830	0.483
153.500	153.489	80.005	19.994	103.373	20.191	3.738	0.490
154.000	153.744	80.003	19.995	103.375	20.193	3.611	0.489
154.500	153.983	80.005	19.993	103.375	20.194	3.587	0.492
155.000	154.204	80.005	19.994	103.375	20.191	3.734	0.477
155.500	154.490	80.003	19.994	103.375	20.193	3.636	0.484
156.000	154.692	80.004	19.994	103.374	20.193	3.631	0.498
156.500	154.949	80.003	19.994	103.372	20.191	3.758	0.473
157.000	155.241	80.004	19.992	103.373	20.192	3.702	0.504
157.500	155.446	80.003	19.994	103.373	20.194	3.591	0.523
158.000	155.698	80.003	19.993	103.373	20.193	3.654	0.477
158.500	155.964	80.004	19.995	103.371	20.189	3.872	0.488
159.000	156.228	80.003	19.993	103.370	20.189	3.857	0.524
159.500	156.474	80.005	19.995	103.370	20.192	3.665	0.519
160.000	156.695	80.004	19.995	103.370	20.189	3.870	0.489
160.500	156.925	80.003	19.994	103.370	20.193	3.620	0.459
161.000	157.237	80.004	19.994	103.372	20.189	3.917	0.497
161.500	157.500	80.003	19.994	103.373	20.191	3.739	0.558
162.000	157.749	80.004	19.994	103.373	20.193	3.642	0.543
162.500	157.995	80.003	19.993	103.373	20.191	3.789	0.503
163.000	158.238	80.004	19.994	103.373	20.189	3.888	0.492
163.500	158.477	80.005	19.994	103.374	20.193	3.598	0.486
164.000	158.705	80.004	19.994	103.374	20.189	3.890	0.475
164.500	158.956	80.005	19.993	103.372	20.189	3.868	0.473
165.000	159.192	80.003	19.994	103.370	20.189	3.862	0.483
165.500	159.444	80.004	19.993	103.369	20.188	3.951	0.487
166.000	159.705	80.003	19.994	103.369	20.190	3.811	0.501
166.500	159.949	80.002	19.995	103.369	20.188	3.974	0.509
167.000	160.202	80.002	19.994	103.372	20.191	3.731	0.501
167.500	160.439	80.002	19.995	103.374	20.191	3.756	0.493
168.000	160.701	80.003	19.994	103.375	20.190	3.798	0.494
168.500	160.961	80.003	19.995	103.375	20.190	3.811	0.510
169.000	161.240	80.003	19.994	103.375	20.189	3.889	0.530
169.500	161.480	80.005	19.994	103.374	20.191	3.765	0.529
170.000	161.717	80.003	19.993	103.374	20.190	3.807	0.499
170.500	161.989	80.005	19.996	103.370	20.187	4.032	0.493
171.000	162.246	80.004	19.993	103.367	20.190	3.843	0.519
171.500	162.482	80.003	19.994	103.367	20.186	4.070	0.511
172.000	162.745	80.004	19.994	103.367	20.189	3.872	0.496
172.500	162.986	80.003	19.995	103.368	20.187	4.019	0.501
173.000	163.242	80.003	19.995	103.371	20.191	3.789	0.501
173.500	163.485	80.004	19.994	103.373	20.192	3.724	0.498
174.000	163.765	80.004	19.994	103.371	20.192	3.702	0.511
174.500	164.012	80.003	19.995	103.369	20.192	3.677	0.525
175.000	164.271	80.004	19.993	103.367	20.191	3.725	0.516
175.500	164.536	80.005	19.994	103.362	20.194	3.542	0.515
176.000	164.815	80.004	19.994	103.359	20.193	3.649	0.534
176.500	165.076	80.005	19.994	103.355	20.192	3.691	0.542
177.000	165.291	80.004	19.995	103.350	20.195	3.495	0.508
177.500	165.553	80.005	19.993	103.345	20.193	3.647	0.477
178.000	165.793	80.005	19.994	103.343	20.192	3.722	0.490
178.500	166.054	80.004	19.995	103.338	20.193	3.638	0.502
179.000	166.337	80.006	19.993	103.335	20.194	3.555	0.522
179.500	166.572	80.006	19.994	103.335	20.195	3.521	0.531
180.000	166.805	80.005	19.993	103.335	20.194	3.546	0.493
180.500	167.065	80.004	19.995	103.335	20.194	3.549	0.481
181.000	167.329	80.006	19.994	103.335	20.196	3.435	0.509
181.500	167.563	80.005	19.994	103.335	20.192	3.681	0.511
182.000	167.831	80.006	19.993	103.335	20.194	3.571	0.499
182.500	168.058	80.005	19.994	103.335	20.192	3.685	0.498
183.000	168.343	80.004	19.995	103.337	20.191	3.781	0.504
183.500	168.548	80.006	19.994	103.340	20.192	3.663	0.501
184.000	168.811	80.006	19.993	103.339	20.195	3.520	0.479
184.500	169.072	80.005	19.995	103.337	20.193	3.607	0.496
185.000	169.323	80.005	19.995	103.337	20.191	3.738	0.518
185.500	169.532	80.005	19.996	103.335	20.194	3.575	0.486
186.000	169.810	80.005	19.994	103.332	20.193	3.600	0.474
186.500	170.028	80.005	19.995	103.332	20.191	3.743	0.492
187.000	170.318	80.005	19.994	103.333	20.190	3.852	0.502
187.500	170.532	80.005	19.994	103.331	20.192	3.667	0.505
188.000	170.828	80.004	19.994	103.330	20.193	3.618	0.507
188.500	171.050	80.003	19.995	103.330	20.191	3.749	0.515
189.000	171.272	80.006	19.993	103.330	20.191	3.745	0.481
189.500	171.551	80.005	19.995	103.330	20.193	3.651	0.472
190.000	171.755	80.006	19.994	103.331	20.194	3.571	0.491
190.500	171.994	80.005	19.994	103.329	20.195	3.473	0.462
191.000	172.264	80.005	19.995	103.327	20.195	3.501	0.476
191.500	172.506	80.004	19.995	103.326	20.193	3.631	0.511
192.000	172.724	80.006	19.993	103.324	20.194	3.539	0.486
192.500	172.923	80.004	19.994	103.319	20.194	3.533	0.438
193.000	173.204	80.005	19.995	103.319	20.192	3.671	0.448
193.500	173.481	80.003	19.995	103.320	20.190	3.792	0.519
194.000	173.652	80.004	19.996	103.321	20.193	3.618	0.503
194.500	173.917	80.005	19.995	103.322	20.195	3.501	0.442
195.000	174.133	80.004	19.994	103.325	20.193	3.600	0.459
195.500	174.380	80.005	19.994	103.326	20.194	3.546	0.472
196.000	174.618	80.004	19.995	103.326	20.192	3.722	0.474
196.500	174.871	80.006	19.996	103.324	20.194	3.553	0.488
197.000	175.099	80.005	19.994	103.321	20.193	3.651	0.486
197.500	175.323	80.005	19.995	103.323	20.195	3.486	0.466
198.000	175.582	80.005	19.994	103.324	20.191	3.763	0.467
198.500	175.779	80.005	19.996	103.325	20.191	3.733	0.469
199.000	176.042	80.006	19.994	103.326	20.190	3.816	0.458
199.500	176.270	80.005	19.994	103.330	20.193	3.635	0.476
200.000	176.497	80.005	19.995	103.329	20.191	3.742	0.473
200.500	176.729	80.005	19.995	103.329	20.191	3.785	0.457
201.000	176.946	80.005	19.994	103.327	20.193	3.620	0.455
201.500	177.229	80.004	19.995	103.328	20.192	3.678	0.475
202.000	177.441	80.006	19.995	103.328	20.194	3.566	0.497
202.500	177.704	80.007	19.995	103.328	20.197	3.377	0.485
203.000	177.909	80.006	19.996	103.327	20.193	3.620	0.471
203.500	178.164	80.006	19.995	103.327	20.193	3.653	0.464
204.000	178.445	80.006	19.996	103.326	20.194	3.586	0.498
204.500	178.637	80.007	19.995	103.327	20.195	3.484	0.505
205.000	178.867	80.006	19.995	103.326	20.192	3.685	0.448
205.500	179.095	80.006	19.995	103.327	20.192	3.678	0.440
206.000	179.286	80.007	19.996	103.330	20.190	3.838	0.439
206.500	179.525	80.005	19.994	103.329	20.191	3.743	0.425
207.000	179.779	80.006	19.994	103.328	20.187	3.990	0.461
207.500	180.006	80.007	19.993	103.329	20.191	3.760	0.487
208.000	180.258	80.007	19.995	103.329	20.190	3.836	0.480
208.500	180.462	80.005	19.996	103.328	20.191	3.778	0.468
209.000	180.700	80.006	19.995	103.329	20.191	3.731	0.449
209.500	180.954	80.005	19.997	103.330	20.189	3.868	0.467
210.000	181.206	80.005	19.995	103.330	20.193	3.638	0.500
210.500	181.411	80.004	19.995	103.328	20.188	3.971	0.482
211.000	181.642	80.005	19.994	103.328	20.190	3.814	0.446
211.500	181.877	80.004	19.995	103.328	20.187	4.042	0.451
212.000	182.103	80.005	19.994	103.326	20.190	3.847	0.464
212.500	182.340	80.004	19.994	103.325	20.193	3.606	0.462
213.000	182.587	80.004	19.994	103.326	20.189	3.894	0.473
213.500	182.802	80.004	19.994	103.325	20.189	3.862	0.473
214.000	183.029	80.005	19.995	103.325	20.189	3.903	0.452
214.500	183.273	80.005	19.994	103.326	20.186	4.114	0.457
215.000	183.501	80.003	19.994	103.327	20.187	3.992	0.472
215.500	183.734	80.004	19.994	103.328	20.189	3.878	0.466
216.000	183.976	80.003	19.993	103.330	20.188	3.983	0.468
216.500	184.200	80.003	19.994	103.327	20.185	4.137	0.470
217.000	184.433	80.003	19.994	103.328	20.187	4.043	0.462
217.500	184.631	80.003	19.995	103.328	20.188	3.965	0.444
218.000	184.873	80.003	19.994	103.327	20.186	4.109	0.435
218.500	185.091	80.003	19.994	103.326	20.184	4.226	0.450
219.000	185.338	80.004	19.995	103.325	20.184	4.230	0.462
219.500	185.583	80.004	19.995	103.326	20.187	4.025	0.479
220.000	185.828	80.003	19.993	103.325	20.185	4.140	0.491
220.500	186.037	80.003	19.994	103.319	20.187	4.036	0.472
221.000	186.278	80.003	19.995	103.315	20.185	4.184	0.452
221.500	186.542	80.003	19.994	103.318	20.185	4.166	0.478
222.000	186.780	80.004	19.995	103.318	20.185	4.160	0.503
222.500	187.030	80.002	19.993	103.321	20.187	4.008	0.494
223.000	187.240	80.003	19.995	103.329	20.185	4.177	0.474
223.500	187.465	80.004	19.994	103.339	20.186	4.086	0.448
224.000	187.706	80.004	19.994	103.340	20.182	4.366	0.451
224.500	187.909	80.003	19.994	103.341	20.185	4.177	0.455
225.000	188.149	80.003	19.994	103.344	20.184	4.242	0.444
225.500	188.382	80.003	19.994	103.348	20.182	4.324	0.457
226.000	188.632	80.003	19.994	103.345	20.182	4.367	0.478
226.500	188.876	80.004	19.994	103.347	20.183	4.309	0.489
227.000	189.120	80.005	19.994	103.352	20.182	4.325	0.491
227.500	189.323	80.003	19.993	103.351	20.180	4.472	0.468
228.000	189.619	80.003	19.994	103.351	20.181	4.408	0.473
228.500	189.832	80.004	19.994	103.350	20.181	4.390	0.504
229.000	190.041	80.003	19.994	103.353	20.181	4.390	0.466
229.500	190.293	80.004	19.994	103.351	20.180	4.468	0.442
230.000	190.531	80.003	19.994	103.354	20.179	4.553	0.476
230.500	190.788	80.005	19.994	103.356	20.182	4.371	0.493
231.000	191.031	80.004	19.994	103.357	20.180	4.504	0.498
231.500	191.251	80.003	19.994	103.353	20.181	4.420	0.481
232.000	191.489	80.004	19.994	103.348	20.180	4.451	0.460
232.500	191.722	80.003	19.994	103.340	20.179	4.580	0.464
233.000	191.998	80.004	19.993	103.336	20.181	4.390	0.490
233.500	192.203	80.003	19.993	103.339	20.179	4.551	0.495
234.000	192.481	80.003	19.994	103.339	20.177	4.700	0.482
234.500	192.730	80.004	19.994	103.343	20.178	4.644	0.505
235.000	192.981	80.005	19.993	103.347	20.181	4.441	0.513
235.500	193.229	80.005	19.994	103.347	20.178	4.606	0.500
236.000	193.510	80.004	19.994	103.341	20.178	4.640	0.515
236.500	193.731	80.005	19.994	103.340	20.176	4.718	0.516
237.000	193.981	80.004	19.995	103.336	20.178	4.602	0.486
237.500	194.208	80.003	19.994	103.331	20.177	4.662	0.473
238.000	194.470	80.003	19.994	103.329	20.178	4.611	0.483
238.500	194.713	80.003	19.993	103.330	20.177	4.683	0.497
239.000	194.990	80.002	19.994	103.326	20.181	4.419	0.513
239.500	195.221	80.003	19.993	103.322	20.178	4.631	0.514
240.000	195.429	80.003	19.994	103.320	20.176	4.741	0.473
240.500	195.656	80.002	19.994	103.317	20.178	4.620	0.437
241.000	195.896	80.004	19.994	103.313	20.178	4.591	0.451
241.500	196.177	80.003	19.994	103.311	20.179	4.533	0.494
242.000	196.373	80.004	19.994	103.311	20.181	4.433	0.499
242.500	196.647	80.002	19.994	103.307	20.177	4.696	0.473
243.000	196.906	80.004	19.994	103.308	20.174	4.845	0.502
243.500	197.153	80.003	19.994	103.311	20.179	4.537	0.520
244.000	197.350	80.003	19.994	103.319	20.180	4.457	0.475
244.500	197.608	80.004	19.994	103.321	20.180	4.495	0.449
245.000	197.877	80.003	19.995	103.326	20.179	4.553	0.491
245.500	198.127	80.004	19.994	103.330	20.178	4.615	0.523
246.000	198.347	80.002	19.994	103.328	20.179	4.517	0.494
246.500	198.606	80.003	19.994	103.325	20.180	4.500	0.475
247.000	198.809	80.004	19.994	103.325	20.179	4.576	0.471
247.500	199.051	80.004	19.994	103.324	20.179	4.516	0.454
248.000	199.299	80.005	19.994	103.322	20.177	4.708	0.467
248.500	199.502	80.004	19.994	103.318	20.177	4.697	0.470
249.000	199.811	80.004	19.994	103.315	20.178	4.618	0.482
249.500	200.004	80.004	19.993	103.313	20.174	4.872	0.507
250.000	200.255	80.004	19.994	103.314	20.177	4.651	0.473
250.500	200.507	80.005	19.994	103.316	20.177	4.694	0.474
251.000	200.762	80.005	19.994	103.318	20.178	4.587	0.505
251.500	200.991	80.005	19.994	103.319	20.177	4.661	0.495
252.000	201.228	80.005	19.993	103.322	20.176	4.739	0.475
252.500	201.464	80.004	19.993	103.321	20.178	4.629	0.469
253.000	201.706	80.005	19.994	103.321	20.178	4.625	0.475
253.500	201.937	80.006	19.994	103.325	20.175	4.812	0.476
254.000	202.194	80.005	19.993	103.329	20.178	4.603	0.481
254.500	202.386	80.005	19.994	103.330	20.174	4.895	0.468
255.000	202.646	80.005	19.994	103.330	20.179	4.551	0.450
255.500	202.896	80.005	19.994	103.331	20.176	4.767	0.481
256.000	203.088	80.005	19.995	103.330	20.176	4.713	0.477
256.500	203.376	80.006	19.994	103.327	20.176	4.716	0.461
257.000	203.636	80.004	19.994	103.323	20.177	4.678	0.514
257.500	203.844	80.005	19.994	103.316	20.175	4.781	0.508
258.000	204.091	80.006	19.994	103.309	20.174	4.892	0.461
258.500	204.334	80.007	19.994	103.304	20.176	4.752	0.473
259.000	204.580	80.006	19.994	103.303	20.176	4.775	0.490
259.500	204.772	80.005	19.994	103.307	20.175	4.829	0.464
260.000	205.030	80.007	19.994	103.314	20.176	4.761	0.444
260.500	205.256	80.007	19.994	103.318	20.177	4.648	0.467
261.000	205.477	80.006	19.994	103.318	20.176	4.718	0.465
261.500	205.735	80.004	19.995	103.319	20.174	4.881	0.463
262.000	205.977	80.005	19.995	103.314	20.174	4.888	0.490
262.500	206.199	80.007	19.994	103.313	20.177	4.665	0.482
263.000	206.452	80.005	19.995	103.314	20.178	4.627	0.469
263.500	206.689	80.005	19.994	103.313	20.174	4.848	0.482
264.000	206.905	80.006	19.994	103.310	20.176	4.743	0.471
264.500	207.153	80.005	19.994	103.312	20.173	4.918	0.458
265.000	207.430	80.005	19.994	103.311	20.172	4.989	0.495
265.500	207.653	80.004	19.995	103.312	20.174	4.904	0.513
266.000	207.881	80.005	19.994	103.318	20.171	5.058	0.476
266.500	208.079	80.005	19.995	103.322	20.174	4.882	0.438
267.000	208.340	80.004	19.994	103.323	20.174	4.908	0.442
267.500	208.541	80.005	19.995	103.323	20.168	5.299	0.461
268.000	208.801	80.005	19.996	103.321	20.173	4.973	0.462
268.500	209.043	80.005	19.995	103.319	20.169	5.199	0.481
269.000	209.275	80.006	19.994	103.317	20.170	5.127	0.488
269.500	209.526	80.005	19.994	103.312	20.173	4.931	0.478
270.000	209.789	80.004	19.994	103.308	20.172	5.018	0.499
270.500	210.018	80.005	19.995	103.305	20.171	5.105	0.503
271.000	210.213	80.005	19.995	103.306	20.172	5.014	0.458
271.500	210.499	80.005	19.995	103.309	20.170	5.169	0.452
272.000	210.734	80.005	19.995	103.313	20.170	5.147	0.501
272.500	210.949	80.005	19.995	103.320	20.170	5.135	0.485
273.000	211.201	80.005	19.994	103.326	20.173	4.962	0.458
273.500	211.437	80.004	19.994	103.324	20.171	5.056	0.478
274.000	211.668	80.004	19.994	103.321	20.172	5.029	0.478
274.500	211.918	80.005	19.994	103.319	20.171	5.089	0.474
275.000	212.124	80.005	19.995	103.312	20.173	4.935	0.468
275.500	212.311	80.006	19.995	103.306	20.171	5.105	0.425
276.000	212.579	80.006	19.994	103.301	20.170	5.136	0.425
276.500	212.837	80.005	19.995	103.301	20.170	5.173	0.490
277.000	213.065	80.005	19.994	103.305	20.171	5.093	0.506
277.500	213.317	80.006	19.994	103.313	20.173	4.939	0.483
278.000	213.605	80.005	19.995	103.314	20.171	5.090	0.510
278.500	213.813	80.005	19.993	103.319	20.169	5.202	0.518
279.000	214.012	80.005	19.994	103.318	20.169	5.224	0.451
279.500	214.246	80.007	19.994	103.312	20.169	5.233	0.420
280.000	214.500	80.005	19.993	103.309	20.170	5.141	0.461
280.500	214.724	80.005	19.994	103.308	20.171	5.057	0.483
281.000	214.980	80.005	19.994	103.304	20.168	5.278	0.479
281.500	215.185	80.007	19.995	103.307	20.168	5.267	0.471
282.000	215.419	80.008	19.993	103.310	20.167	5.324	0.450
282.500	215.656	80.006	19.993	103.313	20.170	5.161	0.455
283.000	215.884	80.006	19.994	103.319	20.170	5.132	0.468
283.500	216.101	80.007	19.994	103.323	20.172	5.025	0.455
284.000	216.341	80.007	19.994	103.318	20.170	5.159	0.451
284.500	216.621	80.006	19.994	103.316	20.170	5.110	0.488
285.000	216.876	80.007	19.994	103.312	20.168	5.260	0.528
285.500	217.119	80.005	19.994	103.308	20.169	5.233	0.517
286.000	217.336	80.006	19.995	103.310	20.168	5.258	0.479
286.500	217.578	80.006	19.995	103.317	20.168	5.280	0.459
287.000	217.767	80.006	19.995	103.322	20.169	5.197	0.445
287.500	218.047	80.006	19.995	103.327	20.169	5.190	0.451
288.000	218.276	80.005	19.995	103.331	20.166	5.412	0.489
288.500	218.524	80.007	19.996	103.331	20.168	5.253	0.493
289.000	218.755	80.004	19.996	103.332	20.168	5.302	0.478
289.500	218.987	80.005	19.994	103.334	20.165	5.490	0.471
290.000	219.223	80.003	19.995	103.336	20.166	5.407	0.465
290.500	219.478	80.004	19.994	103.338	20.165	5.485	0.479
291.000	219.726	80.003	19.995	103.338	20.166	5.376	0.497
291.500	219.977	80.003	19.995	103.338	20.164	5.546	0.502
292.000	220.197	80.004	19.995	103.336	20.164	5.543	0.485
292.500	220.446	80.002	19.996	103.334	20.164	5.548	0.470
293.000	220.680	80.003	19.994	103.333	20.163	5.583	0.476
293.500	220.941	80.003	19.994	103.333	20.165	5.477	0.489
294.000	221.148	80.004	19.995	103.334	20.168	5.260	0.481
294.500	221.400	80.003	19.996	103.336	20.165	5.477	0.464
295.000	221.656	80.003	19.995	103.336	20.161	5.758	0.484
295.500	221.910	80.003	19.995	103.336	20.161	5.758	0.509
296.000	222.219	80.002	19.995	103.336	20.161	5.746	0.536
296.500	222.418	80.003	19.995	103.335	20.161	5.742	0.536
297.000	222.707	80.002	19.996	103.333	20.160	5.806	0.498
297.500	222.942	80.002	19.995	103.333	20.162	5.697	0.506
298.000	223.171	80.003	19.995	103.333	20.161	5.704	0.494
298.500	223.448	80.002	19.995	103.333	20.162	5.662	0.485
299.000	223.680	80.002	19.995	103.333	20.161	5.749	0.508
299.500	223.937	80.002	19.995	103.332	20.160	5.802	0.499
300.000	224.204	80.003	19.996	103.331	20.162	5.657	0.506
300.500	224.415	80.003	19.995	103.328	20.158	5.936	0.501
301.000	224.675	80.004	19.995	103.327	20.162	5.646	0.474
301.500	224.959	80.002	19.994	103.327	20.159	5.838	0.508
302.000	225.174	80.003	19.995	103.328	20.161	5.764	0.521
302.500	225.393	80.003	19.995	103.328	20.159	5.885	0.467
303.000	225.669	80.003	19.994	103.332	20.160	5.818	0.465
303.500	225.939	80.002	19.995	103.333	20.157	6.005	0.520
304.000	226.176	80.004	19.994	103.330	20.154	6.181	0.526
304.500	226.452	80.002	19.994	103.328	20.157	5.987	0.510
305.000	226.705	80.003	19.994	103.328	20.155	6.110	0.521
305.500	226.967	80.004	19.994	103.328	20.159	5.874	0.522
306.000	227.203	80.002	19.994	103.328	20.154	6.167	0.507
306.500	227.436	80.003	19.994	103.331	20.154	6.182	0.484
307.000	227.705	80.002	19.993	103.334	20.159	5.898	0.486
307.500	227.995	80.003	19.994	103.334	20.155	6.121	0.530
308.000	228.266	80.004	19.994	103.332	20.156	6.036	0.560
308.500	228.497	80.003	19.993	103.330	20.157	6.008	0.532
309.000	228.767	80.004	19.993	103.330	20.156	6.034	0.501
309.500	229.030	80.005	19.994	103.330	20.160	5.822	0.517
310.000	229.272	80.003	19.994	103.331	20.158	5.952	0.519
310.500	229.559	80.004	19.994	103.333	20.154	6.170	0.517
311.000	229.788	80.004	19.994	103.334	20.158	5.914	0.522
311.500	230.062	80.004	19.994	103.334	20.159	5.891	0.509
312.000	230.323	80.004	19.994	103.334	20.159	5.842	0.519
312.500	230.622	80.005	19.993	103.334	20.156	6.070	0.548
313.000	230.870	80.006	19.993	103.334	20.155	6.161	0.553
313.500	231.107	80.006	19.994	103.335	20.153	6.268	0.516
314.000	231.387	80.006	19.994	103.335	20.152	6.328	0.501
314.500	231.626	80.004	19.994	103.334	20.153	6.279	0.518
315.000	231.872	80.005	19.993	103.333	20.151	6.382	0.503
315.500	232.154	80.006	19.994	103.330	20.152	6.331	0.507
316.000	232.408	80.003	19.994	103.326	20.153	6.289	0.532
316.500	232.645	80.004	19.993	103.324	20.153	6.271	0.513
317.000	232.908	80.005	19.994	103.324	20.153	6.291	0.496
317.500	233.164	80.005	19.994	103.324	20.155	6.150	0.510
318.000	233.403	80.005	19.993	103.326	20.153	6.235	0.507
318.500	233.717	80.005	19.994	103.329	20.152	6.307	0.524
319.000	233.956	80.005	19.994	103.331	20.153	6.273	0.553
319.500	234.221	80.004	19.994	103.332	20.151	6.416	0.528
320.000	234.466	80.005	19.994	103.333	20.151	6.394	0.506
320.500	234.722	80.003	19.994	103.333	20.150	6.442	0.505
321.000	234.997	80.005	19.995	103.331	20.153	6.269	0.516
321.500	235.273	80.006	19.995	103.331	20.151	6.416	0.541
322.000	235.503	80.004	19.995	103.330	20.152	6.338	0.528
322.500	235.816	80.005	19.994	103.330	20.150	6.433	0.525
323.000	236.059	80.004	19.994	103.330	20.152	6.312	0.549
323.500	236.326	80.005	19.995	103.332	20.151	6.394	0.533
324.000	236.591	80.005	19.994	103.332	20.148	6.602	0.521
324.500	236.856	80.004	19.994	103.336	20.150	6.487	0.531
325.000	237.088	80.004	19.995	103.339	20.148	6.568	0.513
325.500	237.391	80.004	19.994	103.339	20.147	6.670	0.516
326.000	237.658	80.003	19.994	103.339	20.147	6.688	0.552
326.500	237.894	80.004	19.994	103.339	20.147	6.635	0.536
327.000	238.145	80.004	19.993	103.334	20.148	6.571	0.495
327.500	238.421	80.004	19.995	103.331	20.147	6.685	0.506
328.000	238.638	80.003	19.995	103.329	20.144	6.870	0.510
328.500	238.946	80.004	19.996	103.328	20.147	6.674	0.510
329.000	239.184	80.004	19.994	103.328	20.146	6.740	0.535
329.500	239.482	80.004	19.993	103.328	20.146	6.723	0.541
330.000	239.704	80.004	19.994	103.329	20.146	6.707	0.528
330.500	240.024	80.004	19.994	103.331	20.147	6.634	0.531
331.000	240.243	80.003	19.995	103.332	20.145	6.798	0.540
331.500	240.534	80.004	19.995	103.332	20.143	6.899	0.524
332.000	240.789	80.005	19.995	103.331	20.144	6.856	0.528
332.500	241.030	80.005	19.994	103.327	20.144	6.879	0.521
333.000	241.295	80.004	19.995	103.321	20.143	6.927	0.500
333.500	241.563	80.006	19.994	103.318	20.140	7.101	0.519
334.000	241.822	80.005	19.995	103.319	20.140	7.104	0.530
334.500	242.063	80.005	19.994	103.320	20.141	7.044	0.513
335.000	242.350	80.004	19.995	103.324	20.140	7.142	0.514
335.500	242.608	80.005	19.994	103.330	20.137	7.338	0.537
336.000	242.903	80.005	19.994	103.332	20.140	7.130	0.549
336.500	243.155	80.005	19.994	103.331	20.136	7.407	0.550
337.000	243.377	80.004	19.994	103.327	20.134	7.508	0.511
337.500	243.635	80.006	19.995	103.323	20.136	7.352	0.477
338.000	243.895	80.006	19.993	103.322	20.139	7.213	0.499
338.500	244.175	80.007	19.994	103.320	20.136	7.407	0.529
339.000	244.436	80.006	19.995	103.317	20.136	7.376	0.540
339.500	244.694	80.008	19.993	103.319	20.135	7.463	0.530
340.000	244.950	80.006	19.993	103.322	20.136	7.378	0.516
340.500	245.209	80.007	19.995	103.318	20.131	7.703	0.514
341.000	245.481	80.007	19.994	103.316	20.134	7.500	0.524
341.500	245.767	80.006	19.995	103.317	20.134	7.505	0.545
342.000	246.015	80.007	19.995	103.319	20.132	7.670	0.546
342.500	246.278	80.008	19.993	103.319	20.130	7.792	0.522
343.000	246.528	80.006	19.993	103.322	20.129	7.853	0.512
343.500	246.772	80.006	19.994	103.323	20.129	7.868	0.503
344.000	247.017	80.006	19.993	103.325	20.130	7.806	0.491
344.500	247.300	80.007	19.994	103.324	20.127	7.946	0.508
345.000	247.510	80.005	19.994	103.325	20.125	8.103	0.511
345.500	247.813	80.006	19.993	103.325	20.124	8.163	0.503
346.000	248.061	80.004	19.993	103.327	20.124	8.190	0.532
346.500	248.337	80.006	19.993	103.326	20.122	8.328	0.538
347.000	248.582	80.006	19.994	103.326	20.121	8.341	0.522
347.500	248.873	80.005	19.993	103.322	20.123	8.254	0.529
348.000	249.093	80.006	19.994	103.323	20.119	8.478	0.524
348.500	249.371	80.007	19.994	103.324	20.117	8.620	0.504
349.000	249.646	80.005	19.994	103.325	20.116	8.683	0.525
349.500	249.890	80.006	19.995	103.326	20.116	8.716	0.536
350.000	250.174	80.005	19.994	103.330	20.118	8.602	0.524
350.500	250.425	80.004	19.994	103.331	20.115	8.792	0.532
351.000	250.664	80.005	19.993	103.333	20.117	8.660	0.512
351.500	250.961	80.004	19.994	103.333	20.115	8.736	0.513
352.000	251.229	80.005	19.994	103.333	20.114	8.848	0.551
352.500	251.482	80.005	19.994	103.334	20.112	8.994	0.543
353.000	251.760	80.004	19.995	103.334	20.114	8.831	0.526
353.500	252.026	80.004	19.995	103.334	20.112	8.960	0.537
354.000	252.264	80.004	19.994	103.334	20.109	9.168	0.524
354.500	252.525	80.005	19.994	103.335	20.106	9.364	0.501
355.000	252.784	80.004	19.996	103.334	20.105	9.431	0.509
355.500	253.041	80.005	19.994	103.335	20.106	9.361	0.518
356.000	253.341	80.006	19.996	103.334	20.106	9.384	0.537
356.500	253.575	80.004	19.997	103.335	20.105	9.413	0.546
357.000	253.821	80.005	19.995	103.335	20.104	9.519	0.507
357.500	254.091	80.005	19.994	103.336	20.102	9.627	0.498
358.000	254.306	80.006	19.996	103.335	20.100	9.783	0.500
358.500	254.588	80.005	19.995	103.336	20.101	9.703	0.491
359.000	254.880	80.006	19.996	103.335	20.097	9.949	0.536
359.500	255.094	80.005	19.994	103.333	20.100	9.734	0.540
360.000	255.403	80.005	19.995	103.333	20.098	9.920	0.514
360.500	255.614	80.006	19.995	103.333	20.095	10.091	0.522
361.000	255.907	80.005	19.995	103.334	20.093	10.227	0.512
361.500	256.138	80.006	19.995	103.335	20.093	10.209	0.514
362.000	256.392	80.006	19.995	103.335	20.091	10.376	0.504
362.500	256.632	80.007	19.995	103.333	20.090	10.390	0.490
363.000	256.911	80.006	19.995	103.331	20.089	10.464	0.507
363.500	257.166	80.006	19.995	103.329	20.088	10.555	0.526
364.000	257.444	80.008	19.994	103.329	20.087	10.629	0.533
364.500	257.657	80.006	19.994	103.329	20.084	10.781	0.512
365.000	257.935	80.006	19.994	103.330	20.083	10.888	0.491
365.500	258.173	80.006	19.995	103.332	20.084	10.813	0.504
366.000	258.489	80.006	19.994	103.333	20.079	11.143	0.535
366.500	258.736	80.007	19.994	103.334	20.081	11.028	0.559
367.000	258.969	80.005	19.994	103.334	20.081	10.998	0.522
367.500	259.263	80.005	19.995	103.334	20.078	11.184	0.503
368.000	259.468	80.005	19.994	103.335	20.077	11.305	0.513
368.500	259.761	80.005	19.994	103.334	20.074	11.455	0.498
369.000	259.973	80.006	19.995	103.332	20.072	11.573	0.501
369.500	260.232	80.005	19.994	103.331	20.072	11.595	0.488
370.000	260.522	80.006	19.994	103.331	20.075	11.408	0.510
370.500	260.795	80.005	19.994	103.331	20.073	11.513	0.556
371.000	261.026	80.005	19.994	103.331	20.070	11.761	0.534
371.500	261.266	80.006	19.995	103.334	20.068	11.860	0.488
372.000	261.521	80.004	19.994	103.336	20.068	11.896	0.483
372.500	261.764	80.003	19.993	103.336	20.065	12.032	0.497
373.000	261.996	80.004	19.994	103.336	20.064	12.150	0.487
373.500	262.272	80.003	19.994	103.336	20.064	12.112	0.491
374.000	262.530	80.003	19.994	103.334	20.060	12.361	0.521
374.500	262.775	80.003	19.994	103.334	20.059	12.447	0.519
375.000	263.044	80.003	19.993	103.334	20.056	12.667	0.508
375.500	263.321	80.003	19.994	103.335	20.059	12.474	0.530
376.000	263.509	80.004	19.994	103.336	20.053	12.826	0.505
376.500	263.806	80.004	19.994	103.338	20.054	12.804	0.475
377.000	264.024	80.002	19.994	103.340	20.053	12.871	0.500
377.500	264.291	80.004	19.995	103.339	20.051	13.018	0.500
378.000	264.531	80.004	19.994	103.339	20.046	13.324	0.496
378.500	264.750	80.004	19.994	103.338	20.049	13.117	0.484
379.000	265.011	80.003	19.995	103.335	20.050	13.050	0.469
379.500	265.260	80.004	19.994	103.333	20.047	13.283	0.495
380.000	265.556	80.005	19.994	103.333	20.049	13.137	0.527
380.500	265.794	80.003	19.995	103.332	20.043	13.501	0.540
381.000	266.042	80.004	19.994	103.332	20.045	13.378	0.510
381.500	266.292	80.005	19.995	103.331	20.042	13.557	0.492
382.000	266.517	80.004	19.994	103.332	20.040	13.710	0.486
382.500	266.785	80.004	19.995	103.335	20.042	13.556	0.484
383.000	266.996	80.004	19.995	103.336	20.041	13.625	0.486
383.500	267.291	80.004	19.995	103.336	20.039	13.788	0.493
384.000	267.494	80.003	19.997	103.336	20.040	13.724	0.502
384.500	267.787	80.003	19.996	103.335	20.037	13.909	0.497
385.000	268.041	80.004	19.995	103.334	20.036	13.983	0.522
385.500	268.249	80.003	19.994	103.338	20.033	14.208	0.504
386.000	268.450	80.003	19.996	103.345	20.035	14.034	0.435
386.500	268.721	80.004	19.996	103.352	20.032	14.213	0.440
387.000	268.959	80.004	19.994	103.358	20.028	14.488	0.491
387.500	269.216	80.004	19.997	103.363	20.032	14.244	0.502
388.000	269.424	80.003	19.995	103.365	20.025	14.727	0.480
388.500	269.702	80.003	19.996	103.366	20.024	14.765	0.475
389.000	269.911	80.004	19.996	103.367	20.021	14.949	0.487
389.500	270.184	80.003	19.995	103.365	20.022	14.927	0.484
390.000	270.423	80.003	19.995	103.362	20.024	14.798	0.497
390.500	270.677	80.005	19.996	103.358	20.022	14.876	0.502
391.000	270.944	80.004	19.996	103.351	20.019	15.114	0.507
391.500	271.181	80.004	19.995	103.345	20.020	15.056	0.513
392.000	271.400	80.003	19.995	103.345	20.019	15.098	0.480
392.500	271.662	80.004	19.995	103.347	20.015	15.388	0.469
393.000	271.899	80.005	19.995	103.347	20.015	15.350	0.491
393.500	272.137	80.003	19.995	103.353	20.014	15.422	0.487
394.000	272.392	80.004	19.995	103.354	20.011	15.648	0.484
394.500	272.643	80.005	19.995	103.353	20.011	15.634	0.499
395.000	272.891	80.003	19.995	103.347	20.009	15.735	0.502
395.500	273.114	80.004	19.994	103.349	20.009	15.754	0.485
396.000	273.382	80.005	19.995	103.349	20.004	16.083	0.481
396.500	273.601	80.003	19.995	103.347	20.002	16.220	0.488
397.000	273.816	80.006	19.994	103.345	20.002	16.193	0.460
397.500	274.105	80.004	19.994	103.346	20.002	16.199	0.469
398.000	274.344	80.005	19.994	103.340	20.000	16.325	0.517
398.500	274.602	80.004	19.995	103.335	20.000	16.360	0.513
399.000	274.785	80.004	19.995	103.339	20.000	16.371	0.468
399.500	275.039	80.005	19.994	103.341	19.996	16.634	0.439
400.000	275.271	80.005	19.994	103.345	19.994	16.729	0.462
400.500	275.522	80.004	19.995	103.348	19.994	16.776	0.485
401.000	275.782	80.004	19.994	103.354	19.992	16.894	0.497
401.500	276.020	80.004	19.994	103.356	19.988	17.152	0.504
402.000	276.213	80.004	19.995	103.359	19.986	17.269	0.464
402.500	276.469	80.005	19.994	103.360	19.987	17.200	0.440
403.000	276.705	80.005	19.994	103.364	19.984	17.403	0.471
403.500	276.931	80.004	19.995	103.364	19.982	17.510	0.477
404.000	277.171	80.005	19.994	103.362	19.984	17.434	0.464
404.500	277.426	80.005	19.994	103.358	19.983	17.463	0.481
405.000	277.629	80.003	19.995	103.356	19.982	17.534	0.477
405.500	277.910	80.005	19.994	103.356	19.979	17.722	0.471
406.000	278.151	80.004	19.994	103.356	19.982	17.526	0.503
406.500	278.336	80.005	19.994	103.359	19.978	17.827	0.474
407.000	278.624	80.003	19.994	103.364	19.976	17.968	0.449
407.500	278.845	80.004	19.994	103.365	19.976	17.914	0.491
408.000	279.074	80.005	19.994	103.361	19.977	17.856	0.480
408.500	279.369	80.004	19.995	103.355	19.973	18.148	0.487
409.000	279.570	80.003	19.994	103.353	19.973	18.132	0.510
409.500	279.809	80.003	19.994	103.353	19.973	18.154	0.468
410.000	280.030	80.005	19.994	103.354	19.973	18.159	0.450
410.500	280.273	80.003	19.994	103.354	19.973	18.105	0.462
411.000	280.508	80.003	19.995	103.358	19.973	18.150	0.471
411.500	280.761	80.004	19.994	103.360	19.971	18.277	0.483
412.000	281.012	80.004	19.994	103.362	19.969	18.369	0.496
412.500	281.254	80.004	19.994	103.364	19.967	18.543	0.498
413.000	281.504	80.004	19.993	103.369	19.969	18.420	0.493
413.500	281.705	80.002	19.994	103.372	19.967	18.538	0.472
414.000	281.950	80.004	19.995	103.372	19.967	18.525	0.449
414.500	282.157	80.004	19.994	103.372	19.966	18.605	0.450
415.000	282.411	80.004	19.994	103.372	19.966	18.576	0.456
415.500	282.626	80.004	19.994	103.372	19.965	18.674	0.464
416.000	282.910	80.004	19.994	103.371	19.962	18.866	0.484
416.500	283.100	80.004	19.994	103.370	19.961	18.911	0.487
417.000	283.340	80.004	19.993	103.368	19.962	18.884	0.452
417.500	283.586	80.004	19.994	103.368	19.961	18.929	0.458
418.000	283.887	80.004	19.994	103.369	19.958	19.118	0.516
418.500	284.079	80.005	19.994	103.370	19.958	19.102	0.520
419.000	284.329	80.005	19.994	103.371	19.956	19.267	0.468
419.500	284.546	80.004	19.994	103.372	19.957	19.189	0.454
420.000	284.798	80.004	19.995	103.372	19.952	19.522	0.468
420.500	285.036	80.006	19.995	103.372	19.954	19.377	0.480
421.000	285.269	80.005	19.995	103.371	19.951	19.572	0.481
421.500	285.505	80.005	19.994	103.370	19.953	19.459	0.470
422.000	285.730	80.005	19.994	103.370	19.950	19.662	0.465
422.500	286.021	80.006	19.993	103.370	19.949	19.737	0.488
423.000	286.269	80.004	19.994	103.371	19.950	19.648	0.528
423.500	286.527	80.006	19.993	103.371	19.948	19.784	0.523
424.000	286.739	80.005	19.994	103.372	19.947	19.822	0.488
424.500	286.960	80.006	19.995	103.372	19.948	19.771	0.451
425.000	287.171	80.006	19.993	103.372	19.943	20.138	0.433
425.500	287.500	80.005	19.993	103.371	19.942	20.161	0.486
426.000	287.681	80.004	19.994	103.370	19.941	20.248	0.525
426.500	287.930	80.004	19.993	103.370	19.941	20.219	0.470
427.000	288.169	80.004	19.994	103.369	19.939	20.397	0.459
427.500	288.438	80.004	19.994	103.369	19.939	20.406	0.498
428.000	288.642	80.006	19.993	103.370	19.938	20.415	0.490
428.500	288.898	80.004	19.994	103.370	19.938	20.447	0.466
429.000	289.131	80.004	19.993	103.371	19.934	20.728	0.474
429.500	289.385	80.004	19.994	103.371	19.935	20.649	0.488
430.000	289.607	80.004	19.994	103.371	19.936	20.549	0.482
430.500	289.871	80.005	19.994	103.371	19.934	20.742	0.481
431.000	290.091	80.004	19.994	103.372	19.938	20.460	0.485
431.500	290.314	80.004	19.994	103.373	19.931	20.909	0.463
432.000	290.582	80.004	19.994	103.373	19.932	20.857	0.467
432.500	290.802	80.003	19.993	103.374	19.929	21.036	0.489
433.000	291.044	80.005	19.993	103.375	19.931	20.905	0.475
433.500	291.305	80.004	19.994	103.375	19.934	20.707	0.482
434.000	291.519	80.004	19.993	103.375	19.932	20.846	0.489
434.500	291.766	80.004	19.995	103.375	19.932	20.836	0.468
435.000	292.023	80.004	19.994	103.375	19.930	20.995	0.482
435.500	292.256	80.006	19.993	103.375	19.930	20.969	0.497
436.000	292.474	80.004	19.994	103.376	19.930	20.979	0.471
436.500	292.718	80.006	19.994	103.376	19.928	21.111	0.457
437.000	292.944	80.005	19.993	103.375	19.927	21.205	0.466
437.500	293.222	80.005	19.993	103.375	19.925	21.279	0.487
438.000	293.441	80.006	19.994	103.374	19.923	21.443	0.500
438.500	293.681	80.003	19.994	103.374	19.920	21.663	0.478
439.000	293.923	80.005	19.994	103.375	19.922	21.505	0.471
439.500	294.156	80.005	19.994	103.375	19.919	21.719	0.479
440.000	294.375	80.005	19.993	103.375	19.917	21.818	0.463
440.500	294.625	80.005	19.993	103.376	19.917	21.824	0.460
441.000	294.879	80.005	19.994	103.377	19.919	21.726	0.486
441.500	295.106	80.006	19.993	103.379	19.916	21.897	0.492
442.000	295.416	80.007	19.994	103.383	19.914	22.035	0.509
442.500	295.610	80.006	19.994	103.383	19.914	22.047	0.521
443.000	295.837	80.006	19.993	103.384	19.912	22.156	0.462
443.500	296.092	80.007	19.994	103.383	19.912	22.197	0.451
444.000	296.328	80.005	19.995	103.381	19.910	22.299	0.487
444.500	296.593	80.006	19.994	103.376	19.910	22.293	0.497
445.000	296.855	80.008	19.994	103.376	19.908	22.434	0.514
445.500	297.105	80.007	19.994	103.378	19.908	22.454	0.519
446.000	297.355	80.006	19.994	103.383	19.907	22.482	0.506
446.500	297.582	80.007	19.994	103.389	19.907	22.484	0.489
447.000	297.847	80.006	19.994	103.394	19.906	22.584	0.484
447.500	298.125	80.006	19.994	103.400	19.906	22.577	0.517
448.000	298.414	80.007	19.995	103.401	19.904	22.684	0.555
448.500	298.643	80.007	19.996	103.400	19.901	22.912	0.543
449.000	298.881	80.007	19.994	103.396	19.899	23.052	0.492
449.500	299.130	80.006	19.995	103.395	19.901	22.893	0.477
450.000	299.395	80.006	19.994	103.395	19.900	22.927	0.501
450.500	299.633	80.006	19.993	103.396	19.897	23.141	0.509
451.000	299.921	80.005	19.994	103.399	19.895	23.281	0.515
451.500	300.137	80.006	19.996	103.403	19.895	23.299	0.515
452.000	300.398	80.006	19.995	103.406	19.896	23.221	0.490
452.500	300.640	80.006	19.994	103.408	19.895	23.267	0.490
453.000	300.879	80.005	19.994	103.407	19.894	23.345	0.492
453.500	301.155	80.005	19.994	103.406	19.892	23.502	0.499
454.000	301.454	80.005	19.994	103.405	19.892	23.495	0.545
454.500	301.683	80.005	19.994	103.401	19.888	23.782	0.551
455.000	301.943	80.004	19.994	103.394	19.888	23.771	0.509
455.500	302.201	80.003	19.994	103.390	19.885	23.930	0.504
456.000	302.460	80.004	19.996	103.391	19.886	23.914	0.517
456.500	302.716	80.005	19.994	103.391	19.882	24.132	0.516
457.000	302.958	80.004	19.995	103.396	19.881	24.223	0.506
457.500	303.273	80.004	19.995	103.402	19.878	24.395	0.527
458.000	303.526	80.004	19.995	103.405	19.880	24.287	0.563
458.500	303.775	80.004	19.995	103.405	19.875	24.609	0.535
459.000	304.038	80.004	19.995	103.406	19.873	24.717	0.506
459.500	304.309	80.004	19.995	103.407	19.874	24.701	0.523
460.000	304.571	80.005	19.995	103.407	19.873	24.763	0.534
460.500	304.826	80.004	19.995	103.408	19.868	25.072	0.525
461.000	305.096	80.004	19.995	103.408	19.866	25.191	0.521
461.500	305.375	80.005	19.995	103.408	19.866	25.181	0.537
462.000	305.658	80.003	19.995	103.408	19.867	25.160	0.556
462.500	305.870	80.005	19.995	103.408	19.862	25.462	0.529
463.000	306.176	80.005	19.994	103.408	19.863	25.423	0.507
463.500	306.477	80.005	19.994	103.408	19.859	25.655	0.563
464.000	306.710	80.003	19.993	103.409	19.857	25.788	0.571
464.500	306.985	80.004	19.995	103.409	19.856	25.890	0.521
465.000	307.244	80.004	19.994	103.409	19.853	26.039	0.520
465.500	307.543	80.004	19.994	103.409	19.851	26.168	0.546
466.000	307.826	80.005	19.994	103.409	19.849	26.302	0.570
466.500	308.094	80.004	19.994	103.409	19.850	26.292	0.567
467.000	308.338	80.003	19.995	103.410	19.847	26.480	0.531
467.500	308.616	80.003	19.994	103.410	19.845	26.625	0.517
468.000	308.859	80.003	19.995	103.411	19.843	26.750	0.522
468.500	309.135	80.006	19.994	103.412	19.841	26.833	0.520
469.000	309.435	80.004	19.995	103.415	19.838	27.045	0.547
469.500	309.692	80.004	19.994	103.419	19.839	26.991	0.566
470.000	309.950	80.004	19.995	103.423	19.833	27.387	0.536
470.500	310.235	80.003	19.995	103.425	19.831	27.545	0.529
471.000	310.493	80.003	19.994	103.424	19.831	27.517	0.543
471.500	310.780	80.005	19.995	103.422	19.828	27.743	0.544
472.000	311.048	80.004	19.995	103.417	19.826	27.829	0.550
472.500	311.298	80.003	19.995	103.414	19.824	28.016	0.537
473.000	311.602	80.004	19.996	103.412	19.820	28.221	0.536
473.500	311.877	80.003	19.994	103.414	19.819	28.293	0.567
474.000	312.137	80.005	19.995	103.418	19.817	28.461	0.557
474.500	312.438	80.004	19.995	103.423	19.814	28.668	0.548
475.000	312.665	80.003	19.994	103.426	19.810	28.882	0.544
475.500	312.963	80.004	19.994	103.428	19.809	28.957	0.527
476.000	313.217	80.004	19.995	103.428	19.809	28.984	0.539
476.500	313.514	80.003	19.995	103.430	19.806	29.157	0.551
477.000	313.765	80.003	19.996	103.432	19.803	29.369	0.549
477.500	314.027	80.004	19.995	103.435	19.802	29.463	0.530
478.000	314.316	80.003	19.995	103.440	19.799	29.645	0.532
478.500	314.591	80.003	19.995	103.444	19.793	30.020	0.558
479.000	314.848	80.003	19.996	103.444	19.792	30.126	0.548
479.500	315.133	80.003	19.995	103.443	19.788	30.335	0.537
480.000	315.406	80.003	19.996	103.443	19.785	30.532	0.550
480.500	315.677	80.005	19.996	103.443	19.779	30.939	0.551
481.000	315.946	80.003	19.996	103.445	19.780	30.889	0.541
481.500	316.194	80.004	19.995	103.446	19.773	31.365	0.528
482.000	316.465	80.003	19.996	103.448	19.770	31.562	0.518
482.500	316.747	80.002	19.995	103.449	19.764	31.948	0.536
483.000	317.045	80.004	19.996	103.449	19.763	31.988	0.566
483.500	317.276	80.003	19.995	103.449	19.766	31.826	0.554
484.000	317.570	80.003	19.995	103.449	19.761	32.125	0.527
484.500	317.822	80.004	19.996	103.448	19.755	32.517	0.536
485.000	318.102	80.003	19.996	103.447	19.752	32.730	0.539
485.500	318.355	80.003	19.996	103.447	19.748	32.990	0.532
486.000	318.640	80.003	19.995	103.447	19.748	33.038	0.535
486.500	318.909	80.002	19.996	103.447	19.741	33.481	0.546
487.000	319.170	80.002	19.995	103.448	19.737	33.762	0.542
487.500	319.453	80.003	19.995	103.450	19.734	33.934	0.537
488.000	319.690	80.004	19.996	103.450	19.730	34.201	0.532
488.500	319.955	80.003	19.995	103.450	19.725	34.551	0.511
489.000	320.228	80.003	19.996	103.450	19.723	34.687	0.520
489.500	320.478	80.002	19.995	103.450	19.719	34.918	0.530
490.000	320.774	80.003	19.995	103.451	19.716	35.127	0.534
490.500	321.066	80.004	19.995	103.453	19.714	35.269	0.567
491.000	321.324	80.003	19.995	103.457	19.707	35.751	0.569
491.500	321.579	80.004	19.995	103.459	19.705	35.863	0.532
492.000	321.841	80.003	19.995	103.461	19.698	36.308	0.515
492.500	322.114	80.003	19.995	103.463	19.695	36.516	0.525
493.000	322.394	80.004	19.994	103.462	19.691	36.794	0.544
493.500	322.659	80.003	19.994	103.460	19.684	37.231	0.549
494.000	322.900	80.004	19.995	103.460	19.680	37.541	0.526
494.500	323.126	80.003	19.994	103.463	19.676	37.817	0.486
495.000	323.429	80.005	19.994	103.468	19.671	38.101	0.498
495.500	323.686	80.004	19.995	103.475	19.668	38.347	0.544
496.000	323.972	80.002	19.995	103.483	19.661	38.814	0.552
496.500	324.243	80.003	19.995	103.490	19.654	39.268	0.550
497.000	324.493	80.003	19.995	103.492	19.650	39.540	0.539
497.500	324.749	80.003	19.996	103.492	19.646	39.765	0.514
498.000	325.015	80.003	19.995	103.492	19.640	40.196	0.514
498.500	325.261	80.004	19.995	103.492	19.633	40.662	0.517
499.000	325.546	80.004	19.996	103.492	19.627	41.002	0.522
499.500	325.821	80.005	19.994	103.492	19.623	41.294	0.546
500.000	326.086	80.004	19.994	103.497	19.617	41.720	0.550
500.500	326.359	80.005	19.995	103.502	19.610	42.138	0.539
501.000	326.616	80.003	19.994	103.508	19.604	42.530	0.534
501.500	326.841	80.004	19.993	103.514	19.598	42.972	0.506
502.000	327.087	80.005	19.993	103.520	19.588	43.596	0.477
502.500	327.378	80.005	19.994	103.521	19.584	43.920	0.504
503.000	327.615	80.005	19.993	103.523	19.575	44.453	0.532
503.500	327.887	80.004	19.994	103.525	19.570	44.848	0.518
504.000	328.147	80.006	19.994	103.527	19.564	45.248	0.521
504.500	328.448	80.004	19.993	103.530	19.557	45.686	0.547
505.000	328.692	80.004	19.994	103.535	19.551	46.060	0.552
505.500	328.941	80.005	19.994	103.540	19.543	46.638	0.519
506.000	329.251	80.004	19.994	103.546	19.535	47.177	0.527
506.500	329.511	80.004	19.994	103.553	19.528	47.584	0.565
507.000	329.757	80.005	19.993	103.560	19.517	48.311	0.538
507.500	330.000	80.004	19.994	103.563	19.513	48.582	0.497
508.000	330.295	80.005	19.994	103.567	19.504	49.227	0.513
508.500	330.516	80.005	19.995	103.567	19.494	49.854	0.527
509.000	330.811	80.006	19.996	103.567	19.484	50.517	0.516
509.500	331.062	80.004	19.994	103.567	19.477	50.996	0.531
510.000	331.294	80.006	19.994	103.567	19.465	51.789	0.515
510.500	331.549	80.005	19.994	103.566	19.454	52.508	0.486
511.000	331.818	80.005	19.996	103.569	19.445	53.128	0.505
511.500	332.093	80.006	19.994	103.574	19.434	53.890	0.534
512.000	332.362	80.005	19.995	103.581	19.425	54.456	0.544
512.500	332.614	80.006	19.995	103.588	19.415	55.150	0.532
513.000	332.869	80.005	19.995	103.595	19.400	56.147	0.514
513.500	333.115	80.004	19.995	103.600	19.390	56.761	0.504
514.000	333.403	80.006	19.994	103.602	19.380	57.478	0.518
514.500	333.653	80.005	19.994	103.605	19.369	58.174	0.536
515.000	333.913	80.005	19.994	103.610	19.359	58.836	0.524
515.500	334.165	80.004	19.994	103.618	19.342	59.968	0.511
516.000	334.462	80.005	19.995	103.625	19.334	60.524	0.530
516.500	334.669	80.004	19.994	103.633	19.320	61.425	0.527
517.000	334.944	80.004	19.994	103.639	19.307	62.297	0.493
517.500	335.190	80.004	19.995	103.644	19.295	63.089	0.502
518.000	335.481	80.005	19.994	103.645	19.281	64.046	0.529
518.500	335.723	80.005	19.995	103.648	19.267	64.969	0.535
519.000	335.998	80.005	19.994	103.655	19.253	65.873	0.525
519.500	336.237	80.005	19.996	103.662	19.243	66.573	0.516
520.000	336.495	80.006	19.994	103.670	19.227	67.584	0.505
520.500	336.759	80.005	19.993	103.679	19.212	68.602	0.509
521.000	337.014	80.005	19.994	103.690	19.200	69.391	0.521
521.500	337.301	80.004	19.994	103.698	19.185	70.391	0.531
522.000	337.528	80.007	19.995	103.706	19.166	71.641	0.528
522.500	337.801	80.006	19.995	103.714	19.155	72.386	0.507
523.000	338.034	80.006	19.994	103.721	19.138	73.512	0.503
523.500	338.298	80.006	19.993	103.725	19.125	74.358	0.501
524.000	338.596	80.006	19.994	103.730	19.105	75.681	0.529
524.500	338.835	80.007	19.994	103.737	19.088	76.855	0.550
525.000	339.096	80.008	19.994	103.745	19.072	77.879	0.519
525.500	339.313	80.007	19.994	103.750	19.057	78.902	0.489
526.000	339.608	80.005	19.994	103.757	19.040	79.999	0.495
526.500	339.829	80.006	19.993	103.760	19.019	81.371	0.514
527.000	340.101	80.007	19.994	103.759	19.007	82.217	0.505
527.500	340.382	80.007	19.994	103.760	18.988	83.415	0.523
528.000	340.622	80.008	19.994	103.763	18.973	84.427	0.537
528.500	340.866	80.008	19.994	103.767	18.956	85.544	0.503
529.000	341.130	80.007	19.994	103.767	18.938	86.708	0.496
529.500	341.396	80.007	19.994	103.774	18.924	87.665	0.519
530.000	341.656	80.007	19.995	103.781	18.908	88.679	0.528
530.500	341.902	80.007	19.993	103.786	18.892	89.757	0.516
531.000	342.127	80.007	19.994	103.790	18.874	90.903	0.489
531.500	342.404	80.007	19.994	103.800	18.858	92.003	0.487
532.000	342.659	80.008	19.994	103.801	18.845	92.793	0.517
532.500	342.913	80.007	19.994	103.802	18.831	93.768	0.521
533.000	343.157	80.007	19.994	103.802	18.813	94.906	0.504
533.500	343.414	80.007	19.993	103.802	18.800	95.807	0.499
534.000	343.677	80.007	19.994	103.800	18.788	96.575	0.511
534.500	343.897	80.006	19.993	103.800	18.773	97.546	0.502
535.000	344.144	80.006	19.994	103.800	18.760	98.391	0.475
535.500	344.413	80.005	19.994	103.800	18.746	99.304	0.491
536.000	344.683	80.005	19.994	103.800	18.736	99.970	0.527
536.500	344.912	80.005	19.995	103.800	18.721	100.912	0.519
537.000	345.181	80.004	19.994	103.799	18.712	101.525	0.498
537.500	345.455	80.005	19.995	103.798	18.706	101.888	0.520
538.000	345.659	80.006	19.995	103.796	18.695	102.585	0.510
538.500	345.900	80.003	19.995	103.793	18.689	102.995	0.461
539.000	346.194	80.005	19.994	103.791	18.684	103.314	0.490
539.500	346.432	80.004	19.995	103.783	18.676	103.803	0.534
540.000	346.699	80.003	19.995	103.774	18.672	104.080	0.519
540.500	346.901	80.004	19.994	103.763	18.670	104.196	0.487
541.000	347.174	80.003	19.995	103.751	18.669	104.236	0.472
541.500	347.444	80.002	19.996	103.732	18.669	104.207	0.508
542.000	347.640	80.003	19.994	103.717	18.669	104.204	0.504
542.500	347.901	80.004	19.995	103.705	18.673	103.975	0.462
543.000	348.137	80.005	19.995	103.693	18.683	103.268	0.477
543.500	348.414	80.004	19.996	103.683	18.687	103.043	0.505
544.000	348.656	80.003	19.996	103.675	18.699	102.237	0.516
544.500	348.919	80.002	19.995	103.668	18.707	101.675	0.512
545.000	349.153	80.002	19.995	103.659	18.714	101.227	0.501
545.500	349.412	80.004	19.995	103.648	18.726	100.393	0.495
546.000	349.658	80.003	19.995	103.635	18.740	99.461	0.499
546.500	349.878	80.005	19.995	103.623	18.757	98.345	0.486
547.000	350.134	80.003	19.995	103.607	18.770	97.474	0.471
547.500	350.397	80.003	19.995	103.589	18.786	96.443	0.498
548.000	350.623	80.003	19.995	103.571	18.806	95.116	0.504
548.500	350.858	80.003	19.995	103.556	18.826	93.822	0.475
549.000	351.130	80.003	19.996	103.539	18.843	92.696	0.484
549.500	351.363	80.004	19.995	103.523	18.864	91.267	0.506
550.000	351.637	80.003	19.995	103.510	18.886	89.838	0.506
550.500	351.853	80.005	19.994	103.502	18.911	88.179	0.499
551.000	352.127	80.004	19.995	103.490	18.932	86.816	0.490
551.500	352.376	80.003	19.994	103.478	18.958	85.086	0.506
552.000	352.617	80.004	19.994	103.470	18.979	83.728	0.507
552.500	352.844	80.005	19.995	103.462	19.004	82.076	0.479
553.000	353.130	80.005	19.995	103.454	19.028	80.454	0.490
553.500	353.337	80.005	19.995	103.450	19.053	78.811	0.503
554.000	353.587	80.004	19.996	103.444	19.078	77.193	0.475
554.500	353.855	80.002	19.994	103.436	19.105	75.411	0.487
555.000	354.087	80.003	19.994	103.428	19.129	73.819	0.509
555.500	354.316	80.005	19.994	103.417	19.152	72.262	0.481
556.000	354.550	80.003	19.994	103.407	19.180	70.470	0.462
556.500	354.791	80.004	19.994	103.406	19.207	68.651	0.469
557.000	355.041	80.004	19.995	103.404	19.230	67.159	0.483
557.500	355.269	80.005	19.995	103.399	19.252	65.721	0.484
558.000	355.502	80.005	19.994	103.396	19.273	64.309	0.469
558.500	355.741	80.004	19.994	103.391	19.299	62.610	0.467
559.000	355.977	80.005	19.994	103.384	19.319	61.286	0.474
559.500	356.207	80.002	19.993	103.378	19.340	59.880	0.470
560.000	356.435	80.004	19.994	103.376	19.364	58.323	0.462
560.500	356.679	80.003	19.994	103.377	19.382	57.091	0.465
561.000	356.930	80.003	19.994	103.376	19.404	55.638	0.484
561.500	357.137	80.003	19.994	103.376	19.423	54.433	0.476
562.000	357.411	80.004	19.995	103.377	19.443	53.056	0.469
562.500	357.622	80.003	19.995	103.376	19.459	52.059	0.483
563.000	357.843	80.002	19.994	103.374	19.482	50.515	0.459
563.500	358.127	80.003	19.995	103.375	19.501	49.256	0.468
564.000	358.352	80.003	19.994	103.375	19.515	48.366	0.507
564.500	358.574	80.003	19.994	103.374	19.532	47.219	0.478
565.000	358.810	80.003	19.993	103.373	19.546	46.330	0.453
565.500	359.093	80.003	19.994	103.373	19.558	45.503	0.489
566.000	359.319	80.003	19.995	103.372	19.576	44.336	0.514
566.500	359.531	80.002	19.995	103.372	19.592	43.273	0.473
567.000	359.774	80.002	19.994	103.373	19.603	42.514	0.446
567.500	360.010	80.004	19.995	103.374	19.615	41.727	0.467
568.000	360.248	80.002	19.996	103.374	19.629	40.824	0.476
568.500	360.512	80.004	19.995	103.374	19.640	40.115	0.488
569.000	360.708	80.003	19.996	103.371	19.653	39.205	0.481
569.500	360.963	80.004	19.994	103.367	19.660	38.786	0.456
570.000	361.250	80.003	19.996	103.362	19.673	37.914	0.497
570.500	361.509	80.003	19.996	103.358	19.682	37.320	0.544
571.000	361.745	80.003	19.997	103.356	19.688	36.915	0.520
571.500	361.972	80.002	19.995	103.358	19.700	36.136	0.479
572.000	362.205	80.004	19.996	103.358	19.708	35.589	0.462
572.500	362.453	80.001	19.996	103.359	19.715	35.144	0.471
573.000	362.660	80.003	19.996	103.361	19.724	34.576	0.467
573.500	362.922	80.003	19.995	103.360	19.729	34.217	0.462
574.000	363.186	80.004	19.995	103.361	19.741	33.466	0.498
574.500	363.380	80.003	19.995	103.362	19.746	33.125	0.492
575.000	363.618	80.004	19.995	103.366	19.750	32.831	0.445
575.500	363.872	80.003	19.995	103.366	19.758	32.303	0.462
576.000	364.143	80.004	19.996	103.368	19.764	31.937	0.508
576.500	364.376	80.002	19.995	103.367	19.768	31.622	0.514
577.000	364.584	80.004	19.996	103.368	19.772	31.357	0.473
577.500	364.808	80.004	19.997	103.367	19.778	30.967	0.437
578.000	365.051	80.005	19.995	103.366	19.780	30.835	0.449
578.500	365.315	80.005	19.995	103.360	19.786	30.461	0.488
579.000	365.560	80.004	19.996	103.353	19.788	30.359	0.508
579.500	365.810	80.005	19.997	103.346	19.790	30.207	0.502
580.000	366.043	80.003	19.995	103.339	19.793	30.012	0.489
580.500	366.277	80.005	19.995	103.333	19.797	29.727	0.475
581.000	366.530	80.005	19.996	103.332	19.801	29.495	0.477
581.500	366.767	80.004	19.996	103.335	19.804	29.242	0.489
582.000	367.011	80.004	19.995	103.341	19.807	29.064	0.485
582.500	367.271	80.004	19.996	103.348	19.811	28.804	0.493
583.000	367.526	80.004	19.996	103.354	19.812	28.721	0.509
583.500	367.727	80.006	19.995	103.356	19.815	28.550	0.485
584.000	367.969	80.006	19.997	103.359	19.815	28.566	0.450
584.500	368.236	80.007	19.994	103.360	19.817	28.427	0.476
585.000	368.474	80.004	19.996	103.356	19.824	27.992	0.507
585.500	368.722	80.006	19.995	103.352	19.823	28.028	0.495
586.000	368.972	80.005	19.994	103.350	19.825	27.898	0.492
586.500	369.258	80.005	19.994	103.346	19.826	27.840	0.517
587.000	369.477	80.005	19.995	103.343	19.826	27.811	0.520
587.500	369.696	80.004	19.994	103.344	19.831	27.510	0.471
588.000	369.946	80.004	19.995	103.347	19.829	27.653	0.453
588.500	370.196	80.006	19.991	103.351	19.831	27.480	0.485
589.000	370.436	80.007	19.993	103.353	19.833	27.347	0.496
589.500	370.662	80.007	19.993	103.356	19.833	27.369	0.478
590.000	370.915	80.006	19.995	103.355	19.832	27.447	0.472
590.500	371.138	80.005	19.994	103.351	19.836	27.160	0.477
591.000	371.404	80.006	19.994	103.346	19.833	27.389	0.483
591.500	371.651	80.005	19.995	103.345	19.835	27.212	0.501
592.000	371.903	80.004	19.995	103.344	19.835	27.217	0.506
592.500	372.139	80.005	19.995	103.341	19.835	27.242	0.494
593.000	372.370	80.006	19.993	103.346	19.836	27.194	0.477
593.500	372.584	80.005	19.994	103.354	19.835	27.205	0.456
594.000	372.868	80.006	19.995	103.357	19.834	27.276	0.472
594.500	373.130	80.006	19.994	103.359	19.837	27.086	0.522
595.000	373.358	80.006	19.995	103.366	19.836	27.176	0.518
595.500	373.618	80.007	19.995	103.368	19.837	27.106	0.489
596.000	373.860	80.004	19.995	103.368	19.837	27.091	0.495
596.500	374.137	80.006	19.994	103.368	19.839	26.999	0.511
597.000	374.371	80.004	19.994	103.369	19.837	27.083	0.515
597.500	374.586	80.005	19.996	103.370	19.840	26.877	0.480
598.000	374.824	80.005	19.995	103.370	19.841	26.870	0.451
598.500	375.109	80.005	19.994	103.370	19.838	27.053	0.488
599.000	375.307	80.005	19.995	103.370	19.838	27.011	0.503
599.500	375.554	80.005	19.995	103.367	19.839	26.973	0.464
600.000	375.826	80.006	19.995	103.362	19.840	26.902	0.482
600.500	376.064	80.005	19.995	103.357	19.843	26.687	0.515
601.000	376.317	80.006	19.995	103.351	19.840	26.923	0.500
601.500	376.570	80.006	19.995	103.348	19.837	27.118	0.498
602.000	376.801	80.004	19.994	103.349	19.837	27.084	0.495
602.500	377.050	80.006	19.995	103.353	19.837	27.123	0.482
603.000	377.318	80.006	19.994	103.359	19.834	27.308	0.499
603.500	377.547	80.006	19.995	103.362	19.838	27.069	0.508
604.000	377.799	80.006	19.994	103.365	19.837	27.118	0.489
604.500	378.042	80.006	19.995	103.367	19.837	27.109	0.487
605.000	378.284	80.005	19.994	103.367	19.838	27.040	0.490
605.500	378.499	80.006	19.994	103.364	19.839	26.995	0.471
606.000	378.753	80.006	19.994	103.365	19.835	27.222	0.463
606.500	379.007	80.005	19.993	103.362	19.837	27.097	0.488
607.000	379.254	80.007	19.994	103.362	19.835	27.257	0.504
607.500	379.509	80.006	19.993	103.362	19.836	27.166	0.502
608.000	379.742	80.005	19.994	103.365	19.833	27.371	0.495
608.500	380.013	80.005	19.995	103.366	19.830	27.567	0.496
609.000	380.223	80.005	19.994	103.367	19.835	27.257	0.493
609.500	380.462	80.006	19.994	103.361	19.834	27.284	0.465
610.000	380.745	80.006	19.994	103.360	19.828	27.701	0.486
610.500	381.000	80.006	19.994	103.360	19.831	27.526	0.530
611.000	381.237	80.006	19.995	103.359	19.829	27.653	0.515
611.500	381.467	80.006	19.992	103.355	19.828	27.723	0.479
612.000	381.770	80.005	19.994	103.354	19.830	27.589	0.500
612.500	381.973	80.007	19.994	103.355	19.829	27.610	0.520
613.000	382.199	80.006	19.995	103.354	19.827	27.775	0.468
613.500	382.470	80.006	19.995	103.353	19.824	27.944	0.463
614.000	382.722	80.006	19.994	103.360	19.825	27.876	0.510
614.500	382.984	80.007	19.994	103.366	19.824	27.933	0.519
615.000	383.246	80.006	19.996	103.366	19.823	28.007	0.519
615.500	383.449	80.006	19.996	103.367	19.823	28.001	0.494
616.000	383.704	80.005	19.994	103.368	19.822	28.092	0.461
616.500	383.951	80.003	19.994	103.368	19.822	28.085	0.480
617.000	384.184	80.005	19.994	103.369	19.821	28.181	0.491
617.500	384.442	80.006	19.995	103.370	19.819	28.271	0.486
618.000	384.666	80.003	19.995	103.370	19.821	28.195	0.487
618.500	384.941	80.002	19.994	103.372	19.818	28.344	0.490
619.000	385.196	80.004	19.995	103.373	19.815	28.570	0.514
619.500	385.460	80.004	19.995	103.372	19.817	28.409	0.525
620.000	385.687	80.005	19.994	103.371	19.816	28.467	0.505
620.500	385.941	80.005	19.994	103.370	19.819	28.301	0.486
621.000	386.179	80.005	19.996	103.370	19.813	28.658	0.487
621.500	386.421	80.004	19.996	103.369	19.809	28.934	0.486
622.000	386.661	80.003	19.994	103.369	19.807	29.087	0.481
622.500	386.924	80.002	19.993	103.371	19.811	28.827	0.492
623.000	387.169	80.003	19.994	103.374	19.810	28.889	0.505
623.500	387.479	80.003	19.993	103.376	19.810	28.885	0.532
624.000	387.656	80.004	19.994	103.377	19.807	29.079	0.521
624.500	387.947	80.003	19.994	103.377	19.808	29.013	0.477
625.000	388.200	80.003	19.994	103.376	19.807	29.070	0.506
625.500	388.443	80.004	19.994	103.377	19.807	29.113	0.521
626.000	388.671	80.004	19.994	103.377	19.807	29.095	0.483
626.500	388.950	80.002	19.993	103.376	19.804	29.305	0.489
627.000	389.177	80.001	19.993	103.376	19.801	29.467	0.507
627.500	389.408	80.002	19.994	103.377	19.801	29.516	0.482
628.000	389.700	80.002	19.995	103.375	19.799	29.641	0.491
628.500	389.928	80.005	19.993	103.374	19.799	29.614	0.521
629.000	390.190	80.003	19.994	103.375	19.795	29.895	0.505
629.500	390.448	80.004	19.993	103.375	19.797	29.768	0.505
630.000	390.703	80.003	19.993	103.375	19.794	29.921	0.516
630.500	390.955	80.003	19.995	103.375	19.791	30.148	0.510
631.000	391.202	80.003	19.996	103.376	19.790	30.196	0.503
631.500	391.439	80.003	19.994	103.378	19.792	30.091	0.492
632.000	391.770	80.003	19.993	103.379	19.789	30.256	0.526
632.500	391.962	80.005	19.994	103.380	19.786	30.449	0.545
633.000	392.262	80.007	19.993	103.382	19.785	30.532	0.507
633.500	392.488	80.005	19.994	103.387	19.785	30.570	0.509
634.000	392.712	80.006	19.995	103.386	19.782	30.755	0.488
634.500	392.986	80.005	19.995	103.387	19.783	30.648	0.475
635.000	393.243	80.004	19.995	103.387	19.780	30.857	0.515
635.500	393.512	80.004	19.994	103.384	19.781	30.824	0.528
636.000	393.758	80.005	19.994	103.381	19.781	30.829	0.520
636.500	394.013	80.004	19.994	103.382	19.779	30.925	0.508
637.000	394.299	80.008	19.994	103.385	19.778	31.017	0.521
637.500	394.544	80.006	19.995	103.391	19.774	31.300	0.536
638.000	394.794	80.005	19.994	103.394	19.773	31.310	0.513
638.500	395.041	80.004	19.995	103.397	19.769	31.572	0.496
639.000	395.295	80.005	19.993	103.399	19.772	31.416	0.500
639.500	395.575	80.006	19.995	103.399	19.768	31.672	0.518
640.000	395.847	80.004	19.994	103.394	19.766	31.805	0.543
640.500	396.056	80.005	19.996	103.398	19.765	31.887	0.516
641.000	396.326	80.005	19.995	103.395	19.764	31.936	0.480
641.500	396.573	80.005	19.994	103.391	19.764	31.901	0.498
642.000	396.856	80.005	19.994	103.388	19.757	32.410	0.523
642.500	397.110	80.005	19.994	103.387	19.757	32.363	0.534
643.000	397.300	80.004	19.994	103.387	19.753	32.651	0.491
643.500	397.600	80.007	19.994	103.389	19.753	32.667	0.467
644.000	397.879	80.005	19.995	103.393	19.749	32.951	0.534
644.500	398.073	80.004	19.995	103.395	19.746	33.088	0.526
645.000	398.370	80.003	19.994	103.394	19.746	33.101	0.482
645.500	398.632	80.006	19.995	103.389	19.746	33.125	0.525
646.000	398.902	80.004	19.995	103.384	19.741	33.461	0.545
646.500	399.109	80.002	19.994	103.382	19.743	33.300	0.505
647.000	399.425	80.003	19.995	103.387	19.739	33.590	0.500
647.500	399.629	80.003	19.995	103.393	19.737	33.699	0.521
648.000	399.945	80.003	19.995	103.399	19.739	33.583	0.520
648.500	400.166	80.004	19.994	103.404	19.733	33.991	0.529
649.000	400.468	80.004	19.996	103.407	19.732	34.063	0.530
649.500	400.737	80.003	19.995	103.406	19.731	34.093	0.547
650.000	400.985	80.004	19.994	103.405	19.725	34.503	0.544
650.500	401.292	80.002	19.994	103.404	19.730	34.159	0.536
651.000	401.489	80.004	19.994	103.403	19.725	34.492	0.530
651.500	401.809	80.003	19.996	103.403	19.722	34.672	0.510
652.000	402.071	80.004	19.995	103.404	19.719	34.901	0.550
652.500	402.306	80.003	19.995	103.406	19.721	34.741	0.540
653.000	402.579	80.004	19.996	103.404	19.712	35.374	0.502
653.500	402.928	80.004	19.995	103.405	19.720	34.843	0.565
654.000	403.109	80.004	19.995	103.404	19.710	35.472	0.576
654.500	403.426	80.002	19.996	103.404	19.718	34.952	0.514
655.000	403.662	80.004	19.994	103.403	19.701	36.067	0.525
655.500	403.924	80.004	19.996	103.405	19.701	36.061	0.525
656.000	404.166	80.004	19.995	103.406	19.711	35.459	0.501
656.500	404.487	80.004	19.995	103.408	19.707	35.703	0.534
657.000	404.673	80.005	19.995	103.409	19.707	35.687	0.535
657.500	404.898	80.005	19.995	103.411	19.698	36.315	0.459
658.000	405.220	80.003	19.995	103.411	19.702	36.023	0.479
658.500	405.529	80.004	19.995	103.410	19.694	36.524	0.589
659.000	405.812	80.002	19.994	103.410	19.694	36.525	0.611
659.500	405.999	80.005	19.994	103.409	19.694	36.583	0.531
660.000	406.245	80.005	19.995	103.409	19.692	36.704	0.452
660.500	406.616	80.003	19.995	103.406	19.689	36.911	0.525
661.000	406.723	80.004	19.996	103.402	19.688	36.949	0.548
661.500	407.121	80.005	19.996	103.402	19.686	37.073	0.491
662.000	407.388	80.005	19.996	103.402	19.683	37.280	0.585
662.500	407.603	80.006	19.994	103.401	19.680	37.464	0.574
663.000	407.835	80.006	19.993	103.404	19.681	37.399	0.465
663.500	408.046	80.006	19.995	103.408	19.681	37.430	0.445
664.000	408.331	80.007	19.994	103.409	19.679	37.571	0.470
664.500	408.628	80.004	19.996	103.408	19.679	37.538	0.539
665.000	408.897	80.005	19.995	103.409	19.674	37.859	0.574
665.500	409.259	80.006	19.995	103.409	19.673	37.909	0.598
666.000	409.285	80.007	19.995	103.408	19.675	37.820	0.510
666.500	409.817	80.005	19.996	103.407	19.673	37.915	0.473
667.000	409.851	80.007	19.996	103.407	19.673	37.956	0.562
667.500	410.126	80.006	19.994	103.407	19.672	38.020	0.437
668.000	410.033	80.001	19.996	103.407	19.670	38.165	0.246
668.500	410.955	80.006	19.996	103.407	19.668	38.256	0.506
669.000	410.958	80.005	19.996	103.408	19.669	38.229	0.877
669.500	410.872	80.004	19.997	103.409	19.666	38.403	0.421
670.000	411.299	80.006	19.996	103.408	19.666	38.423	0.129
670.500	412.054	80.006	19.998	103.408	19.668	38.289	0.761
671.000	411.926	80.004	19.997	103.407	19.664	38.559	0.904
671.500	412.315	80.005	19.997	103.406	19.666	38.423	0.444
672.000	412.575	80.005	19.994	103.406	19.669	38.211	0.456
672.500	412.600	80.006	19.996	103.407	19.666	38.376	0.467
673.000	412.967	80.006	19.996	103.408	19.666	38.417	0.338
673.500	413.315	80.004	19.996	103.410	19.667	38.359	0.554
674.000	413.455	80.003	19.997	103.411	19.662	38.635	0.602
674.500	413.719	80.004	19.996	103.411	19.662	38.638	0.446
675.000	413.935	80.005	19.995	103.412	19.664	38.503	0.442
675.500	414.257	80.005	19.996	103.410	19.663	38.597	0.509
676.000	414.456	80.007	19.995	103.409	19.664	38.559	0.530
676.500	414.748	80.005	19.994	103.409	19.664	38.511	0.506
677.000	414.982	80.005	19.995	103.409	19.667	38.328	0.509
677.500	415.222	80.004	19.996	103.409	19.666	38.411	0.500
678.000	415.432	80.006	19.995	103.409	19.666	38.416	0.462
678.500	415.783	80.006	19.994	103.409	19.665	38.448	0.506
679.000	415.931	80.005	19.995	103.410	19.667	38.345	0.531
679.500	416.218	80.006	19.996	103.410	19.667	38.314	0.467
680.000	416.492	80.004	19.995	103.410	19.667	38.335	0.498
680.500	416.773	80.005	19.995	103.410	19.670	38.161	0.557
681.000	416.967	80.007	19.994	103.410	19.668	38.243	0.515
681.500	417.232	80.005	19.993	103.410	19.670	38.140	0.467
682.000	417.515	80.004	19.996	103.411	19.673	37.900	0.504
682.500	417.725	80.005	19.994	103.411	19.675	37.791	0.521
683.000	418.001	80.005	19.995	103.411	19.674	37.853	0.490
683.500	418.255	80.005	19.993	103.410	19.674	37.869	0.508
684.000	418.472	80.005	19.995	103.410	19.680	37.476	0.501
684.500	418.771	80.005	19.993	103.410	19.679	37.507	0.493
685.000	419.023	80.006	19.995	103.410	19.682	37.348	0.533
685.500	419.220	80.006	19.994	103.410	19.682	37.300	0.500
686.000	419.546	80.005	19.994	103.410	19.683	37.246	0.487
686.500	419.810	80.005	19.995	103.410	19.688	36.949	0.557
687.000	420.039	80.007	19.993	103.410	19.689	36.838	0.541
687.500	420.258	80.004	19.994	103.409	19.689	36.896	0.470
688.000	420.482	80.008	19.995	103.409	19.690	36.798	0.446
688.500	420.778	80.004	19.994	103.409	19.695	36.479	0.481
689.000	421.019	80.005	19.995	103.407	19.696	36.432	0.528
689.500	421.291	80.007	19.996	103.405	19.698	36.262	0.525
690.000	421.515	80.007	19.994	103.406	19.700	36.170	0.505
690.500	421.736	80.007	19.996	103.405	19.701	36.097	0.471
691.000	421.956	80.007	19.994	103.404	19.704	35.910	0.443
691.500	422.271	80.007	19.993	103.404	19.703	35.947	0.488
692.000	422.472	80.005	19.994	103.401	19.707	35.677	0.525
692.500	422.734	80.007	19.994	103.395	19.710	35.487	0.489
693.000	423.001	80.008	19.994	103.389	19.713	35.258	0.496
693.500	423.194	80.006	19.994	103.383	19.711	35.424	0.494
694.000	423.518	80.004	19.995	103.380	19.718	34.953	0.488
694.500	423.636	80.007	19.993	103.378	19.719	34.861	0.480
695.000	423.933	80.007	19.994	103.379	19.723	34.614	0.429
695.500	424.198	80.008	19.994	103.380	19.722	34.692	0.488
696.000	424.414	80.007	19.994	103.381	19.724	34.544	0.521
696.500	424.677	80.006	19.995	103.380	19.729	34.253	0.480
697.000	424.907	80.006	19.994	103.379	19.731	34.118	0.486
697.500	425.154	80.005	19.994	103.377	19.736	33.784	0.485
698.000	425.415	80.006	19.995	103.375	19.739	33.568	0.492
698.500	425.648	80.005	19.995	103.374	19.743	33.309	0.501
699.000	425.869	80.006	19.994	103.373	19.747	33.039	0.474
699.500	426.125	80.005	19.994	103.375	19.749	32.887	0.465
700.000	426.383	80.004	19.994	103.376	19.750	32.861	0.495
700.500	426.561	80.005	19.995	103.376	19.754	32.564	0.475
701.000	426.817	80.005	19.994	103.377	19.756	32.455	0.435
701.500	427.057	80.004	19.996	103.377	19.757	32.396	0.465
702.000	427.310	80.004	19.993	103.375	19.765	31.825	0.495
702.500	427.559	80.004	19.994	103.373	19.765	31.832	0.497
703.000	427.838	80.004	19.994	103.373	19.767	31.697	0.514
703.500	428.102	80.003	19.996	103.373	19.771	31.480	0.535
704.000	428.275	80.005	19.996	103.372	19.773	31.295	0.490
704.500	428.516	80.005	19.996	103.371	19.777	31.078	0.426
705.000	428.776	80.005	19.995	103.371	19.782	30.739	0.458
705.500	429.027	80.004	19.994	103.371	19.785	30.512	0.506
706.000	429.229	80.004	19.994	103.371	19.788	30.320	0.482
706.500	429.494	80.005	19.994	103.371	19.793	30.009	0.460
707.000	429.737	80.004	19.997	103.371	19.794	29.951	0.487
707.500	429.957	80.004	19.995	103.370	19.799	29.597	0.486
708.000	430.198	80.003	19.995	103.366	19.804	29.267	0.462
708.500	430.461	80.005	19.996	103.365	19.805	29.184	0.482
709.000	430.680	80.005	19.994	103.364	19.807	29.053	0.493
709.500	430.926	80.004	19.996	103.361	19.811	28.827	0.474
710.000	431.147	80.004	19.994	103.355	19.813	28.653	0.466
710.500	431.361	80.004	19.996	103.356	19.817	28.410	0.451
711.000	431.624	80.004	19.993	103.352	19.819	28.262	0.456
711.500	431.888	80.004	19.997	103.346	19.823	28.007	0.502
712.000	432.127	80.004	19.994	103.341	19.825	27.870	0.515
712.500	432.419	80.003	19.994	103.343	19.830	27.583	0.517
713.000	432.610	80.003	19.994	103.342	19.835	27.262	0.507
713.500	432.881	80.006	19.996	103.341	19.837	27.104	0.472
714.000	433.103	80.005	19.994	103.344	19.840	26.935	0.478
714.500	433.344	80.005	19.994	103.347	19.841	26.837	0.478
715.000	433.612	80.005	19.995	103.350	19.847	26.415	0.486
715.500	433.902	80.005	19.994	103.355	19.853	26.071	0.534
716.000	434.116	80.006	19.995	103.360	19.849	26.296	0.531
716.500	434.347	80.006	19.995	103.364	19.855	25.917	0.474
717.000	434.575	80.004	19.995	103.363	19.856	25.835	0.452
717.500	434.789	80.005	19.995	103.360	19.858	25.705	0.450
718.000	435.035	80.005	19.994	103.353	19.863	25.398	0.451
718.500	435.302	80.004	19.995	103.345	19.867	25.102	0.487
719.000	435.545	80.006	19.995	103.338	19.867	25.094	0.512
719.500	435.754	80.004	19.995	103.335	19.872	24.797	0.481
720.000	436.030	80.004	19.994	103.331	19.871	24.885	0.469
720.500	436.269	80.004	19.995	103.332	19.877	24.466	0.500
721.000	436.573	80.007	19.994	103.333	19.879	24.336	0.529
721.500	436.755	80.004	19.993	103.334	19.881	24.177	0.514
722.000	437.047	80.004	19.995	103.335	19.886	23.836	0.480
722.500	437.277	80.005	19.995	103.336	19.889	23.684	0.498
723.000	437.474	80.007	19.994	103.340	19.889	23.660	0.474
723.500	437.754	80.006	19.996	103.345	19.892	23.479	0.452
724.000	437.965	80.006	19.995	103.349	19.895	23.302	0.484
724.500	438.215	80.005	19.993	103.355	19.896	23.235	0.476
725.000	438.470	80.003	19.996	103.360	19.897	23.114	0.483
725.500	438.722	80.006	19.994	103.361	19.901	22.867	0.505
726.000	438.959	80.004	19.993	103.361	19.905	22.620	0.498
726.500	439.196	80.005	19.994	103.362	19.906	22.559	0.482
727.000	439.459	80.004	19.998	103.363	19.908	22.401	0.487
727.500	439.689	80.006	19.997	103.361	19.911	22.218	0.497
728.000	439.936	80.003	19.995	103.355	19.915	21.967	0.485
728.500	440.220	80.006	19.995	103.350	19.916	21.895	0.504
729.000	440.461	80.003	19.995	103.344	19.918	21.781	0.529
729.500	440.702	80.004	19.996	103.336	19.921	21.580	0.503
730.000	440.929	80.004	19.996	103.332	19.922	21.480	0.474
730.500	441.176	80.003	19.996	103.332	19.927	21.135	0.471
731.000	441.394	80.003	19.995	103.336	19.927	21.191	0.470
731.500	441.666	80.003	19.995	103.337	19.930	20.968	0.477
732.000	441.905	80.005	19.995	103.338	19.933	20.790	0.500
732.500	442.184	80.005	19.997	103.338	19.931	20.922	0.515
733.000	442.427	80.005	19.995	103.337	19.936	20.583	0.520
733.500	442.641	80.005	19.996	103.333	19.939	20.377	0.489
734.000	442.898	80.005	19.994	103.331	19.942	20.180	0.464
734.500	443.179	80.004	19.996	103.331	19.944	20.040	0.505
735.000	443.389	80.005	19.995	103.332	19.945	19.999	0.515
735.500	443.650	80.003	19.996	103.332	19.948	19.795	0.481
736.000	443.899	80.004	19.994	103.335	19.949	19.701	0.490
736.500	444.172	80.003	19.996	103.338	19.952	19.483	0.517
737.000	444.427	80.005	19.996	103.338	19.955	19.320	0.525
737.500	444.673	80.003	19.995	103.339	19.957	19.157	0.514
738.000	444.893	80.004	19.994	103.339	19.959	19.058	0.483
738.500	445.179	80.004	19.996	103.337	19.962	18.840	0.486
739.000	445.398	80.004	19.995	103.337	19.963	18.792	0.506
739.500	445.684	80.003	19.994	103.337	19.964	18.707	0.505
740.000	445.973	80.004	19.994	103.337	19.966	18.587	0.540
740.500	446.159	80.003	19.993	103.337	19.970	18.355	0.525
741.000	446.433	80.003	19.995	103.336	19.972	18.162	0.467
741.500	446.661	80.004	19.993	103.334	19.974	18.058	0.481
742.000	446.903	80.004	19.996	103.334	19.977	17.890	0.487
742.500	447.158	80.005	19.995	103.332	19.974	18.037	0.484
743.000	447.416	80.005	19.995	103.330	19.980	17.639	0.505
743.500	447.646	80.005	19.994	103.329	19.982	17.503	0.500
744.000	447.896	80.006	19.994	103.328	19.982	17.499	0.484
744.500	448.158	80.007	19.995	103.328	19.987	17.169	0.496
745.000	448.417	80.003	19.997	103.326	19.987	17.203	0.516
745.500	448.714	80.007	19.993	103.321	19.990	16.998	0.539
746.000	448.937	80.004	19.994	103.317	19.993	16.828	0.538
746.500	449.186	80.006	19.995	103.318	19.993	16.796	0.496
747.000	449.432	80.004	19.995	103.319	19.995	16.687	0.484
747.500	449.693	80.005	19.995	103.315	19.997	16.517	0.501
748.000	449.965	80.006	19.997	103.315	20.002	16.211	0.520
748.500	450.247	80.006	19.996	103.316	20.002	16.195	0.544
749.000	450.450	80.005	19.995	103.313	20.006	15.946	0.520
749.500	450.712	80.005	19.993	103.309	20.005	15.996	0.475
750.000	450.981	80.005	19.994	103.311	20.009	15.723	0.498
750.500	451.238	80.005	19.993	103.312	20.010	15.661	0.528
751.000	451.497	80.004	19.995	103.310	20.013	15.485	0.520
751.500	451.788	80.005	19.995	103.312	20.015	15.367	0.533
752.000	452.006	80.005	19.994	103.313	20.019	15.097	0.530
752.500	452.261	80.004	19.995	103.311	20.020	15.041	0.491
753.000	452.532	80.004	19.994	103.314	20.017	15.224	0.500
753.500	452.810	80.004	19.997	103.316	20.024	14.729	0.537
754.000	453.036	80.003	19.994	103.309	20.023	14.843	0.526
754.500	453.295	80.002	19.996	103.305	20.028	14.469	0.495
755.000	453.554	80.003	19.996	103.305	20.029	14.398	0.501
755.500	453.788	80.003	19.995	103.304	20.031	14.315	0.505
756.000	454.055	80.002	19.996	103.300	20.034	14.102	0.497
756.500	454.327	80.005	19.994	103.301	20.033	14.145	0.520
757.000	454.589	80.004	19.995	103.301	20.034	14.079	0.537
757.500	454.834	80.004	19.996	103.303	20.041	13.619	0.521
758.000	455.087	80.004	19.995	103.301	20.040	13.685	0.502
758.500	455.374	80.004	19.995	103.302	20.041	13.659	0.519
759.000	455.649	80.005	19.996	103.304	20.041	13.614	0.550
759.500	455.868	80.005	19.996	103.304	20.046	13.311	0.528
760.000	456.134	80.004	19.996	103.301	20.044	13.425	0.490
760.500	456.397	80.004	19.993	103.300	20.048	13.196	0.507
761.000	456.639	80.003	19.996	103.298	20.049	13.109	0.517
761.500	456.885	80.003	19.993	103.295	20.052	12.935	0.497
762.000	457.129	80.004	19.997	103.295	20.052	12.931	0.489
762.500	457.444	80.006	19.996	103.294	20.052	12.945	0.524
763.000	457.664	80.005	19.994	103.294	20.056	12.660	0.547
763.500	457.945	80.004	19.993	103.293	20.057	12.576	0.518
764.000	458.184	80.004	19.995	103.291	20.056	12.626	0.511
764.500	458.483	80.006	19.994	103.288	20.060	12.395	0.529
765.000	458.704	80.003	19.996	103.287	20.060	12.366	0.529
765.500	458.997	80.004	19.994	103.286	20.063	12.164	0.517
766.000	459.246	80.005	19.996	103.284	20.062	12.233	0.528
766.500	459.513	80.007	19.996	103.285	20.064	12.097	0.530
767.000	459.790	80.006	19.995	103.287	20.063	12.215	0.530
767.500	460.036	80.006	19.996	103.288	20.065	12.027	0.533
768.000	460.280	80.005	19.995	103.289	20.068	11.864	0.506
768.500	460.558	80.007	19.997	103.290	20.067	11.914	0.507
769.000	460.795	80.009	19.992	103.284	20.068	11.843	0.519
769.500	461.063	80.006	19.996	103.280	20.072	11.610	0.509
770.000	461.320	80.006	19.995	103.279	20.072	11.590	0.515
770.500	461.586	80.008	19.995	103.278	20.073	11.510	0.524
771.000	461.836	80.009	19.994	103.278	20.075	11.396	0.520
771.500	462.118	80.007	19.994	103.283	20.074	11.460	0.524
772.000	462.362	80.007	19.995	103.283	20.075	11.389	0.529
772.500	462.591	80.008	19.995	103.282	20.078	11.195	0.499
773.000	462.873	80.007	19.992	103.282	20.077	11.262	0.492
773.500	463.141	80.008	19.994	103.275	20.079	11.157	0.530
774.000	463.419	80.007	19.993	103.269	20.082	10.922	0.548
774.500	463.676	80.008	19.993	103.265	20.083	10.837	0.540
775.000	463.924	80.008	19.992	103.259	20.084	10.803	0.520
775.500	464.164	80.007	19.995	103.253	20.086	10.654	0.496
776.000	464.430	80.007	19.996	103.252	20.085	10.710	0.497
776.500	464.667	80.005	19.998	103.255	20.085	10.743	0.505
777.000	464.919	80.004	19.995	103.260	20.088	10.549	0.497
777.500	465.198	80.008	19.995	103.260	20.090	10.411	0.510
778.000	465.426	80.006	19.995	103.261	20.089	10.489	0.519
778.500	465.698	80.006	19.996	103.261	20.089	10.484	0.503
779.000	465.961	80.005	19.995	103.260	20.090	10.395	0.518
779.500	466.223	80.005	19.994	103.255	20.093	10.212	0.531
780.000	466.465	80.006	19.992	103.255	20.095	10.071	0.515
780.500	466.720	80.006	19.992	103.254	20.094	10.172	0.500
781.000	466.995	80.005	19.995	103.255	20.094	10.120	0.513
781.500	467.241	80.005	19.994	103.254	20.097	9.969	0.526
782.000	467.503	80.006	19.994	103.256	20.100	9.727	0.515
782.500	467.752	80.002	19.995	103.256	20.096	9.997	0.509
783.000	468.004	80.007	19.995	103.257	20.099	9.843	0.506
783.500	468.296	80.003	19.994	103.257	20.101	9.667	0.523
784.000	468.541	80.002	19.995	103.257	20.104	9.480	0.541
784.500	468.772	80.004	19.995	103.255	20.100	9.750	0.507
785.000	469.072	80.005	19.995	103.256	20.102	9.606	0.503
785.500	469.324	80.004	19.996	103.257	20.104	9.506	0.541
786.000	469.558	80.006	19.993	103.259	20.106	9.341	0.519
786.500	469.847	80.004	19.996	103.259	20.105	9.428	0.504
787.000	470.071	80.004	19.994	103.260	20.106	9.386	0.518
787.500	470.339	80.005	19.998	103.260	20.110	9.104	0.503
788.000	470.596	80.005	19.996	103.258	20.108	9.200	0.508
788.500	470.866	80.005	19.993	103.259	20.106	9.372	0.526
789.000	471.113	80.005	19.993	103.258	20.110	9.113	0.522
789.500	471.375	80.005	19.994	103.258	20.109	9.171	0.513
790.000	471.623	80.006	19.993	103.256	20.113	8.925	0.510
790.500	471.863	80.005	19.993	103.257	20.111	9.051	0.499
791.000	472.161	80.005	19.995	103.255	20.110	9.066	0.513
791.500	472.392	80.004	19.995	103.255	20.111	9.057	0.533
792.000	472.654	80.005	19.994	103.255	20.111	9.002	0.511
792.500	472.908	80.005	19.997	103.255	20.113	8.908	0.504
793.000	473.154	80.004	19.996	103.256	20.114	8.834	0.508
793.500	473.450	80.005	19.996	103.256	20.114	8.801	0.521
794.000	473.722	80.005	19.994	103.257	20.114	8.810	0.555
794.500	474.015	80.003	19.995	103.256	20.114	8.796	0.567
795.000	474.245	80.004	19.995	103.256	20.111	9.002	0.544
795.500	474.525	80.005	19.997	103.257	20.112	8.950	0.516
796.000	474.758	80.005	19.993	103.258	20.116	8.713	0.512
796.500	475.052	80.005	19.992	103.259	20.116	8.693	0.520
797.000	475.327	80.006	19.997	103.259	20.116	8.687	0.548
797.500	475.583	80.006	19.993	103.259	20.116	8.691	0.550
798.000	475.830	80.006	19.995	103.257	20.119	8.514	0.517
798.500	476.102	80.006	19.993	103.255	20.117	8.624	0.511
799.000	476.377	80.005	19.997	103.254	20.116	8.711	0.532
799.500	476.635	80.006	19.994	103.254	20.118	8.570	0.540
800.000	476.863	80.005	19.996	103.254	20.119	8.526	0.510
800.500	477.157	80.006	19.995	103.255	20.122	8.276	0.504
801.000	477.396	80.005	19.995	103.255	20.116	8.687	0.527
801.500	477.697	80.003	19.995	103.255	20.115	8.738	0.536
802.000	477.964	80.005	19.993	103.255	20.117	8.608	0.554
802.500	478.196	80.004	19.994	103.256	20.119	8.517	0.534
803.000	478.469	80.006	19.994	103.256	20.117	8.656	0.502
803.500	478.731	80.005	19.995	103.254	20.118	8.547	0.520
804.000	478.996	80.005	19.994	103.253	20.122	8.309	0.531
804.500	479.261	80.005	19.994	103.253	20.122	8.266	0.528
805.000	479.532	80.005	19.995	103.252	20.124	8.181	0.533
805.500	479.782	80.006	19.994	103.252	20.123	8.219	0.529
806.000	480.058	80.004	19.994	103.254	20.123	8.219	0.524
806.500	480.289	80.005	19.993	103.255	20.123	8.215	0.517
807.000	480.560	80.005	19.995	103.256	20.126	8.007	0.505
807.500	480.773	80.005	19.995	103.256	20.122	8.285	0.493
808.000	481.050	80.005	19.996	103.256	20.128	7.928	0.487
808.500	481.343	80.005	19.994	103.256	20.127	7.992	0.530
809.000	481.578	80.005	19.997	103.256	20.126	8.004	0.549
809.500	481.832	80.005	19.995	103.256	20.128	7.876	0.509
810.000	482.141	80.005	19.992	103.256	20.128	7.900	0.526
810.500	482.363	80.006	19.995	103.256	20.128	7.926	0.547
811.000	482.630	80.006	19.994	103.256	20.129	7.868	0.510
811.500	482.915	80.006	19.994	103.257	20.129	7.866	0.520
812.000	483.156	80.004	19.995	103.256	20.130	7.775	0.539
812.500	483.408	80.006	19.995	103.256	20.129	7.864	0.509
813.000	483.692	80.005	19.992	103.256	20.129	7.814	0.515
813.500	483.921	80.004	19.993	103.250	20.132	7.633	0.525
814.000	484.200	80.006	19.994	103.248	20.132	7.606	0.511
814.500	484.471	80.005	19.998	103.242	20.129	7.822	0.528
815.000	484.702	80.006	19.994	103.236	20.129	7.815	0.526
815.500	484.946	80.004	19.993	103.235	20.126	8.004	0.489
816.000	485.195	80.003	19.994	103.239	20.129	7.820	0.484
816.500	485.461	80.004	19.995	103.238	20.129	7.845	0.504
817.000	485.765	80.003	19.994	103.238	20.130	7.749	0.543
817.500	486.001	80.004	19.994	103.239	20.130	7.785	0.555
818.000	486.265	80.004	19.994	103.237	20.133	7.588	0.520
818.500	486.494	80.004	19.995	103.232	20.132	7.646	0.496
819.000	486.796	80.004	19.994	103.229	20.133	7.546	0.512
819.500	487.038	80.005	19.996	103.229	20.136	7.385	0.538
820.000	487.310	80.005	19.994	103.227	20.133	7.568	0.529
820.500	487.551	80.003	19.994	103.229	20.133	7.571	0.514
821.000	487.819	80.005	19.994	103.234	20.134	7.513	0.511
821.500	488.083	80.003	19.995	103.240	20.132	7.620	0.520
822.000	488.340	80.004	19.992	103.244	20.131	7.698	0.526
822.500	488.587	80.005	19.993	103.246	20.135	7.422	0.513
823.000	488.853	80.004	19.995	103.240	20.138	7.227	0.509
823.500	489.119	80.006	19.992	103.234	20.134	7.497	0.522
824.000	489.331	80.003	19.995	103.227	20.133	7.569	0.505
824.500	489.622	80.004	19.996	103.221	20.134	7.493	0.491
825.000	489.908	80.005	19.996	103.225	20.137	7.283	0.540
825.500	490.142	80.004	19.995	103.233	20.135	7.451	0.548
826.000	490.390	80.007	19.993	103.240	20.138	7.268	0.501
826.500	490.648	80.007	19.995	103.247	20.136	7.343	0.494
827.000	490.901	80.008	19.995	103.251	20.136	7.358	0.509
827.500	491.181	80.006	19.995	103.250	20.139	7.164	0.522
828.000	491.417	80.005	19.996	103.248	20.136	7.376	0.525
828.500	491.666	80.007	19.997	103.247	20.139	7.201	0.501
829.000	491.911	80.006	19.996	103.247	20.138	7.268	0.490
829.500	492.167	80.006	19.994	103.248	20.137	7.318	0.497
830.000	492.421	80.008	19.995	103.249	20.136	7.365	0.505
830.500	492.675	80.007	19.994	103.248	20.136	7.372	0.509
831.000	492.967	80.006	19.995	103.247	20.137	7.302	0.527
831.500	493.204	80.007	19.995	103.243	20.138	7.231	0.537
832.000	493.482	80.007	19.997	103.242	20.139	7.197	0.522
832.500	493.745	80.006	19.995	103.240	20.140	7.105	0.528
833.000	493.981	80.006	19.994	103.240	20.138	7.251	0.520
833.500	494.250	80.008	19.997	103.238	20.135	7.423	0.502
834.000	494.534	80.007	19.995	103.241	20.139	7.200	0.529
834.500	494.765	80.007	19.995	103.238	20.141	7.064	0.534
835.000	495.044	80.005	19.994	103.237	20.138	7.240	0.513
835.500	495.288	80.007	19.996	103.236	20.137	7.327	0.516
836.000	495.546	80.007	19.995	103.234	20.139	7.153	0.513
836.500	495.835	80.006	19.993	103.229	20.139	7.182	0.525
837.000	496.040	80.007	19.995	103.226	20.140	7.101	0.521
837.500	496.286	80.007	19.995	103.222	20.141	7.034	0.473
838.000	496.541	80.007	19.997	103.220	20.143	6.934	0.476
838.500	496.810	80.006	19.997	103.223	20.141	7.075	0.512
839.000	497.054	80.006	19.995	103.227	20.142	6.979	0.518
839.500	497.334	80.005	19.996	103.227	20.145	6.762	0.519
840.000	497.574	80.005	19.995	103.230	20.144	6.842	0.522
840.500	497.847	80.006	19.993	103.228	20.144	6.856	0.517
841.000	498.098	80.006	19.995	103.223	20.142	6.954	0.518
841.500	498.369	80.005	19.994	103.219	20.143	6.898	0.523
842.000	498.615	80.007	19.993	103.221	20.141	7.064	0.519
842.500	498.870	80.006	19.996	103.224	20.144	6.863	0.509
843.000	499.131	80.006	19.994	103.230	20.142	6.958	0.509
843.500	499.379	80.006	19.994	103.236	20.142	6.962	0.513
844.000	499.574	80.006	19.994	103.242	20.142	6.952	0.476
844.500	499.840	80.006	19.995	103.247	20.141	7.058	0.452
845.000	500.109	80.006	19.994	103.247	20.143	6.895	0.498
845.500	500.376	80.006	19.995	103.242	20.144	6.831	0.535
846.000	500.625	80.006	19.997	103.241	20.145	6.795	0.526
846.500	500.865	80.006	19.995	103.242	20.145	6.765	0.502
847.000	501.130	80.005	19.995	103.241	20.145	6.763	0.497
847.500	501.363	80.006	19.996	103.243	20.146	6.735	0.501
848.000	501.681	80.006	19.995	103.247	20.147	6.627	0.524
848.500	501.929	80.007	19.995	103.248	20.147	6.682	0.559
849.000	502.125	80.006	19.996	103.248	20.147	6.639	0.505
849.500	502.444	80.006	19.995	103.247	20.144	6.838	0.479
850.000	502.673	80.006	19.996	103.247	20.145	6.759	0.532
850.500	502.941	80.007	19.995	103.246	20.146	6.733	0.523
851.000	503.204	80.005	19.996	103.244	20.149	6.531	0.514
851.500	503.484	80.008	19.993	103.244	20.146	6.692	0.537
852.000	503.683	80.006	19.995	103.246	20.145	6.788	0.510
852.500	504.002	80.007	19.995	103.242	20.149	6.522	0.498
853.000	504.253	80.007	19.994	103.239	20.144	6.822	0.544
853.500	504.494	80.007	19.995	103.238	20.150	6.471	0.531
854.000	504.738	80.007	19.995	103.232	20.149	6.543	0.489
854.500	504.989	80.007	19.994	103.225	20.147	6.662	0.490
855.000	505.250	80.007	19.996	103.224	20.146	6.731	0.504
855.500	505.526	80.007	19.995	103.227	20.145	6.782	0.524
856.000	505.777	80.007	19.997	103.227	20.145	6.813	0.531
856.500	506.047	80.007	19.996	103.226	20.142	6.970	0.524
857.000	506.284	80.006	19.994	103.229	20.146	6.699	0.515
857.500	506.508	80.006	19.995	103.231	20.146	6.734	0.484
858.000	506.769	80.006	19.993	103.228	20.148	6.555	0.473
858.500	507.021	80.006	19.996	103.224	20.146	6.732	0.499
859.000	507.276	80.006	19.994	103.222	20.149	6.502	0.510
859.500	507.532	80.006	19.996	103.219	20.147	6.680	0.509
860.000	507.812	80.007	19.995	103.218	20.147	6.658	0.523
860.500	508.072	80.005	19.996	103.221	20.145	6.756	0.538
861.000	508.302	80.006	19.996	103.221	20.145	6.778	0.515
861.500	508.586	80.005	19.995	103.224	20.143	6.884	0.502
862.000	508.818	80.006	19.994	103.225	20.144	6.828	0.515
862.500	509.086	80.006	19.996	103.226	20.149	6.523	0.508
863.000	509.336	80.005	19.996	103.221	20.146	6.688	0.509
863.500	509.565	80.004	19.996	103.221	20.142	6.963	0.498
864.000	509.829	80.005	19.995	103.220	20.146	6.695	0.486
864.500	510.113	80.006	19.993	103.219	20.146	6.717	0.521
865.000	510.346	80.005	19.995	103.215	20.147	6.677	0.533
865.500	510.634	80.006	19.994	103.216	20.146	6.694	0.519
866.000	510.855	80.003	19.994	103.216	20.150	6.482	0.515
866.500	511.134	80.004	19.994	103.219	20.150	6.433	0.505
867.000	511.350	80.004	19.994	103.221	20.150	6.441	0.498
867.500	511.635	80.004	19.994	103.222	20.148	6.558	0.498
868.000	511.851	80.005	19.995	103.228	20.149	6.489	0.501
868.500	512.094	80.005	19.994	103.232	20.149	6.536	0.480
869.000	512.339	80.004	19.995	103.231	20.149	6.540	0.474
869.500	512.599	80.004	19.994	103.230	20.152	6.340	0.496
870.000	512.845	80.006	19.994	103.234	20.150	6.453	0.505
870.500	513.070	80.005	19.995	103.233	20.152	6.353	0.489
871.000	513.338	80.006	19.995	103.232	20.152	6.335	0.482
871.500	513.565	80.004	19.993	103.234	20.150	6.458	0.494
872.000	513.871	80.005	19.995	103.234	20.149	6.509	0.514
872.500	514.116	80.003	19.995	103.230	20.148	6.614	0.542
873.000	514.394	80.005	19.995	103.226	20.148	6.602	0.537
873.500	514.641	80.004	19.994	103.221	20.151	6.359	0.524
874.000	514.914	80.004	19.994	103.217	20.150	6.455	0.522
874.500	515.135	80.005	19.994	103.216	20.149	6.535	0.507
875.000	515.391	80.004	19.995	103.217	20.148	6.613	0.485
875.500	515.601	80.005	19.996	103.220	20.150	6.441	0.471
876.000	515.886	80.006	19.995	103.223	20.153	6.287	0.481
876.500	516.146	80.003	19.996	103.228	20.153	6.260	0.520
877.000	516.426	80.006	19.994	103.231	20.152	6.341	0.542
877.500	516.647	80.004	19.994	103.231	20.150	6.449	0.521
878.000	516.878	80.006	19.995	103.229	20.151	6.395	0.477
878.500	517.145	80.005	19.994	103.227	20.152	6.304	0.475
879.000	517.441	80.005	19.992	103.222	20.150	6.444	0.530
879.500	517.689	80.004	19.993	103.219	20.151	6.393	0.553
880.000	517.918	80.005	19.994	103.220	20.153	6.223	0.510
880.500	518.203	80.005	19.995	103.219	20.151	6.384	0.495
881.000	518.469	80.004	19.995	103.221	20.150	6.429	0.533
881.500	518.649	80.005	19.993	103.222	20.150	6.451	0.498
882.000	518.930	80.006	19.993	103.222	20.150	6.469	0.453
882.500	519.197	80.006	19.995	103.221	20.150	6.485	0.505
883.000	519.438	80.004	19.992	103.222	20.150	6.471	0.528
883.500	519.724	80.004	19.994	103.223	20.149	6.499	0.518
884.000	519.915	80.005	19.995	103.228	20.151	6.402	0.502
884.500	520.191	80.006	19.994	103.229	20.147	6.639	0.472
885.000	520.445	80.004	19.994	103.231	20.151	6.375	0.498
885.500	520.687	80.006	19.995	103.233	20.152	6.333	0.513
886.000	520.938	80.004	19.995	103.234	20.151	6.366	0.495
886.500	521.176	80.005	19.993	103.231	20.152	6.308	0.491
887.000	521.457	80.004	19.994	103.231	20.151	6.408	0.504
887.500	521.717	80.004	19.996	103.232	20.152	6.352	0.529
888.000	521.962	80.004	19.994	103.230	20.150	6.448	0.522
888.500	522.195	80.003	19.996	103.226	20.149	6.528	0.492
889.000	522.460	80.004	19.995	103.223	20.149	6.506	0.488
889.500	522.730	80.006	19.994	103.224	20.150	6.430	0.516
890.000	522.953	80.004	19.996	103.221	20.149	6.518	0.514
890.500	523.206	80.006	19.995	103.220	20.147	6.619	0.485
891.000	523.439	80.004	19.993	103.219	20.148	6.585	0.480
891.500	523.742	80.006	19.994	103.219	20.150	6.458	0.511
892.000	524.000	80.005	19.992	103.217	20.151	6.393	0.549
892.500	524.255	80.004	19.994	103.217	20.151	6.408	0.538
893.000	524.514	80.005	19.996	103.217	20.151	6.375	0.513
893.500	524.757	80.004	19.993	103.217	20.156	6.075	0.508
894.000	525.002	80.004	19.995	103.217	20.152	6.299	0.495
894.500	525.246	80.004	19.993	103.217	20.153	6.227	0.488
895.000	525.524	80.004	19.993	103.218	20.153	6.276	0.506
895.500	525.746	80.005	19.996	103.218	20.148	6.570	0.511
896.000	526.010	80.004	19.994	103.218	20.151	6.374	0.492
896.500	526.262	80.005	19.995	103.218	20.151	6.409	0.501
897.000	526.505	80.005	19.995	103.217	20.151	6.397	0.506
897.500	526.769	80.004	19.994	103.218	20.152	6.324	0.501
898.000	527.034	80.004	19.994	103.224	20.151	6.368	0.518
898.500	527.304	80.004	19.996	103.230	20.151	6.372	0.532
899.000	527.544	80.005	19.994	103.235	20.150	6.424	0.522
899.500	527.770	80.004	19.995	103.236	20.152	6.325	0.488
900.000	528.048	80.005	19.996	103.235	20.151	6.406	0.485
900.500	528.311	80.004	19.993	103.230	20.153	6.263	0.523
901.000	528.567	80.004	19.993	103.223	20.156	6.074	0.530
901.500	528.857	80.006	19.995	103.221	20.154	6.163	0.532
902.000	529.125	80.005	19.993	103.220	20.153	6.266	0.552
902.500	529.329	80.005	19.994	103.222	20.154	6.198	0.515
903.000	529.570	80.006	19.994	103.223	20.155	6.131	0.459
903.500	529.851	80.006	19.993	103.226	20.155	6.129	0.483
904.000	530.095	80.006	19.994	103.227	20.155	6.098	0.523
904.500	530.367	80.006	19.994	103.231	20.150	6.462	0.521
905.000	530.593	80.007	19.994	103.227	20.150	6.477	0.507
905.500	530.852	80.006	19.994	103.225	20.152	6.311	0.491
906.000	531.143	80.007	19.995	103.228	20.154	6.195	0.517
906.500	531.428	80.006	19.995	103.222	20.152	6.317	0.563
907.000	531.696	80.006	19.994	103.203	20.148	6.559	0.565
907.500	531.917	80.007	19.994	103.195	20.152	6.299	0.521
908.000	532.177	80.007	19.994	103.192	20.151	6.373	0.484
908.500	532.430	80.007	19.994	103.186	20.152	6.331	0.497
909.000	532.723	80.008	19.994	103.194	20.155	6.130	0.530
909.500	532.943	80.006	19.995	103.231	20.153	6.231	0.529
910.000	533.180	80.008	19.994	103.250	20.157	6.005	0.485
910.500	533.474	80.007	19.995	103.261	20.153	6.239	0.495
911.000	533.737	80.007	19.995	103.263	20.154	6.210	0.544
911.500	533.983	80.005	19.994	103.261	20.155	6.134	0.533
912.000	534.214	80.007	19.994	103.239	20.156	6.061	0.493
912.500	534.490	80.007	19.995	103.227	20.155	6.114	0.492
913.000	534.752	80.007	19.994	103.222	20.156	6.052	0.522
913.500	534.996	80.005	19.994	103.224	20.160	5.808	0.522
914.000	535.263	80.006	19.994	103.227	20.154	6.208	0.508
914.500	535.521	80.005	19.994	103.230	20.155	6.148	0.518
915.000	535.811	80.006	19.994	103.230	20.155	6.141	0.536
915.500	536.072	80.006	19.995	103.229	20.153	6.250	0.549
916.000	536.332	80.006	19.995	103.225	20.155	6.128	0.536
916.500	536.569	80.005	19.995	103.219	20.154	6.195	0.510
917.000	536.829	80.005	19.995	103.217	20.153	6.248	0.497
917.500	537.099	80.006	19.995	103.217	20.154	6.205	0.513
918.000	537.330	80.004	19.995	103.216	20.154	6.166	0.515
918.500	537.577	80.005	19.995	103.216	20.154	6.206	0.489
919.000	537.794	80.005	19.995	103.216	20.154	6.199	0.471
919.500	538.082	80.006	19.996	103.214	20.155	6.106	0.485
920.000	538.351	80.005	19.994	103.213	20.152	6.291	0.531
920.500	538.604	80.006	19.995	103.214	20.149	6.549	0.539
921.000	538.842	80.006	19.996	103.214	20.152	6.343	0.506
921.500	539.093	80.006	19.996	103.214	20.151	6.386	0.490
922.000	539.386	80.005	19.995	103.213	20.151	6.390	0.517
922.500	539.602	80.005	19.995	103.213	20.150	6.447	0.527
923.000	539.866	80.006	19.994	103.213	20.151	6.407	0.495
923.500	540.126	80.007	19.995	103.214	20.151	6.395	0.502
924.000	540.409	80.007	19.995	103.214	20.152	6.325	0.533
924.500	540.645	80.005	19.994	103.214	20.147	6.641	0.531
925.000	540.928	80.006	19.995	103.214	20.153	6.280	0.519
925.500	541.163	80.005	19.996	103.214	20.152	6.352	0.519
926.000	541.442	80.006	19.995	103.214	20.149	6.489	0.516
926.500	541.684	80.005	19.995	103.214	20.150	6.435	0.517
927.000	541.918	80.005	19.993	103.216	20.152	6.330	0.498
927.500	542.217	80.004	19.995	103.217	20.149	6.503	0.504
928.000	542.443	80.005	19.995	103.222	20.146	6.741	0.529
928.500	542.751	80.007	19.995	103.230	20.152	6.337	0.530
929.000	542.949	80.005	19.996	103.236	20.151	6.413	0.520
929.500	543.207	80.007	19.995	103.241	20.154	6.210	0.481
930.000	543.483	80.006	19.996	103.244	20.149	6.498	0.495
930.500	543.735	80.007	19.995	103.241	20.150	6.485	0.532
931.000	543.973	80.007	19.995	103.236	20.151	6.402	0.509
931.500	544.218	80.006	19.995	103.232	20.150	6.472	0.486
932.000	544.472	80.006	19.995	103.227	20.151	6.371	0.491
932.500	544.724	80.006	19.995	103.226	20.150	6.451	0.503
933.000	544.986	80.006	19.994	103.225	20.150	6.485	0.510
933.500	545.235	80.008	19.995	103.223	20.152	6.329	0.512
934.000	545.471	80.007	19.994	103.221	20.149	6.537	0.498
934.500	545.702	80.007	19.994	103.223	20.150	6.481	0.476
935.000	545.990	80.007	19.994	103.227	20.148	6.591	0.494
935.500	546.248	80.008	19.994	103.229	20.151	6.359	0.533
936.000	546.495	80.007	19.994	103.232	20.147	6.625	0.525
936.500	546.730	80.007	19.994	103.232	20.152	6.334	0.493
937.000	547.001	80.007	19.993	103.228	20.150	6.462	0.494
937.500	547.269	80.007	19.994	103.225	20.148	6.583	0.522
938.000	547.510	80.007	19.995	103.224	20.148	6.601	0.524
938.500	547.789	80.007	19.994	103.222	20.151	6.413	0.515
939.000	547.994	80.008	19.995	103.222	20.149	6.500	0.502
939.500	548.267	80.006	19.995	103.222	20.149	6.523	0.481
940.000	548.518	80.007	19.995	103.219	20.150	6.471	0.501
940.500	548.765	80.007	19.994	103.216	20.147	6.627	0.511
941.000	549.010	80.006	19.995	103.216	20.146	6.714	0.495
941.500	549.266	80.007	19.995	103.219	20.149	6.542	0.496
942.000	549.486	80.007	19.994	103.225	20.148	6.573	0.488
942.500	549.761	80.005	19.994	103.235	20.150	6.438	0.485
943.000	550.015	80.006	19.995	103.242	20.149	6.539	0.512
943.500	550.296	80.005	19.995	103.248	20.150	6.424	0.532
944.000	550.553	80.005	19.995	103.250	20.151	6.375	0.536
944.500	550.794	80.004	19.994	103.247	20.150	6.444	0.518
945.000	551.019	80.004	19.996	103.241	20.150	6.465	0.482
945.500	551.247	80.004	19.995	103.234	20.148	6.608	0.459
946.000	551.515	80.003	19.996	103.231	20.148	6.603	0.475
946.500	551.713	80.004	19.994	103.230	20.148	6.599	0.481
947.000	551.966	80.004	19.996	103.228	20.148	6.561	0.458
947.500	552.250	80.003	19.995	103.227	20.149	6.499	0.494
948.000	552.490	80.005	19.996	103.227	20.145	6.769	0.531
948.500	552.749	80.004	19.996	103.223	20.147	6.626	0.512
949.000	552.978	80.003	19.995	103.219	20.148	6.556	0.493
949.500	553.216	80.004	19.996	103.218	20.150	6.458	0.477
950.000	553.489	80.003	19.995	103.218	20.146	6.712	0.489
950.500	553.777	80.003	19.994	103.217	20.152	6.333	0.536
951.000	554.021	80.003	19.996	103.218	20.148	6.598	0.547
951.500	554.253	80.004	19.995	103.223	20.145	6.751	0.504
952.000	554.518	80.003	19.994	103.229	20.149	6.514	0.487
952.500	554.782	80.004	19.995	103.236	20.148	6.595	0.513
953.000	555.042	80.003	19.994	103.239	20.147	6.664	0.526
953.500	555.299	80.003	19.996	103.240	20.145	6.791	0.520
954.000	555.504	80.005	19.996	103.235	20.144	6.820	0.489
954.500	555.817	80.004	19.994	103.230	20.148	6.563	0.491
955.000	556.039	80.004	19.995	103.223	20.145	6.755	0.527
955.500	556.273	80.004	19.995	103.221	20.147	6.632	0.496
956.000	556.519	80.005	19.995	103.220	20.145	6.768	0.468
956.500	556.783	80.005	19.996	103.218	20.147	6.645	0.495
957.000	557.078	80.003	19.995	103.219	20.146	6.736	0.534
957.500	557.307	80.004	19.995	103.218	20.146	6.732	0.542
958.000	557.557	80.005	19.994	103.217	20.148	6.602	0.501
958.500	557.797	80.006	19.994	103.216	20.147	6.682	0.484
959.000	558.051	80.004	19.994	103.218	20.144	6.859	0.492
959.500	558.319	80.005	19.996	103.216	20.147	6.667	0.508
960.000	558.582	80.004	19.994	103.221	20.145	6.777	0.526
960.500	558.830	80.005	19.994	103.225	20.147	6.681	0.520
961.000	559.075	80.006	19.994	103.226	20.146	6.746	0.502
961.500	559.329	80.005	19.994	103.225	20.147	6.666	0.496
962.000	559.574	80.005	19.994	103.225	20.150	6.456	0.499
962.500	559.821	80.004	19.994	103.220	20.144	6.872	0.496
963.000	560.065	80.005	19.993	103.216	20.145	6.762	0.491
963.500	560.337	80.005	19.994	103.214	20.147	6.641	0.503
964.000	560.569	80.006	19.995	103.214	20.144	6.831	0.510
964.500	560.839	80.004	19.996	103.213	20.144	6.860	0.503
965.000	561.082	80.005	19.994	103.214	20.148	6.601	0.508
965.500	561.322	80.005	19.994	103.214	20.146	6.684	0.498
966.000	561.629	80.006	19.995	103.215	20.148	6.617	0.514
966.500	561.786	80.005	19.995	103.219	20.146	6.742	0.506
967.000	562.120	80.005	19.995	103.222	20.147	6.657	0.478
967.500	562.361	80.005	19.996	103.223	20.146	6.730	0.533
968.000	562.605	80.005	19.995	103.228	20.149	6.541	0.530
968.500	562.859	80.006	19.994	103.233	20.146	6.702	0.491
969.000	563.146	80.006	19.994	103.234	20.147	6.646	0.519
969.500	563.339	80.005	19.994	103.235	20.149	6.503	0.510
970.000	563.646	80.006	19.995	103.237	20.145	6.771	0.490
970.500	563.906	80.005	19.995	103.235	20.147	6.662	0.534
971.000	564.172	80.005	19.994	103.230	20.147	6.664	0.547
971.500	564.411	80.006	19.995	103.224	20.148	6.576	0.515
972.000	564.659	80.005	19.994	103.221	20.147	6.648	0.496
972.500	564.892	80.004	19.994	103.217	20.146	6.744	0.484
973.000	565.154	80.005	19.994	103.216	20.147	6.642	0.488
973.500	565.408	80.005	19.995	103.217	20.145	6.809	0.506
974.000	565.675	80.005	19.994	103.218	20.147	6.635	0.518
974.500	565.936	80.007	19.996	103.220	20.148	6.570	0.524
975.000	566.178	80.004	19.994	103.222	20.148	6.552	0.515
975.500	566.449	80.005	19.994	103.221	20.146	6.746	0.508
976.000	566.705	80.003	19.994	103.222	20.147	6.671	0.520
976.500	566.970	80.005	19.994	103.221	20.146	6.688	0.524
977.000	567.185	80.005	19.995	103.219	20.148	6.559	0.501
977.500	567.460	80.003	19.994	103.217	20.146	6.709	0.485
978.000	567.741	80.005	19.995	103.219	20.146	6.693	0.523
978.500	567.958	80.006	19.995	103.221	20.149	6.548	0.527
979.000	568.217	80.005	19.995	103.220	20.148	6.561	0.487
979.500	568.503	80.004	19.994	103.220	20.147	6.646	0.511
980.000	568.748	80.005	19.994	103.220	20.149	6.534	0.538
980.500	569.005	80.005	19.994	103.217	20.150	6.482	0.517
981.000	569.252	80.006	19.995	103.217	20.148	6.605	0.503
981.500	569.498	80.006	19.994	103.217	20.148	6.585	0.498
982.000	569.762	80.004	19.995	103.217	20.149	6.511	0.501
982.500	570.012	80.004	19.994	103.217	20.147	6.644	0.512
983.000	570.256	80.006	19.995	103.217	20.146	6.701	0.504
983.500	570.520	80.005	19.996	103.214	20.150	6.441	0.501
984.000	570.760	80.005	19.994	103.214	20.148	6.596	0.506
984.500	571.012	80.006	19.995	103.216	20.148	6.594	0.498
985.000	571.264	80.006	19.995	103.216	20.148	6.599	0.498
985.500	571.523	80.006	19.995	103.216	20.146	6.690	0.508
986.000	571.760	80.007	19.994	103.216	20.147	6.652	0.503
986.500	572.003	80.005	19.994	103.216	20.146	6.692	0.488
987.000	572.301	80.004	19.994	103.213	20.145	6.766	0.511
987.500	572.513	80.005	19.995	103.213	20.145	6.777	0.526
988.000	572.774	80.006	19.996	103.214	20.145	6.759	0.492
988.500	573.044	80.005	19.996	103.215	20.146	6.710	0.503
989.000	573.297	80.007	19.995	103.216	20.144	6.858	0.527
989.500	573.541	80.007	19.995	103.216	20.146	6.723	0.509
990.000	573.858	80.006	19.995	103.216	20.148	6.558	0.529
990.500	574.098	80.007	19.995	103.216	20.147	6.647	0.560
991.000	574.371	80.007	19.994	103.216	20.147	6.624	0.535
991.500	574.585	80.007	19.994	103.218	20.147	6.632	0.499
992.000	574.901	80.006	19.995	103.219	20.147	6.635	0.508
992.500	575.158	80.007	19.995	103.225	20.147	6.664	0.552
993.000	575.386	80.007	19.994	103.232	20.148	6.607	0.529
993.500	575.657	80.007	19.995	103.234	20.148	6.592	0.492
994.000	575.909	80.007	19.995	103.232	20.147	6.677	0.511
994.500	576.154	80.006	19.994	103.232	20.146	6.703	0.510
995.000	576.412	80.008	19.994	103.226	20.145	6.797	0.500
995.500	576.652	80.007	19.994	103.219	20.145	6.797	0.500
996.000	576.944	80.006	19.994	103.221	20.146	6.734	0.515
996.500	577.191	80.008	19.993	103.224	20.145	6.792	0.536
997.000	577.414	80.006	19.993	103.226	20.142	6.987	0.504
997.500	577.654	80.008	19.994	103.227	20.144	6.881	0.466
998.000	577.926	80.007	19.994	103.227	20.144	6.825	0.487
998.500	578.139	80.006	19.995	103.223	20.144	6.845	0.499
999.000	578.409	80.007	19.993	103.222	20.144	6.850	0.485
999.500	578.636	80.008	19.994	103.223	20.145	6.816	0.490
1000.000	578.929	80.007	19.994	103.222	20.146	6.701	0.508
1000.500	579.169	80.008	19.995	103.226	20.149	6.547	0.526
1001.000	579.437	80.007	19.993	103.229	20.148	6.587	0.520
1001.500	579.680	80.006	19.995	103.235	20.144	6.827	0.509
1002.000	579.916	80.006	19.995	103.239	20.144	6.864	0.495
1002.500	580.205	80.005	19.996	103.246	20.145	6.764	0.502
1003.000	580.438	80.006	19.994	103.243	20.145	6.795	0.524
1003.500	580.688	80.006	19.993	103.239	20.146	6.726	0.503
1004.000	581.014	80.006	19.995	103.231	20.142	6.985	0.529
1004.500	581.234	80.005	19.994	103.227	20.146	6.726	0.561
1005.000	581.516	80.006	19.994	103.223	20.145	6.773	0.524
1005.500	581.765	80.006	19.994	103.227	20.144	6.868	0.517
1006.000	582.036	80.006	19.994	103.231	20.146	6.741	0.526
1006.500	582.285	80.007	19.994	103.231	20.148	6.592	0.520
1007.000	582.560	80.006	19.994	103.229	20.146	6.746	0.522
1007.500	582.817	80.006	19.993	103.231	20.145	6.795	0.528
1008.000	583.060	80.005	19.995	103.231	20.145	6.771	0.516
1008.500	583.326	80.006	19.995	103.235	20.145	6.802	0.505
1009.000	583.588	80.006	19.995	103.241	20.145	6.789	0.519
1009.500	583.855	80.007	19.994	103.241	20.146	6.722	0.528
1010.000	584.096	80.006	19.995	103.239	20.143	6.882	0.518
1010.500	584.358	80.006	19.994	103.235	20.144	6.826	0.505
1011.000	584.601	80.006	19.995	103.228	20.148	6.596	0.504
1011.500	584.879	80.006	19.995	103.222	20.146	6.724	0.513
1012.000	585.132	80.007	19.995	103.222	20.142	6.978	0.526
1012.500	585.418	80.007	19.993	103.221	20.148	6.605	0.535
1013.000	585.653	80.007	19.995	103.222	20.144	6.847	0.530
1013.500	585.941	80.007	19.994	103.222	20.145	6.792	0.522
1014.000	586.216	80.006	19.995	103.222	20.145	6.751	0.543
1014.500	586.481	80.008	19.996	103.226	20.143	6.901	0.552
1015.000	586.739	80.008	19.994	103.227	20.141	7.039	0.531
1015.500	587.008	80.006	19.994	103.225	20.143	6.889	0.525
1016.000	587.273	80.007	19.995	103.226	20.143	6.899	0.531
1016.500	587.565	80.006	19.994	103.226	20.142	7.003	0.546
1017.000	587.834	80.007	19.994	103.222	20.140	7.144	0.560
1017.500	588.051	80.008	19.994	103.220	20.140	7.138	0.524
1018.000	588.326	80.006	19.994	103.219	20.140	7.144	0.489
1018.500	588.568	80.006	19.993	103.217	20.136	7.379	0.504
1019.000	588.844	80.009	19.994	103.217	20.141	7.022	0.517
1019.500	589.155	80.008	19.996	103.217	20.142	7.010	0.552
1020.000	589.435	80.008	19.995	103.217	20.140	7.120	0.589
1020.500	589.664	80.008	19.994	103.217	20.141	7.032	0.550
1021.000	589.955	80.009	19.995	103.220	20.140	7.079	0.514
1021.500	590.209	80.007	19.995	103.223	20.139	7.159	0.532
1022.000	590.506	80.007	19.994	103.223	20.140	7.103	0.548
1022.500	590.744	80.007	19.994	103.222	20.138	7.233	0.543
1023.000	591.032	80.007	19.994	103.221	20.138	7.276	0.531
1023.500	591.295	80.007	19.995	103.219	20.138	7.217	0.539
1024.000	591.553	80.007	19.996	103.214	20.138	7.262	0.536
1024.500	591.824	80.007	19.993	103.213	20.138	7.217	0.525
1025.000	592.097	80.007	19.995	103.214	20.135	7.412	0.536
1025.500	592.351	80.006	19.993	103.214	20.137	7.294	0.535
1025.999	592.620	80.005	19.995	103.215	20.137	7.295	0.525
1026.499	592.889	80.007	19.994	103.215	20.135	7.452	0.531
1026.999	593.166	80.005	19.994	103.215	20.136	7.390	0.542
1027.499	593.443	80.006	19.994	103.215	20.140	7.126	0.550
1027.999	593.707	80.005	19.994	103.215	20.136	7.358	0.547
1028.499	593.977	80.005	19.995	103.215	20.138	7.231	0.537
1028.999	594.270	80.006	19.996	103.216	20.136	7.385	0.548
1029.500	594.503	80.005	19.993	103.215	20.135	7.473	0.545
1030.000	594.793	80.004	19.996	103.215	20.136	7.350	0.525
1030.499	595.091	80.006	19.995	103.214	20.136	7.354	0.556
1030.999	595.333	80.005	19.995	103.217	20.137	7.331	0.564
1031.499	595.555	80.006	19.995	103.221	20.134	7.519	0.502
1031.999	595.864	80.007	19.995	103.223	20.138	7.277	0.497
1032.499	596.120	80.006	19.995	103.225	20.134	7.505	0.548
1032.999	596.400	80.006	19.994	103.227	20.133	7.590	0.551
1033.499	596.655	80.005	19.996	103.227	20.135	7.473	0.536
1033.999	596.916	80.005	19.995	103.223	20.134	7.496	0.526
1034.499	597.203	80.005	19.994	103.225	20.136	7.378	0.532
1034.999	597.474	80.005	19.995	103.225	20.137	7.322	0.553
1035.499	597.714	80.006	19.996	103.223	20.136	7.362	0.535
1035.999	597.982	80.005	19.994	103.222	20.135	7.443	0.510
1036.499	598.268	80.005	19.996	103.222	20.136	7.355	0.531
1036.999	598.573	80.006	19.994	103.223	20.135	7.427	0.572
1037.499	598.827	80.004	19.995	103.222	20.135	7.464	0.575
1037.999	599.076	80.005	19.995	103.223	20.134	7.480	0.531
1038.499	599.333	80.004	19.995	103.222	20.135	7.467	0.505
1038.999	599.601	80.006	19.995	103.221	20.134	7.495	0.515
1039.499	599.831	80.005	19.995	103.217	20.137	7.316	0.512
1039.999	600.122	80.006	19.996	103.217	20.136	7.358	0.510
1040.500	600.401	80.005	19.995	103.217	20.136	7.351	0.545
1041.000	600.671	80.006	19.996	103.217	20.138	7.230	0.559
1041.500	600.914	80.006	19.996	103.220	20.134	7.487	0.531
1042.000	601.219	80.005	19.996	103.224	20.135	7.467	0.531
1042.499	601.470	80.005	19.996	103.226	20.135	7.466	0.552
1042.999	601.713	80.005	19.995	103.228	20.135	7.419	0.525
1043.499	601.994	80.005	19.996	103.229	20.138	7.234	0.509
1044.000	602.235	80.006	19.995	103.230	20.136	7.401	0.523
1044.500	602.497	80.005	19.996	103.232	20.131	7.687	0.513
1044.999	602.755	80.006	19.996	103.229	20.135	7.447	0.512
1045.499	603.045	80.006	19.996	103.226	20.134	7.527	0.534
1045.999	603.261	80.006	19.995	103.226	20.135	7.466	0.527
1046.499	603.583	80.007	19.996	103.228	20.135	7.424	0.522
1046.999	603.816	80.004	19.995	103.227	20.132	7.620	0.547
1047.499	604.114	80.005	19.996	103.231	20.135	7.428	0.544
1047.999	604.332	80.005	19.996	103.235	20.137	7.307	0.523
1048.499	604.624	80.004	19.996	103.235	20.139	7.146	0.513
1048.999	604.886	80.005	19.996	103.231	20.138	7.222	0.532
1049.499	605.127	80.005	19.996	103.225	20.138	7.247	0.529
1049.999	605.423	80.006	19.995	103.222	20.136	7.385	0.520
1050.499	605.662	80.007	19.996	103.218	20.133	7.597	0.536
1050.999	605.907	80.006	19.996	103.220	20.135	7.437	0.509
1051.499	606.201	80.006	19.994	103.223	20.135	7.466	0.512
1051.999	606.453	80.005	19.995	103.226	20.135	7.435	0.543
1052.499	606.713	80.005	19.995	103.228	20.134	7.500	0.529
1052.999	606.956	80.006	19.995	103.233	20.136	7.406	0.507
1053.499	607.267	80.006	19.994	103.235	20.133	7.569	0.528
1053.999	607.520	80.005	19.994	103.238	20.141	7.061	0.559
1054.500	607.787	80.005	19.994	103.242	20.134	7.488	0.542
1055.001	608.028	80.005	19.995	103.246	20.136	7.356	0.514
1055.501	608.275	80.005	19.995	103.241	20.136	7.345	0.498
1056.000	608.548	80.007	19.995	103.235	20.138	7.224	0.503
1056.499	608.808	80.006	19.994	103.228	20.137	7.320	0.527
1056.999	609.072	80.005	19.995	103.220	20.136	7.372	0.529
1057.499	609.294	80.006	19.994	103.214	20.137	7.298	0.505
1057.999	609.573	80.004	19.995	103.214	20.135	7.473	0.493
1058.499	609.849	80.005	19.994	103.214	20.136	7.366	0.528
1058.999	610.095	80.005	19.994	103.214	20.138	7.262	0.539
1059.499	610.401	80.005	19.994	103.218	20.135	7.457	0.537
1059.999	610.649	80.005	19.994	103.222	20.137	7.330	0.553
1060.499	610.854	80.005	19.994	103.223	20.137	7.287	0.504
1060.999	611.173	80.005	19.994	103.224	20.132	7.631	0.489
1061.499	611.419	80.004	19.993	103.225	20.135	7.459	0.545
1062.000	611.689	80.004	19.994	103.223	20.137	7.338	0.540
1062.500	611.951	80.004	19.995	103.219	20.137	7.303	0.524
1062.999	612.209	80.003	19.995	103.218	20.137	7.330	0.526
1063.499	612.507	80.005	19.995	103.217	20.137	7.316	0.538
1063.999	612.741	80.005	19.994	103.217	20.136	7.365	0.544
1064.499	612.998	80.004	19.994	103.218	20.138	7.220	0.511
1064.999	613.250	80.005	19.993	103.218	20.136	7.397	0.500
1065.499	613.527	80.003	19.994	103.221	20.141	7.071	0.519
1065.999	613.790	80.004	19.994	103.223	20.134	7.499	0.535
1066.499	614.035	80.005	19.995	103.225	20.135	7.414	0.524
1067.000	614.321	80.006	19.995	103.225	20.137	7.325	0.520
1067.500	614.598	80.005	19.993	103.225	20.139	7.164	0.547
1068.000	614.858	80.005	19.994	103.221	20.135	7.419	0.550
1068.501	615.158	80.006	19.994	103.219	20.140	7.126	0.548
1069.000	615.412	80.005	19.995	103.217	20.146	6.743	0.557
1069.499	615.640	80.007	19.995	103.217	20.141	7.072	0.518
1069.999	615.915	80.007	19.994	103.218	20.135	7.411	0.492
1070.499	616.177	80.007	19.995	103.218	20.135	7.441	0.520
1070.999	616.445	80.006	19.995	103.218	20.133	7.591	0.534
1071.499	616.659	80.006	19.994	103.218	20.136	7.387	0.506
1071.999	616.992	80.007	19.994	103.218	20.134	7.486	0.515
1072.499	617.223	80.006	19.995	103.217	20.133	7.548	0.556
1072.999	617.464	80.007	19.994	103.218	20.131	7.685	0.518
1073.499	617.721	80.008	19.994	103.218	20.139	7.204	0.485
1073.999	617.989	80.006	19.994	103.218	20.137	7.293	0.511
1074.499	618.256	80.007	19.994	103.218	20.141	7.070	0.529
1074.999	618.510	80.006	19.994	103.218	20.137	7.282	0.528
1075.499	618.746	80.006	19.993	103.217	20.138	7.245	0.506
1075.999	619.012	80.006	19.994	103.217	20.137	7.278	0.496
1076.499	619.281	80.007	19.994	103.217	20.136	7.356	0.518
1076.999	619.579	80.006	19.995	103.217	20.140	7.111	0.551
1077.499	619.812	80.007	19.995	103.217	20.135	7.410	0.550
1077.999	620.074	80.006	19.995	103.217	20.138	7.224	0.513
1078.499	620.346	80.007	19.994	103.220	20.140	7.140	0.514
1078.999	620.631	80.006	19.994	103.221	20.135	7.428	0.546
1079.499	620.851	80.006	19.994	103.225	20.138	7.225	0.531
1079.999	621.118	80.005	19.994	103.227	20.138	7.269	0.496
1080.499	621.367	80.006	19.994	103.228	20.137	7.280	0.502
1080.999	621.584	80.006	19.993	103.226	20.136	7.399	0.491
1081.499	621.890	80.005	19.994	103.226	20.139	7.209	0.494
1081.999	622.173	80.006	19.994	103.222	20.139	7.148	0.556
1082.499	622.377	80.005	19.994	103.219	20.141	7.052	0.538
1082.999	622.644	80.006	19.994	103.219	20.138	7.238	0.479
1083.499	622.909	80.006	19.994	103.219	20.139	7.191	0.502
1084.000	623.175	80.005	19.994	103.220	20.137	7.310	0.531
1084.500	623.442	80.006	19.994	103.221	20.138	7.240	0.532
1084.999	623.690	80.006	19.994	103.220	20.142	7.004	0.524
1085.499	623.977	80.006	19.993	103.220	20.142	6.948	0.525
1085.999	624.202	80.006	19.994	103.220	20.138	7.255	0.524
1086.499	624.460	80.007	19.993	103.219	20.141	7.063	0.498
1086.999	624.753	80.007	19.994	103.219	20.142	6.969	0.517
1087.499	625.034	80.007	19.994	103.219	20.144	6.869	0.563
1088.000	625.266	80.006	19.995	103.218	20.141	7.025	0.544
1088.500	625.550	80.007	19.994	103.218	20.139	7.155	0.514
1088.999	625.795	80.006	19.994	103.217	20.140	7.126	0.522
1089.499	626.037	80.007	19.994	103.217	20.143	6.936	0.508
1089.999	626.277	80.007	19.993	103.217	20.143	6.934	0.485
1090.499	626.580	80.008	19.993	103.216	20.141	7.016	0.513
1090.999	626.798	80.006	19.994	103.216	20.139	7.197	0.532
1091.499	627.063	80.007	19.994	103.216	20.141	7.052	0.502
1091.999	627.256	80.008	19.994	103.216	20.148	6.558	0.470
1092.500	627.597	80.007	19.993	103.216	20.140	7.093	0.496
1093.000	627.811	80.008	19.994	103.217	20.139	7.189	0.545
1093.499	628.069	80.006	19.994	103.219	20.142	6.988	0.513
1093.999	628.365	80.009	19.994	103.219	20.140	7.111	0.513
1094.499	628.608	80.008	19.994	103.218	20.140	7.140	0.546
1094.999	628.865	80.009	19.994	103.217	20.142	6.961	0.520
1095.499	629.081	80.010	19.993	103.216	20.142	6.993	0.487
1095.999	629.372	80.008	19.993	103.214	20.143	6.910	0.490
1096.499	629.591	80.008	19.993	103.218	20.142	7.003	0.509
1096.999	629.872	80.008	19.994	103.221	20.140	7.120	0.505
1097.499	630.134	80.007	19.994	103.222	20.142	6.963	0.521
1097.999	630.426	80.007	19.994	103.222	20.145	6.813	0.548
1098.499	630.663	80.009	19.995	103.224	20.140	7.083	0.542
1099.000	630.906	80.009	19.995	103.221	20.141	7.061	0.505
1099.500	631.176	80.008	19.995	103.220	20.145	6.790	0.496
1099.999	631.448	80.008	19.994	103.221	20.145	6.793	0.527
1100.499	631.692	80.009	19.994	103.224	20.143	6.891	0.529
1100.999	631.938	80.010	19.995	103.225	20.144	6.865	0.503
1101.499	632.223	80.009	19.995	103.226	20.145	6.809	0.511
1101.999	632.490	80.009	19.993	103.223	20.144	6.841	0.541
1102.499	632.724	80.008	19.995	103.222	20.144	6.820	0.526
1102.999	632.983	80.008	19.994	103.219	20.143	6.913	0.497
1103.499	633.205	80.007	19.996	103.216	20.141	7.045	0.487
1103.999	633.514	80.009	19.994	103.215	20.143	6.914	0.506
1104.499	633.740	80.008	19.995	103.215	20.139	7.162	0.533
1104.999	634.010	80.008	19.995	103.215	20.143	6.934	0.515
1105.499	634.245	80.007	19.994	103.215	20.143	6.932	0.500
1106.000	634.517	80.007	19.995	103.215	20.145	6.758	0.506
1106.500	634.750	80.008	19.995	103.213	20.147	6.673	0.506
1106.999	635.030	80.005	19.994	103.214	20.143	6.917	0.509
1107.499	635.291	80.005	19.995	103.216	20.144	6.879	0.527
1107.999	635.544	80.006	19.997	103.219	20.147	6.635	0.527
1108.499	635.815	80.005	19.996	103.220	20.146	6.740	0.519
1108.999	636.034	80.006	19.997	103.223	20.142	6.986	0.507
1109.499	636.309	80.007	19.995	103.224	20.144	6.850	0.492
1109.999	636.550	80.006	19.995	103.225	20.149	6.532	0.505
1110.499	636.834	80.005	19.995	103.226	20.144	6.838	0.520
1110.999	637.074	80.007	19.996	103.224	20.146	6.718	0.524
1111.499	637.334	80.006	19.995	103.221	20.146	6.742	0.512
1111.999	637.582	80.007	19.995	103.218	20.145	6.771	0.504
1112.499	637.852	80.006	19.996	103.216	20.144	6.863	0.513
1112.999	638.090	80.005	19.995	103.215	20.149	6.536	0.513
1113.499	638.362	80.005	19.996	103.222	20.146	6.738	0.510
1114.000	638.654	80.005	19.996	103.224	20.146	6.704	0.537
1114.501	638.875	80.006	19.995	103.224	20.144	6.861	0.538
1115.001	639.140	80.007	19.996	103.224	20.146	6.740	0.500
1115.501	639.388	80.005	19.996	103.221	20.145	6.758	0.500
1116.001	639.655	80.006	19.995	103.216	20.146	6.704	0.513
1116.500	639.912	80.006	19.996	103.214	20.149	6.543	0.519
1116.999	640.145	80.006	19.996	103.215	20.147	6.668	0.507
1117.499	640.381	80.005	19.994	103.215	20.144	6.860	0.479
1117.999	640.623	80.006	19.994	103.215	20.147	6.680	0.474
1118.499	640.898	80.006	19.995	103.214	20.147	6.641	0.498
1118.999	641.170	80.006	19.994	103.214	20.146	6.715	0.532
1119.499	641.400	80.005	19.995	103.213	20.145	6.787	0.524
1119.999	641.682	80.005	19.995	103.214	20.152	6.329	0.507
1120.499	641.949	80.006	19.995	103.214	20.151	6.407	0.531
1120.999	642.187	80.006	19.995	103.214	20.148	6.611	0.527
1121.499	642.464	80.006	19.995	103.214	20.148	6.611	0.510
1122.000	642.706	80.006	19.995	103.215	20.147	6.628	0.517
1122.501	642.943	80.005	19.995	103.214	20.144	6.825	0.499
1123.000	643.224	80.005	19.994	103.215	20.145	6.780	0.499
1123.499	643.444	80.005	19.995	103.215	20.146	6.724	0.509
1123.999	643.690	80.005	19.994	103.215	20.146	6.700	0.484
1124.499	643.998	80.007	19.995	103.215	20.148	6.586	0.510
1124.999	644.244	80.006	19.995	103.216	20.150	6.438	0.553
1125.499	644.473	80.006	19.996	103.216	20.146	6.706	0.514
1126.000	644.739	80.006	19.995	103.216	20.148	6.585	0.485
1126.500	644.937	80.005	19.994	103.216	20.146	6.688	0.479
1126.999	645.215	80.007	19.995	103.215	20.147	6.668	0.470
1127.499	645.461	80.006	19.995	103.215	20.146	6.721	0.500
1127.999	645.729	80.006	19.995	103.215	20.147	6.679	0.519
1128.499	646.002	80.006	19.994	103.216	20.147	6.635	0.528
1128.999	646.254	80.006	19.995	103.216	20.141	7.068	0.533
1129.499	646.492	80.007	19.995	103.217	20.145	6.802	0.508
1129.999	646.728	80.006	19.995	103.218	20.147	6.677	0.482
1130.499	647.049	80.006	19.995	103.218	20.145	6.762	0.515
1131.000	647.303	80.007	19.995	103.217	20.145	6.805	0.565
1131.500	647.509	80.007	19.995	103.216	20.146	6.733	0.517
1131.999	647.806	80.007	19.995	103.213	20.147	6.650	0.482
1132.499	648.047	80.007	19.994	103.211	20.145	6.799	0.520
1132.999	648.298	80.005	19.996	103.210	20.146	6.703	0.515
1133.499	648.520	80.006	19.995	103.210	20.144	6.826	0.483
1133.999	648.807	80.006	19.996	103.210	20.147	6.642	0.491
1134.500	649.052	80.005	19.995	103.214	20.144	6.854	0.521
1135.000	649.317	80.005	19.995	103.215	20.144	6.849	0.521
1135.499	649.572	80.005	19.995	103.215	20.145	6.749	0.515
1136.000	649.758	80.006	19.996	103.215	20.148	6.601	0.481
1136.501	650.085	80.004	19.995	103.216	20.144	6.824	0.477
1137.000	650.317	80.005	19.995	103.217	20.142	6.970	0.536
1137.499	650.590	80.005	19.996	103.218	20.144	6.816	0.532
1137.999	650.832	80.005	19.995	103.219	20.149	6.498	0.510
1138.499	651.098	80.004	19.996	103.220	20.147	6.670	0.512
1138.999	651.372	80.006	19.996	103.221	20.147	6.626	0.524
1139.499	651.601	80.005	19.996	103.220	20.147	6.682	0.522
1139.999	651.847	80.005	19.996	103.219	20.147	6.651	0.489
1140.499	652.102	80.004	19.996	103.219	20.147	6.619	0.487
1141.000	652.372	80.005	19.995	103.218	20.151	6.409	0.513
1141.500	652.628	80.004	19.995	103.216	20.144	6.843	0.526
1141.999	652.878	80.005	19.996	103.216	20.148	6.577	0.516
1142.499	653.117	80.004	19.996	103.216	20.148	6.593	0.497
1142.999	653.372	80.005	19.994	103.213	20.145	6.789	0.492
1143.500	653.642	80.005	19.995	103.208	20.148	6.573	0.510
1144.000	653.887	80.005	19.995	103.207	20.151	6.405	0.520
1144.499	654.119	80.004	19.995	103.207	20.148	6.597	0.496
1144.999	654.386	80.005	19.995	103.208	20.148	6.615	0.488
1145.500	654.662	80.006	19.995	103.209	20.145	6.764	0.521
1146.000	654.893	80.004	19.995	103.214	20.150	6.429	0.525
1146.499	655.139	80.005	19.995	103.216	20.143	6.937	0.492
1146.999	655.376	80.006	19.995	103.216	20.145	6.760	0.479
1147.499	655.651	80.005	19.994	103.217	20.147	6.653	0.498
1147.999	655.900	80.004	19.994	103.219	20.144	6.823	0.518
1148.499	656.158	80.006	19.994	103.219	20.142	6.988	0.515
1148.999	656.440	80.005	19.993	103.218	20.147	6.651	0.524
1149.500	656.671	80.005	19.994	103.218	20.147	6.628	0.526
1150.000	656.951	80.005	19.993	103.217	20.144	6.830	0.512
1150.500	657.184	80.006	19.995	103.217	20.141	7.077	0.512
1151.000	657.444	80.005	19.993	103.216	20.145	6.758	0.503
1151.499	657.680	80.006	19.994	103.216	20.144	6.834	0.495
1151.999	657.921	80.006	19.995	103.216	20.143	6.888	0.487
1152.499	658.216	80.007	19.995	103.214	20.148	6.588	0.506
1152.999	658.441	80.006	19.994	103.212	20.147	6.658	0.528
1153.499	658.671	80.008	19.994	103.212	20.147	6.651	0.487
1154.000	658.967	80.007	19.996	103.211	20.148	6.592	0.490
1154.501	659.228	80.006	19.994	103.211	20.145	6.806	0.541
1155.000	659.488	80.007	19.995	103.211	20.145	6.791	0.539
1155.499	659.711	80.007	19.994	103.212	20.149	6.544	0.503
1156.000	659.992	80.008	19.995	103.213	20.145	6.784	0.493
1156.500	660.228	80.009	19.995	103.214	20.149	6.526	0.510
1156.999	660.494	80.007	19.995	103.214	20.146	6.724	0.509
1157.499	660.767	80.007	19.994	103.213	20.148	6.584	0.520
1157.999	661.003	80.009	19.995	103.212	20.146	6.744	0.524
1158.499	661.292	80.007	19.995	103.212	20.145	6.809	0.517
1158.999	661.546	80.006	19.994	103.211	20.144	6.841	0.535
1159.499	661.783	80.007	19.994	103.212	20.144	6.823	0.517
1159.999	662.003	80.007	19.995	103.212	20.146	6.736	0.473
1160.499	662.261	80.007	19.995	103.212	20.142	7.011	0.467
1160.999	662.553	80.008	19.994	103.212	20.144	6.823	0.515
1161.499	662.757	80.007	19.995	103.212	20.145	6.803	0.523
1161.999	663.032	80.006	19.995	103.213	20.144	6.836	0.487
1162.499	663.241	80.007	19.994	103.214	20.145	6.801	0.481
1162.999	663.532	80.007	19.994	103.210	20.148	6.604	0.492
1163.499	663.772	80.007	19.995	103.208	20.144	6.872	0.516
1163.999	664.032	80.006	19.994	103.206	20.144	6.847	0.516
1164.499	664.273	80.006	19.994	103.203	20.147	6.642	0.500
1164.999	664.513	80.007	19.996	103.196	20.142	6.955	0.491
1165.499	664.771	80.006	19.995	103.195	20.146	6.721	0.490
1165.999	665.003	80.006	19.994	103.196	20.142	6.993	0.494
1166.499	665.306	80.007	19.994	103.197	20.145	6.799	0.513
1166.999	665.550	80.006	19.993	103.197	20.144	6.865	0.541
1167.500	665.845	80.006	19.995	103.205	20.142	6.959	0.543
1168.000	666.093	80.006	19.996	103.212	20.146	6.691	0.541
1168.499	666.319	80.007	19.995	103.213	20.145	6.781	0.508
1168.999	666.556	80.006	19.994	103.213	20.144	6.854	0.468
1169.499	666.799	80.007	19.995	103.212	20.145	6.810	0.471
1169.999	667.060	80.008	19.995	103.211	20.147	6.656	0.492
1170.499	667.337	80.007	19.995	103.210	20.144	6.865	0.521
1170.999	667.573	80.006	19.994	103.210	20.144	6.857	0.526
1171.499	667.817	80.007	19.994	103.211	20.144	6.879	0.496
1171.999	668.073	80.007	19.995	103.211	20.140	7.121	0.490
1172.499	668.323	80.008	19.994	103.212	20.139	7.201	0.503
1172.999	668.611	80.007	19.994	103.212	20.143	6.917	0.522
1173.499	668.831	80.007	19.995	103.212	20.141	7.055	0.523
1174.000	669.081	80.007	19.994	103.213	20.143	6.930	0.489
1174.500	669.326	80.007	19.994	103.212	20.139	7.185	0.482
1174.999	669.574	80.006	19.994	103.210	20.140	7.109	0.494
1175.499	669.798	80.007	19.994	103.210	20.143	6.921	0.483
1175.999	670.090	80.007	19.995	103.207	20.141	7.022	0.494
1176.499	670.333	80.008	19.995	103.207	20.141	7.073	0.525
1176.999	670.548	80.008	19.994	103.207	20.142	7.001	0.497
1177.499	670.804	80.008	19.994	103.209	20.139	7.156	0.464
1178.000	671.105	80.008	19.994	103.210	20.140	7.118	0.514
1178.500	671.319	80.009	19.994	103.213	20.139	7.193	0.536
1178.999	671.601	80.008	19.994	103.210	20.141	7.057	0.506
1179.499	671.854	80.007	19.994	103.209	20.139	7.149	0.516
1179.999	672.073	80.008	19.994	103.209	20.143	6.937	0.504
1180.499	672.303	80.009	19.994	103.208	20.145	6.781	0.461
1180.999	672.585	80.009	19.993	103.208	20.141	7.076	0.481
1181.499	672.828	80.010	19.994	103.210	20.141	7.015	0.518
1181.999	673.062	80.010	19.994	103.208	20.139	7.176	0.501
1182.499	673.348	80.009	19.994	103.205	20.140	7.111	0.499
1182.999	673.551	80.009	19.995	103.206	20.140	7.133	0.505
1183.500	673.795	80.009	19.993	103.205	20.145	6.774	0.468
1184.000	674.103	80.008	19.994	103.206	20.142	6.982	0.499
1184.499	674.372	80.009	19.994	103.209	20.145	6.812	0.565
1184.999	674.613	80.009	19.994	103.213	20.136	7.358	0.543
1185.499	674.799	80.010	19.994	103.213	20.143	6.913	0.468
1185.999	675.075	80.008	19.994	103.214	20.140	7.087	0.445
1186.499	675.336	80.007	19.994	103.214	20.139	7.205	0.500
1186.999	675.617	80.008	19.993	103.213	20.142	7.004	0.539
1187.500	675.877	80.007	19.994	103.213	20.140	7.115	0.541
1188.000	676.113	80.009	19.994	103.213	20.141	7.069	0.519
1188.500	676.365	80.006	19.993	103.214	20.142	6.955	0.492
1189.000	676.597	80.007	19.993	103.214	20.141	7.037	0.486
1189.499	676.850	80.007	19.994	103.215	20.144	6.827	0.485
1189.999	677.116	80.005	19.994	103.213	20.143	6.934	0.503
1190.500	677.380	80.005	19.993	103.208	20.139	7.174	0.525
1191.000	677.653	80.005	19.993	103.202	20.141	7.064	0.533
1191.499	677.887	80.005	19.995	103.201	20.138	7.234	0.522
1191.999	678.126	80.006	19.994	103.202	20.141	7.050	0.489
1192.499	678.354	80.004	19.993	103.205	20.138	7.225	0.470
1192.999	678.637	80.005	19.993	103.210	20.139	7.196	0.489
1193.499	678.913	80.004	19.994	103.216	20.140	7.135	0.535
1193.999	679.197	80.006	19.995	103.217	20.139	7.176	0.560
1194.499	679.381	80.004	19.993	103.214	20.138	7.225	0.514
1194.999	679.654	80.005	19.995	103.210	20.139	7.202	0.463
1195.499	679.880	80.005	19.995	103.209	20.140	7.133	0.478
1196.000	680.190	80.004	19.995	103.206	20.143	6.928	0.518
1196.500	680.413	80.005	19.995	103.206	20.139	7.196	0.534
1196.999	680.686	80.004	19.994	103.207	20.140	7.086	0.515
1197.499	680.954	80.006	19.993	103.208	20.139	7.167	0.519
1197.999	681.170	80.005	19.995	103.209	20.142	6.948	0.512
1198.499	681.430	80.003	19.995	103.212	20.141	7.061	0.480
1198.999	681.691	80.005	19.995	103.212	20.141	7.049	0.498
1199.499	681.936	80.005	19.995	103.213	20.140	7.101	0.513
1199.999	682.174	80.005	19.993	103.215	20.143	6.906	0.494
1200.500	682.449	80.006	19.994	103.214	20.141	7.035	0.498
1201.001	682.713	80.004	19.994	103.214	20.140	7.095	0.526
1201.500	683.004	80.005	19.995	103.214	20.141	7.048	0.547
1201.999	683.263	80.005	19.994	103.216	20.143	6.938	0.552
1202.499	683.502	80.005	19.994	103.216	20.140	7.138	0.524
1202.999	683.767	80.005	19.994	103.217	20.143	6.892	0.501
1203.499	684.007	80.006	19.994	103.217	20.141	7.050	0.504
1203.999	684.268	80.007	19.995	103.217	20.139	7.148	0.503
1204.500	684.512	80.005	19.994	103.217	20.138	7.213	0.503
1205.000	684.749	80.006	19.995	103.217	20.142	6.963	0.494
1205.499	685.008	80.004	19.994	103.214	20.137	7.305	0.489
1205.999	685.281	80.005	19.995	103.214	20.140	7.100	0.514
1206.500	685.526	80.007	19.995	103.214	20.140	7.091	0.525
1207.000	685.762	80.006	19.995	103.214	20.137	7.297	0.500
1207.499	686.036	80.006	19.995	103.214	20.135	7.415	0.496
1207.999	686.260	80.004	19.994	103.214	20.139	7.169	0.504
1208.499	686.512	80.005	19.994	103.210	20.138	7.265	0.487
1209.000	686.799	80.007	19.994	103.204	20.135	7.430	0.508
1209.500	687.055	80.006	19.994	103.203	20.142	6.981	0.541
1209.999	687.315	80.007	19.995	103.200	20.139	7.200	0.529
1210.499	687.577	80.006	19.994	103.202	20.137	7.332	0.519
1210.999	687.808	80.006	19.993	103.207	20.140	7.093	0.507
1211.499	688.062	80.005	19.994	103.213	20.140	7.124	0.489
1212.000	688.314	80.007	19.995	103.214	20.137	7.329	0.496
1212.500	688.563	80.006	19.995	103.216	20.136	7.370	0.504
1212.999	688.851	80.005	19.995	103.217	20.139	7.166	0.519
1213.499	689.091	80.006	19.995	103.217	20.139	7.182	0.532
1213.999	689.308	80.007	19.995	103.217	20.136	7.361	0.493
1214.499	689.620	80.005	19.994	103.218	20.142	6.974	0.493
1214.999	689.833	80.005	19.995	103.218	20.132	7.662	0.527
1215.499	690.091	80.005	19.994	103.217	20.140	7.095	0.498
1216.000	690.350	80.006	19.995	103.217	20.135	7.420	0.495
1216.500	690.590	80.005	19.995	103.214	20.138	7.226	0.508
1216.999	690.846	80.006	19.994	103.213	20.142	6.997	0.497
1217.499	691.106	80.006	19.995	103.213	20.141	7.035	0.506
1217.999	691.374	80.004	19.994	103.212	20.142	6.989	0.522
1218.499	691.597	80.006	19.994	103.213	20.139	7.149	0.509
1218.999	691.858	80.005	19.995	103.214	20.140	7.143	0.488
1219.499	692.112	80.005	19.995	103.215	20.140	7.120	0.499
1219.999	692.353	80.006	19.995	103.216	20.142	6.973	0.505
1220.499	692.617	80.006	19.995	103.217	20.142	6.998	0.500
1220.999	692.909	80.005	19.995	103.216	20.140	7.092	0.530
1221.499	693.121	80.004	19.994	103.217	20.141	7.025	0.530
1221.999	693.379	80.005	19.995	103.217	20.142	6.975	0.487
1222.499	693.648	80.004	19.995	103.220	20.142	7.006	0.498
1222.999	693.901	80.005	19.996	103.219	20.139	7.180	0.524
1223.499	694.132	80.006	19.996	103.220	20.141	7.024	0.503
1223.999	694.435	80.004	19.996	103.222	20.143	6.946	0.509
1224.500	694.665	80.003	19.994	103.225	20.139	7.190	0.534
1225.000	694.906	80.006	19.996	103.221	20.142	6.989	0.503
1225.500	695.187	80.005	19.997	103.221	20.138	7.223	0.496
1226.000	695.421	80.005	19.996	103.220	20.139	7.203	0.518
1226.499	695.706	80.003	19.994	103.219	20.137	7.317	0.518
1226.999	695.936	80.004	19.994	103.212	20.138	7.261	0.518
1227.499	696.173	80.004	19.998	103.207	20.137	7.321	0.491
1227.999	696.440	80.004	19.997	103.207	20.139	7.189	0.485
1228.500	696.670	80.005	19.998	103.207	20.139	7.156	0.500
1229.000	696.932	80.005	19.996	103.207	20.138	7.212	0.494
1229.499	697.233	80.005	19.996	103.209	20.137	7.297	0.527
1229.999	697.462	80.007	19.995	103.211	20.139	7.194	0.547
1230.499	697.726	80.006	19.997	103.208	20.138	7.245	0.512
1230.999	697.956	80.008	19.997	103.204	20.139	7.151	0.493
1231.499	698.247	80.006	19.996	103.202	20.135	7.419	0.507
1231.999	698.455	80.006	19.997	103.202	20.137	7.312	0.510
1232.499	698.722	80.006	19.995	103.206	20.139	7.200	0.487
1232.999	698.963	80.006	19.994	103.209	20.135	7.437	0.491
1233.499	699.209	80.007	19.996	103.212	20.138	7.252	0.497
1233.999	699.517	80.006	19.996	103.211	20.140	7.115	0.521
1234.499	699.745	80.007	19.995	103.211	20.137	7.339	0.545
1234.999	700.009	80.006	19.995	103.209	20.138	7.268	0.514
1235.499	700.238	80.007	19.994	103.206	20.139	7.185	0.492
1236.000	700.471	80.006	19.995	103.205	20.141	7.056	0.478
1236.500	700.703	80.007	19.995	103.204	20.139	7.158	0.464
1236.999	701.003	80.008	19.996	103.202	20.139	7.192	0.498
1237.499	701.274	80.008	19.996	103.204	20.131	7.688	0.551
1237.999	701.516	80.008	19.995	103.207	20.137	7.335	0.542
1238.499	701.769	80.009	19.995	103.209	20.143	6.934	0.504
1238.999	702.034	80.007	19.997	103.211	20.137	7.283	0.506
1239.499	702.234	80.007	19.994	103.213	20.134	7.499	0.491
1239.999	702.494	80.007	19.994	103.213	20.140	7.100	0.462
1240.499	702.769	80.008	19.995	103.212	20.138	7.229	0.498
1240.999	702.999	80.007	19.994	103.212	20.135	7.411	0.520
1241.499	703.264	80.009	19.994	103.211	20.134	7.503	0.501
1241.999	703.468	80.009	19.995	103.211	20.138	7.239	0.483
1242.500	703.756	80.006	19.994	103.210	20.138	7.263	0.480
1243.001	703.982	80.008	19.995	103.210	20.138	7.245	0.503
1243.500	704.232	80.007	19.992	103.210	20.134	7.491	0.494
1243.999	704.502	80.006	19.995	103.211	20.141	7.044	0.498
1244.499	704.759	80.008	19.995	103.211	20.135	7.422	0.524
1244.999	704.967	80.006	19.996	103.211	20.134	7.513	0.496
1245.499	705.263	80.007	19.994	103.212	20.137	7.307	0.485
1246.000	705.539	80.006	19.995	103.212	20.137	7.340	0.538
1246.500	705.744	80.008	19.995	103.210	20.136	7.352	0.526
1246.999	706.007	80.007	19.995	103.209	20.134	7.520	0.474
1247.500	706.257	80.008	19.994	103.209	20.133	7.591	0.491
1248.001	706.533	80.007	19.995	103.209	20.136	7.357	0.520
1248.500	706.769	80.007	19.994	103.209	20.136	7.390	0.519
1248.999	707.000	80.007	19.994	103.212	20.136	7.366	0.489
1249.499	707.291	80.006	19.995	103.215	20.137	7.283	0.494
1249.999	707.535	80.006	19.994	103.216	20.131	7.714	0.529
1250.499	707.760	80.005	19.995	103.216	20.133	7.580	0.502
1250.999	708.038	80.007	19.995	103.213	20.133	7.559	0.486
1251.500	708.260	80.007	19.994	103.211	20.133	7.558	0.501
1252.000	708.534	80.006	19.995	103.209	20.133	7.558	0.498
1252.500	708.772	80.008	19.994	103.209	20.133	7.585	0.505
1253.000	709.029	80.007	19.994	103.210	20.134	7.482	0.504
1253.499	709.267	80.006	19.995	103.214	20.135	7.457	0.495
1253.999	709.555	80.007	19.995	103.215	20.131	7.732	0.510
1254.499	709.782	80.007	19.994	103.215	20.131	7.696	0.521
1254.999	710.043	80.007	19.994	103.215	20.135	7.422	0.502
1255.499	710.267	80.008	19.994	103.215	20.133	7.569	0.487
1255.999	710.522	80.007	19.995	103.216	20.135	7.451	0.482
1256.499	710.759	80.008	19.995	103.219	20.130	7.750	0.485
1256.999	711.033	80.006	19.995	103.220	20.134	7.494	0.501
1257.499	711.289	80.008	19.994	103.218	20.134	7.529	0.520
1257.999	711.520	80.009	19.994	103.217	20.134	7.538	0.508
1258.499	711.795	80.008	19.994	103.217	20.135	7.440	0.497
1258.999	712.021	80.008	19.995	103.212	20.136	7.382	0.504
1259.499	712.276	80.008	19.995	103.212	20.143	6.930	0.491
1260.000	712.540	80.011	19.994	103.213	20.135	7.443	0.500
1260.500	712.775	80.009	19.995	103.213	20.141	7.051	0.509
1260.999	713.032	80.008	19.994	103.213	20.133	7.541	0.495
1261.499	713.274	80.006	19.993	103.212	20.135	7.407	0.495
1261.999	713.549	80.008	19.995	103.207	20.135	7.465	0.508
1262.499	713.812	80.006	19.994	103.208	20.142	6.952	0.527
1262.999	714.015	80.008	19.994	103.208	20.139	7.160	0.502
1263.499	714.308	80.009	19.995	103.209	20.137	7.301	0.481
1263.999	714.525	80.007	19.994	103.212	20.137	7.332	0.503
1264.500	714.823	80.007	19.994	103.216	20.135	7.437	0.513
1265.000	715.030	80.007	19.995	103.216	20.136	7.393	0.510
1265.500	715.275	80.007	19.993	103.214	20.138	7.271	0.479
1266.000	715.538	80.007	19.994	103.213	20.139	7.150	0.480
1266.499	715.807	80.009	19.994	103.212	20.135	7.447	0.520
1266.999	716.043	80.007	19.994	103.207	20.135	7.422	0.518
1267.499	716.316	80.008	19.995	103.209	20.136	7.366	0.507
1267.999	716.573	80.006	19.993	103.209	20.133	7.540	0.520
1268.499	716.831	80.007	19.993	103.207	20.136	7.350	0.523
1268.999	717.062	80.006	19.993	103.205	20.134	7.499	0.502
1269.499	717.351	80.006	19.995	103.210	20.136	7.383	0.504
1270.000	717.590	80.007	19.994	103.210	20.139	7.193	0.524
1270.500	717.835	80.006	19.993	103.208	20.136	7.350	0.506
1271.000	718.043	80.005	19.993	103.204	20.136	7.399	0.468
1271.500	718.359	80.006	19.994	103.205	20.135	7.460	0.489
1271.999	718.553	80.006	19.994	103.204	20.135	7.462	0.518
1272.499	718.875	80.008	19.994	103.205	20.132	7.625	0.513
1272.999	719.152	80.006	19.992	103.207	20.136	7.355	0.557
1273.499	719.332	80.006	19.994	103.212	20.137	7.329	0.528
1273.999	719.496	80.001	19.993	103.213	20.140	7.132	0.400
1274.499	719.937	80.007	19.993	103.212	20.141	7.065	0.475
1274.999	720.090	80.005	19.993	103.211	20.136	7.347	0.599
1275.499	720.351	80.006	19.993	103.210	20.136	7.351	0.504
1275.999	720.615	80.006	19.993	103.208	20.135	7.413	0.470
1276.499	720.875	80.006	19.995	103.203	20.137	7.320	0.525
1276.999	721.139	80.007	19.992	103.205	20.134	7.494	0.524
1277.499	721.349	80.006	19.993	103.205	20.135	7.451	0.498
1277.999	721.616	80.007	19.994	103.208	20.133	7.574	0.476
1278.499	721.888	80.006	19.994	103.211	20.135	7.473	0.509
1278.999	722.107	80.007	19.994	103.217	20.138	7.263	0.515
1279.499	722.348	80.007	19.995	103.217	20.137	7.321	0.475
1279.999	722.626	80.006	19.994	103.216	20.132	7.659	0.489
1280.499	722.890	80.007	19.994	103.216	20.134	7.513	0.530
1280.999	723.133	80.007	19.993	103.215	20.135	7.469	0.525
1281.500	723.386	80.007	19.994	103.212	20.137	7.339	0.502
1282.000	723.642	80.006	19.994	103.210	20.132	7.657	0.502
1282.500	723.909	80.007	19.994	103.208	20.134	7.500	0.516
1283.000	724.098	80.007	19.994	103.208	20.131	7.714	0.490
1283.499	724.386	80.006	19.994	103.208	20.136	7.388	0.467
1283.999	724.656	80.007	19.995	103.207	20.135	7.449	0.517
1284.499	724.881	80.006	19.994	103.205	20.132	7.639	0.526
1285.000	725.127	80.008	19.996	103.206	20.134	7.491	0.483
1285.500	725.394	80.007	19.994	103.203	20.129	7.822	0.492
1285.999	725.644	80.006	19.995	103.198	20.136	7.375	0.515
1286.499	725.884	80.006	19.995	103.200	20.132	7.647	0.503
1286.999	726.151	80.006	19.995	103.203	20.132	7.639	0.498
1287.499	726.336	80.007	19.996	103.203	20.134	7.475	0.480
1287.999	726.660	80.007	19.994	103.207	20.132	7.670	0.480
1288.499	726.890	80.006	19.997	103.211	20.136	7.377	0.531
1288.999	727.153	80.005	19.997	103.210	20.136	7.401	0.524
1289.499	727.391	80.005	19.996	103.209	20.138	7.240	0.497
1290.000	727.655	80.006	19.995	103.209	20.134	7.538	0.502
1290.500	727.925	80.006	19.995	103.208	20.133	7.567	0.518
1290.999	728.152	80.005	19.995	103.208	20.134	7.531	0.516
1291.499	728.397	80.006	19.996	103.209	20.133	7.591	0.484
1291.999	728.677	80.006	19.995	103.210	20.133	7.558	0.498
1292.499	728.916	80.008	19.995	103.209	20.135	7.408	0.522
1292.999	729.172	80.005	19.994	103.211	20.136	7.386	0.507
1293.499	729.406	80.008	19.995	103.210	20.135	7.462	0.492
1293.999	729.656	80.006	19.995	103.210	20.134	7.529	0.487
1294.500	729.925	80.006	19.995	103.211	20.129	7.806	0.502
1295.001	730.216	80.006	19.994	103.211	20.132	7.659	0.539
1295.501	730.468	80.006	19.996	103.211	20.135	7.444	0.552
1296.000	730.704	80.007	19.995	103.213	20.130	7.803	0.515
1296.499	730.991	80.006	19.995	103.212	20.133	7.551	0.505
1296.999	731.179	80.006	19.997	103.212	20.132	7.641	0.499
1297.499	731.463	80.005	19.995	103.212	20.135	7.447	0.473
1297.999	731.697	80.005	19.996	103.213	20.137	7.339	0.495
1298.499	731.950	80.005	19.996	103.213	20.130	7.760	0.502
1298.999	732.218	80.005	19.995	103.214	20.132	7.661	0.504
1299.499	732.457	80.005	19.995	103.214	20.134	7.536	0.514
1299.999	732.705	80.007	19.995	103.214	20.135	7.460	0.497
1300.499	732.978	80.006	19.996	103.215	20.135	7.448	0.504
1301.000	733.239	80.004	19.995	103.216	20.135	7.469	0.528
1301.500	733.506	80.005	19.996	103.215	20.129	7.817	0.531
1301.999	733.757	80.007	19.995	103.215	20.136	7.370	0.523
1302.499	734.012	80.007	19.995	103.215	20.140	7.078	0.512
1302.999	734.264	80.004	19.996	103.214	20.131	7.699	0.506
1303.499	734.527	80.006	19.995	103.213	20.136	7.372	0.511
1303.999	734.754	80.005	19.995	103.212	20.134	7.529	0.503
1304.499	735.014	80.006	19.995	103.211	20.133	7.549	0.488
1304.999	735.202	80.006	19.996	103.211	20.134	7.526	0.467
1305.499	735.507	80.003	19.996	103.212	20.136	7.390	0.470
1305.999	735.813	80.004	19.994	103.212	20.136	7.406	0.552
1306.499	736.045	80.005	19.995	103.214	20.130	7.750	0.575
1306.999	736.289	80.006	19.994	103.215	20.132	7.656	0.507
1307.499	736.522	80.006	19.995	103.215	20.128	7.871	0.477
1307.999	736.750	80.005	19.996	103.211	20.134	7.535	0.469
1308.499	736.998	80.005	19.995	103.210	20.139	7.194	0.468
1308.999	737.254	80.005	19.994	103.209	20.132	7.666	0.489
1309.500	737.500	80.006	19.994	103.208	20.137	7.329	0.503
1310.000	737.766	80.006	19.995	103.208	20.133	7.583	0.507
1310.500	737.980	80.005	19.995	103.211	20.132	7.624	0.496
1311.001	738.281	80.005	19.995	103.212	20.134	7.517	0.497
1311.500	738.523	80.006	19.995	103.212	20.137	7.288	0.529
1311.999	738.763	80.006	19.995	103.213	20.135	7.418	0.512
1312.499	739.002	80.005	19.994	103.213	20.134	7.532	0.480
1312.999	739.275	80.006	19.995	103.213	20.133	7.564	0.496
1313.499	739.523	80.006	19.994	103.213	20.130	7.756	0.517
1314.000	739.786	80.006	19.995	103.214	20.132	7.658	0.516
1314.500	740.053	80.007	19.995	103.212	20.130	7.736	0.520
1314.999	740.318	80.006	19.995	103.213	20.135	7.450	0.531
1315.499	740.556	80.006	19.995	103.213	20.133	7.592	0.517
1315.999	740.792	80.006	19.995	103.214	20.133	7.559	0.488
1316.499	741.033	80.005	19.995	103.213	20.131	7.711	0.476
1316.999	741.306	80.006	19.994	103.214	20.132	7.622	0.496
1317.499	741.558	80.007	19.996	103.214	20.130	7.739	0.520
1318.000	741.823	80.005	19.995	103.214	20.131	7.696	0.521
1318.500	742.031	80.006	19.995	103.213	20.137	7.324	0.495
1318.999	742.275	80.007	19.996	103.214	20.130	7.749	0.462
1319.499	742.555	80.006	19.996	103.214	20.133	7.557	0.488
1319.999	742.803	80.005	19.995	103.210	20.132	7.644	0.526
1320.499	743.048	80.006	19.995	103.204	20.133	7.557	0.511
1320.999	743.288	80.007	19.995	103.203	20.129	7.861	0.489
1321.499	743.564	80.008	19.995	103.203	20.136	7.346	0.500
1321.999	743.793	80.006	19.995	103.202	20.133	7.567	0.511
